Created as New Dataset,Sample 037 By irlear Date Thursday, January 01 2009
cm-1,A
4000.00,0.0083
3999.75,0.0083
3999.50,0.0082
3999.25,0.0080
3999.00,0.0078
3998.75,0.0076
3998.50,0.0074
3998.25,0.0074
3998.00,0.0074
3997.75,0.0075
3997.50,0.0075
3997.25,0.0076
3997.00,0.0076
3996.75,0.0077
3996.50,0.0079
3996.25,0.0080
3996.00,0.0081
3995.75,0.0082
3995.50,0.0081
3995.25,0.0080
3995.00,0.0079
3994.75,0.0078
3994.50,0.0078
3994.25,0.0078
3994.00,0.0078
3993.75,0.0078
3993.50,0.0077
3993.25,0.0077
3993.00,0.0077
3992.75,0.0078
3992.50,0.0078
3992.25,0.0078
3992.00,0.0077
3991.75,0.0077
3991.50,0.0077
3991.25,0.0077
3991.00,0.0077
3990.75,0.0076
3990.50,0.0076
3990.25,0.0075
3990.00,0.0075
3989.75,0.0075
3989.50,0.0076
3989.25,0.0077
3989.00,0.0078
3988.75,0.0078
3988.50,0.0078
3988.25,0.0077
3988.00,0.0076
3987.75,0.0075
3987.50,0.0076
3987.25,0.0076
3987.00,0.0078
3986.75,0.0079
3986.50,0.0080
3986.25,0.0080
3986.00,0.0081
3985.75,0.0080
3985.50,0.0080
3985.25,0.0079
3985.00,0.0079
3984.75,0.0080
3984.50,0.0081
3984.25,0.0082
3984.00,0.0082
3983.75,0.0081
3983.50,0.0080
3983.25,0.0079
3983.00,0.0078
3982.75,0.0078
3982.50,0.0078
3982.25,0.0078
3982.00,0.0079
3981.75,0.0080
3981.50,0.0080
3981.25,0.0080
3981.00,0.0080
3980.75,0.0079
3980.50,0.0077
3980.25,0.0076
3980.00,0.0075
3979.75,0.0075
3979.50,0.0075
3979.25,0.0076
3979.00,0.0077
3978.75,0.0077
3978.50,0.0078
3978.25,0.0078
3978.00,0.0079
3977.75,0.0079
3977.50,0.0078
3977.25,0.0078
3977.00,0.0077
3976.75,0.0077
3976.50,0.0077
3976.25,0.0077
3976.00,0.0078
3975.75,0.0079
3975.50,0.0079
3975.25,0.0078
3975.00,0.0077
3974.75,0.0076
3974.50,0.0075
3974.25,0.0075
3974.00,0.0076
3973.75,0.0077
3973.50,0.0077
3973.25,0.0077
3973.00,0.0078
3972.75,0.0079
3972.50,0.0079
3972.25,0.0080
3972.00,0.0081
3971.75,0.0081
3971.50,0.0080
3971.25,0.0079
3971.00,0.0078
3970.75,0.0077
3970.50,0.0077
3970.25,0.0077
3970.00,0.0077
3969.75,0.0077
3969.50,0.0077
3969.25,0.0076
3969.00,0.0076
3968.75,0.0075
3968.50,0.0074
3968.25,0.0073
3968.00,0.0074
3967.75,0.0075
3967.50,0.0077
3967.25,0.0079
3967.00,0.0080
3966.75,0.0082
3966.50,0.0083
3966.25,0.0084
3966.00,0.0083
3965.75,0.0082
3965.50,0.0079
3965.25,0.0077
3965.00,0.0075
3964.75,0.0075
3964.50,0.0075
3964.25,0.0075
3964.00,0.0076
3963.75,0.0076
3963.50,0.0077
3963.25,0.0077
3963.00,0.0076
3962.75,0.0076
3962.50,0.0076
3962.25,0.0076
3962.00,0.0076
3961.75,0.0076
3961.50,0.0076
3961.25,0.0076
3961.00,0.0076
3960.75,0.0077
3960.50,0.0077
3960.25,0.0078
3960.00,0.0079
3959.75,0.0079
3959.50,0.0079
3959.25,0.0078
3959.00,0.0078
3958.75,0.0078
3958.50,0.0079
3958.25,0.0079
3958.00,0.0080
3957.75,0.0080
3957.50,0.0080
3957.25,0.0080
3957.00,0.0080
3956.75,0.0081
3956.50,0.0081
3956.25,0.0081
3956.00,0.0080
3955.75,0.0079
3955.50,0.0078
3955.25,0.0077
3955.00,0.0076
3954.75,0.0075
3954.50,0.0074
3954.25,0.0074
3954.00,0.0074
3953.75,0.0075
3953.50,0.0077
3953.25,0.0077
3953.00,0.0077
3952.75,0.0076
3952.50,0.0075
3952.25,0.0074
3952.00,0.0074
3951.75,0.0076
3951.50,0.0077
3951.25,0.0078
3951.00,0.0078
3950.75,0.0078
3950.50,0.0076
3950.25,0.0075
3950.00,0.0074
3949.75,0.0074
3949.50,0.0075
3949.25,0.0075
3949.00,0.0076
3948.75,0.0076
3948.50,0.0076
3948.25,0.0076
3948.00,0.0077
3947.75,0.0077
3947.50,0.0076
3947.25,0.0076
3947.00,0.0076
3946.75,0.0076
3946.50,0.0077
3946.25,0.0077
3946.00,0.0078
3945.75,0.0078
3945.50,0.0078
3945.25,0.0078
3945.00,0.0078
3944.75,0.0080
3944.50,0.0081
3944.25,0.0082
3944.00,0.0082
3943.75,0.0080
3943.50,0.0077
3943.25,0.0075
3943.00,0.0074
3942.75,0.0074
3942.50,0.0075
3942.25,0.0076
3942.00,0.0076
3941.75,0.0075
3941.50,0.0075
3941.25,0.0075
3941.00,0.0074
3940.75,0.0075
3940.50,0.0075
3940.25,0.0076
3940.00,0.0077
3939.75,0.0078
3939.50,0.0078
3939.25,0.0078
3939.00,0.0078
3938.75,0.0077
3938.50,0.0076
3938.25,0.0076
3938.00,0.0075
3937.75,0.0075
3937.50,0.0076
3937.25,0.0076
3937.00,0.0075
3936.75,0.0075
3936.50,0.0074
3936.25,0.0074
3936.00,0.0074
3935.75,0.0074
3935.50,0.0075
3935.25,0.0075
3935.00,0.0075
3934.75,0.0075
3934.50,0.0074
3934.25,0.0075
3934.00,0.0077
3933.75,0.0078
3933.50,0.0079
3933.25,0.0078
3933.00,0.0077
3932.75,0.0075
3932.50,0.0074
3932.25,0.0075
3932.00,0.0077
3931.75,0.0079
3931.50,0.0080
3931.25,0.0080
3931.00,0.0080
3930.75,0.0079
3930.50,0.0079
3930.25,0.0078
3930.00,0.0077
3929.75,0.0076
3929.50,0.0075
3929.25,0.0074
3929.00,0.0075
3928.75,0.0075
3928.50,0.0076
3928.25,0.0076
3928.00,0.0077
3927.75,0.0078
3927.50,0.0079
3927.25,0.0079
3927.00,0.0078
3926.75,0.0077
3926.50,0.0076
3926.25,0.0075
3926.00,0.0075
3925.75,0.0075
3925.50,0.0075
3925.25,0.0075
3925.00,0.0074
3924.75,0.0073
3924.50,0.0073
3924.25,0.0073
3924.00,0.0074
3923.75,0.0074
3923.50,0.0074
3923.25,0.0075
3923.00,0.0076
3922.75,0.0077
3922.50,0.0077
3922.25,0.0078
3922.00,0.0078
3921.75,0.0078
3921.50,0.0077
3921.25,0.0076
3921.00,0.0076
3920.75,0.0076
3920.50,0.0077
3920.25,0.0077
3920.00,0.0078
3919.75,0.0077
3919.50,0.0076
3919.25,0.0074
3919.00,0.0074
3918.75,0.0074
3918.50,0.0074
3918.25,0.0075
3918.00,0.0075
3917.75,0.0075
3917.50,0.0074
3917.25,0.0073
3917.00,0.0073
3916.75,0.0073
3916.50,0.0074
3916.25,0.0076
3916.00,0.0077
3915.75,0.0078
3915.50,0.0079
3915.25,0.0079
3915.00,0.0080
3914.75,0.0080
3914.50,0.0080
3914.25,0.0080
3914.00,0.0079
3913.75,0.0079
3913.50,0.0078
3913.25,0.0076
3913.00,0.0075
3912.75,0.0074
3912.50,0.0074
3912.25,0.0074
3912.00,0.0075
3911.75,0.0075
3911.50,0.0076
3911.25,0.0076
3911.00,0.0077
3910.75,0.0078
3910.50,0.0079
3910.25,0.0079
3910.00,0.0079
3909.75,0.0078
3909.50,0.0077
3909.25,0.0077
3909.00,0.0078
3908.75,0.0079
3908.50,0.0081
3908.25,0.0082
3908.00,0.0082
3907.75,0.0081
3907.50,0.0079
3907.25,0.0077
3907.00,0.0076
3906.75,0.0075
3906.50,0.0075
3906.25,0.0076
3906.00,0.0078
3905.75,0.0079
3905.50,0.0080
3905.25,0.0079
3905.00,0.0078
3904.75,0.0076
3904.50,0.0073
3904.25,0.0071
3904.00,0.0070
3903.75,0.0068
3903.50,0.0067
3903.25,0.0066
3903.00,0.0066
3902.75,0.0067
3902.50,0.0068
3902.25,0.0069
3902.00,0.0069
3901.75,0.0069
3901.50,0.0068
3901.25,0.0067
3901.00,0.0068
3900.75,0.0069
3900.50,0.0071
3900.25,0.0074
3900.00,0.0076
3899.75,0.0077
3899.50,0.0077
3899.25,0.0075
3899.00,0.0072
3898.75,0.0068
3898.50,0.0067
3898.25,0.0068
3898.00,0.0069
3897.75,0.0072
3897.50,0.0074
3897.25,0.0076
3897.00,0.0076
3896.75,0.0076
3896.50,0.0076
3896.25,0.0077
3896.00,0.0078
3895.75,0.0079
3895.50,0.0079
3895.25,0.0080
3895.00,0.0079
3894.75,0.0077
3894.50,0.0076
3894.25,0.0075
3894.00,0.0074
3893.75,0.0075
3893.50,0.0075
3893.25,0.0075
3893.00,0.0075
3892.75,0.0075
3892.50,0.0075
3892.25,0.0076
3892.00,0.0076
3891.75,0.0074
3891.50,0.0073
3891.25,0.0072
3891.00,0.0071
3890.75,0.0071
3890.50,0.0071
3890.25,0.0071
3890.00,0.0072
3889.75,0.0073
3889.50,0.0076
3889.25,0.0078
3889.00,0.0080
3888.75,0.0080
3888.50,0.0080
3888.25,0.0079
3888.00,0.0077
3887.75,0.0076
3887.50,0.0075
3887.25,0.0074
3887.00,0.0075
3886.75,0.0075
3886.50,0.0076
3886.25,0.0076
3886.00,0.0075
3885.75,0.0074
3885.50,0.0071
3885.25,0.0069
3885.00,0.0069
3884.75,0.0071
3884.50,0.0073
3884.25,0.0075
3884.00,0.0077
3883.75,0.0079
3883.50,0.0079
3883.25,0.0079
3883.00,0.0078
3882.75,0.0077
3882.50,0.0076
3882.25,0.0075
3882.00,0.0075
3881.75,0.0075
3881.50,0.0075
3881.25,0.0075
3881.00,0.0074
3880.75,0.0071
3880.50,0.0068
3880.25,0.0065
3880.00,0.0063
3879.75,0.0064
3879.50,0.0066
3879.25,0.0068
3879.00,0.0070
3878.75,0.0072
3878.50,0.0073
3878.25,0.0075
3878.00,0.0077
3877.75,0.0077
3877.50,0.0076
3877.25,0.0074
3877.00,0.0072
3876.75,0.0072
3876.50,0.0072
3876.25,0.0074
3876.00,0.0076
3875.75,0.0077
3875.50,0.0076
3875.25,0.0075
3875.00,0.0072
3874.75,0.0069
3874.50,0.0067
3874.25,0.0067
3874.00,0.0068
3873.75,0.0069
3873.50,0.0070
3873.25,0.0071
3873.00,0.0071
3872.75,0.0072
3872.50,0.0072
3872.25,0.0073
3872.00,0.0073
3871.75,0.0074
3871.50,0.0074
3871.25,0.0074
3871.00,0.0073
3870.75,0.0070
3870.50,0.0068
3870.25,0.0066
3870.00,0.0067
3869.75,0.0069
3869.50,0.0070
3869.25,0.0070
3869.00,0.0069
3868.75,0.0068
3868.50,0.0069
3868.25,0.0069
3868.00,0.0070
3867.75,0.0071
3867.50,0.0071
3867.25,0.0072
3867.00,0.0071
3866.75,0.0071
3866.50,0.0070
3866.25,0.0070
3866.00,0.0070
3865.75,0.0070
3865.50,0.0069
3865.25,0.0068
3865.00,0.0068
3864.75,0.0067
3864.50,0.0067
3864.25,0.0066
3864.00,0.0067
3863.75,0.0069
3863.50,0.0071
3863.25,0.0074
3863.00,0.0076
3862.75,0.0078
3862.50,0.0077
3862.25,0.0076
3862.00,0.0074
3861.75,0.0072
3861.50,0.0072
3861.25,0.0072
3861.00,0.0072
3860.75,0.0071
3860.50,0.0070
3860.25,0.0070
3860.00,0.0071
3859.75,0.0072
3859.50,0.0074
3859.25,0.0075
3859.00,0.0075
3858.75,0.0075
3858.50,0.0076
3858.25,0.0075
3858.00,0.0075
3857.75,0.0074
3857.50,0.0073
3857.25,0.0073
3857.00,0.0074
3856.75,0.0074
3856.50,0.0073
3856.25,0.0071
3856.00,0.0069
3855.75,0.0068
3855.50,0.0067
3855.25,0.0067
3855.00,0.0066
3854.75,0.0065
3854.50,0.0063
3854.25,0.0062
3854.00,0.0064
3853.75,0.0060
3853.50,0.0057
3853.25,0.0058
3853.00,0.0059
3852.75,0.0059
3852.50,0.0058
3852.25,0.0058
3852.00,0.0061
3851.75,0.0064
3851.50,0.0066
3851.25,0.0067
3851.00,0.0067
3850.75,0.0067
3850.50,0.0068
3850.25,0.0069
3850.00,0.0070
3849.75,0.0072
3849.50,0.0073
3849.25,0.0074
3849.00,0.0076
3848.75,0.0077
3848.50,0.0078
3848.25,0.0079
3848.00,0.0079
3847.75,0.0080
3847.50,0.0080
3847.25,0.0079
3847.00,0.0078
3846.75,0.0077
3846.50,0.0077
3846.25,0.0077
3846.00,0.0078
3845.75,0.0078
3845.50,0.0078
3845.25,0.0078
3845.00,0.0077
3844.75,0.0076
3844.50,0.0075
3844.25,0.0073
3844.00,0.0072
3843.75,0.0071
3843.50,0.0071
3843.25,0.0071
3843.00,0.0070
3842.75,0.0071
3842.50,0.0071
3842.25,0.0072
3842.00,0.0074
3841.75,0.0074
3841.50,0.0073
3841.25,0.0072
3841.00,0.0070
3840.75,0.0069
3840.50,0.0067
3840.25,0.0065
3840.00,0.0064
3839.75,0.0063
3839.50,0.0063
3839.25,0.0063
3839.00,0.0062
3838.75,0.0060
3838.50,0.0058
3838.25,0.0056
3838.00,0.0057
3837.75,0.0061
3837.50,0.0064
3837.25,0.0065
3837.00,0.0067
3836.75,0.0068
3836.50,0.0069
3836.25,0.0070
3836.00,0.0070
3835.75,0.0070
3835.50,0.0068
3835.25,0.0066
3835.00,0.0065
3834.75,0.0065
3834.50,0.0066
3834.25,0.0068
3834.00,0.0070
3833.75,0.0072
3833.50,0.0073
3833.25,0.0074
3833.00,0.0075
3832.75,0.0076
3832.50,0.0075
3832.25,0.0073
3832.00,0.0071
3831.75,0.0071
3831.50,0.0073
3831.25,0.0076
3831.00,0.0076
3830.75,0.0076
3830.50,0.0075
3830.25,0.0074
3830.00,0.0075
3829.75,0.0076
3829.50,0.0077
3829.25,0.0077
3829.00,0.0076
3828.75,0.0075
3828.50,0.0075
3828.25,0.0075
3828.00,0.0076
3827.75,0.0077
3827.50,0.0077
3827.25,0.0078
3827.00,0.0079
3826.75,0.0079
3826.50,0.0079
3826.25,0.0077
3826.00,0.0074
3825.75,0.0072
3825.50,0.0072
3825.25,0.0073
3825.00,0.0075
3824.75,0.0077
3824.50,0.0080
3824.25,0.0081
3824.00,0.0081
3823.75,0.0080
3823.50,0.0078
3823.25,0.0076
3823.00,0.0074
3822.75,0.0071
3822.50,0.0069
3822.25,0.0066
3822.00,0.0064
3821.75,0.0064
3821.50,0.0064
3821.25,0.0063
3821.00,0.0060
3820.75,0.0056
3820.50,0.0056
3820.25,0.0059
3820.00,0.0062
3819.75,0.0064
3819.50,0.0065
3819.25,0.0066
3819.00,0.0068
3818.75,0.0071
3818.50,0.0073
3818.25,0.0076
3818.00,0.0077
3817.75,0.0076
3817.50,0.0075
3817.25,0.0074
3817.00,0.0072
3816.75,0.0070
3816.50,0.0068
3816.25,0.0068
3816.00,0.0070
3815.75,0.0072
3815.50,0.0073
3815.25,0.0072
3815.00,0.0071
3814.75,0.0070
3814.50,0.0071
3814.25,0.0073
3814.00,0.0076
3813.75,0.0078
3813.50,0.0080
3813.25,0.0081
3813.00,0.0081
3812.75,0.0081
3812.50,0.0081
3812.25,0.0080
3812.00,0.0078
3811.75,0.0077
3811.50,0.0076
3811.25,0.0075
3811.00,0.0076
3810.75,0.0077
3810.50,0.0078
3810.25,0.0079
3810.00,0.0079
3809.75,0.0079
3809.50,0.0078
3809.25,0.0076
3809.00,0.0074
3808.75,0.0072
3808.50,0.0072
3808.25,0.0074
3808.00,0.0076
3807.75,0.0078
3807.50,0.0078
3807.25,0.0078
3807.00,0.0079
3806.75,0.0078
3806.50,0.0075
3806.25,0.0072
3806.00,0.0069
3805.75,0.0068
3805.50,0.0069
3805.25,0.0070
3805.00,0.0072
3804.75,0.0073
3804.50,0.0073
3804.25,0.0073
3804.00,0.0073
3803.75,0.0072
3803.50,0.0070
3803.25,0.0069
3803.00,0.0068
3802.75,0.0068
3802.50,0.0066
3802.25,0.0064
3802.00,0.0059
3801.75,0.0054
3801.50,0.0052
3801.25,0.0055
3801.00,0.0059
3800.75,0.0063
3800.50,0.0064
3800.25,0.0065
3800.00,0.0065
3799.75,0.0065
3799.50,0.0066
3799.25,0.0068
3799.00,0.0071
3798.75,0.0075
3798.50,0.0077
3798.25,0.0078
3798.00,0.0077
3797.75,0.0076
3797.50,0.0076
3797.25,0.0075
3797.00,0.0075
3796.75,0.0074
3796.50,0.0073
3796.25,0.0074
3796.00,0.0074
3795.75,0.0074
3795.50,0.0073
3795.25,0.0073
3795.00,0.0074
3794.75,0.0074
3794.50,0.0076
3794.25,0.0077
3794.00,0.0077
3793.75,0.0078
3793.50,0.0078
3793.25,0.0078
3793.00,0.0077
3792.75,0.0077
3792.50,0.0077
3792.25,0.0077
3792.00,0.0076
3791.75,0.0075
3791.50,0.0075
3791.25,0.0074
3791.00,0.0075
3790.75,0.0076
3790.50,0.0077
3790.25,0.0077
3790.00,0.0076
3789.75,0.0076
3789.50,0.0075
3789.25,0.0076
3789.00,0.0076
3788.75,0.0077
3788.50,0.0078
3788.25,0.0079
3788.00,0.0080
3787.75,0.0081
3787.50,0.0081
3787.25,0.0080
3787.00,0.0079
3786.75,0.0079
3786.50,0.0079
3786.25,0.0079
3786.00,0.0079
3785.75,0.0079
3785.50,0.0078
3785.25,0.0077
3785.00,0.0077
3784.75,0.0076
3784.50,0.0076
3784.25,0.0076
3784.00,0.0075
3783.75,0.0075
3783.50,0.0075
3783.25,0.0075
3783.00,0.0076
3782.75,0.0077
3782.50,0.0078
3782.25,0.0079
3782.00,0.0080
3781.75,0.0080
3781.50,0.0080
3781.25,0.0080
3781.00,0.0080
3780.75,0.0081
3780.50,0.0080
3780.25,0.0078
3780.00,0.0075
3779.75,0.0072
3779.50,0.0071
3779.25,0.0070
3779.00,0.0070
3778.75,0.0071
3778.50,0.0073
3778.25,0.0075
3778.00,0.0076
3777.75,0.0078
3777.50,0.0079
3777.25,0.0079
3777.00,0.0079
3776.75,0.0079
3776.50,0.0079
3776.25,0.0079
3776.00,0.0079
3775.75,0.0079
3775.50,0.0079
3775.25,0.0079
3775.00,0.0078
3774.75,0.0078
3774.50,0.0077
3774.25,0.0076
3774.00,0.0076
3773.75,0.0075
3773.50,0.0074
3773.25,0.0073
3773.00,0.0073
3772.75,0.0075
3772.50,0.0077
3772.25,0.0079
3772.00,0.0081
3771.75,0.0081
3771.50,0.0080
3771.25,0.0078
3771.00,0.0075
3770.75,0.0073
3770.50,0.0071
3770.25,0.0070
3770.00,0.0071
3769.75,0.0072
3769.50,0.0073
3769.25,0.0074
3769.00,0.0074
3768.75,0.0074
3768.50,0.0074
3768.25,0.0074
3768.00,0.0075
3767.75,0.0075
3767.50,0.0075
3767.25,0.0075
3767.00,0.0076
3766.75,0.0078
3766.50,0.0080
3766.25,0.0082
3766.00,0.0084
3765.75,0.0085
3765.50,0.0084
3765.25,0.0080
3765.00,0.0077
3764.75,0.0076
3764.50,0.0077
3764.25,0.0078
3764.00,0.0080
3763.75,0.0081
3763.50,0.0082
3763.25,0.0081
3763.00,0.0081
3762.75,0.0080
3762.50,0.0079
3762.25,0.0078
3762.00,0.0078
3761.75,0.0078
3761.50,0.0077
3761.25,0.0077
3761.00,0.0076
3760.75,0.0075
3760.50,0.0074
3760.25,0.0072
3760.00,0.0070
3759.75,0.0069
3759.50,0.0070
3759.25,0.0071
3759.00,0.0073
3758.75,0.0074
3758.50,0.0076
3758.25,0.0077
3758.00,0.0079
3757.75,0.0080
3757.50,0.0080
3757.25,0.0079
3757.00,0.0078
3756.75,0.0076
3756.50,0.0075
3756.25,0.0074
3756.00,0.0074
3755.75,0.0075
3755.50,0.0076
3755.25,0.0078
3755.00,0.0079
3754.75,0.0079
3754.50,0.0078
3754.25,0.0077
3754.00,0.0075
3753.75,0.0074
3753.50,0.0073
3753.25,0.0072
3753.00,0.0070
3752.75,0.0068
3752.50,0.0065
3752.25,0.0064
3752.00,0.0066
3751.75,0.0067
3751.50,0.0068
3751.25,0.0068
3751.00,0.0067
3750.75,0.0067
3750.50,0.0067
3750.25,0.0069
3750.00,0.0072
3749.75,0.0074
3749.50,0.0078
3749.25,0.0078
3749.00,0.0073
3748.75,0.0068
3748.50,0.0067
3748.25,0.0069
3748.00,0.0072
3747.75,0.0075
3747.50,0.0077
3747.25,0.0078
3747.00,0.0077
3746.75,0.0076
3746.50,0.0075
3746.25,0.0074
3746.00,0.0073
3745.75,0.0073
3745.50,0.0071
3745.25,0.0067
3745.00,0.0060
3744.75,0.0048
3744.50,0.0039
3744.25,0.0035
3744.00,0.0039
3743.75,0.0049
3743.50,0.0057
3743.25,0.0062
3743.00,0.0066
3742.75,0.0068
3742.50,0.0070
3742.25,0.0071
3742.00,0.0071
3741.75,0.0070
3741.50,0.0070
3741.25,0.0073
3741.00,0.0078
3740.75,0.0082
3740.50,0.0084
3740.25,0.0083
3740.00,0.0082
3739.75,0.0080
3739.50,0.0078
3739.25,0.0076
3739.00,0.0074
3738.75,0.0073
3738.50,0.0073
3738.25,0.0074
3738.00,0.0076
3737.75,0.0077
3737.50,0.0077
3737.25,0.0076
3737.00,0.0074
3736.75,0.0073
3736.50,0.0072
3736.25,0.0071
3736.00,0.0069
3735.75,0.0066
3735.50,0.0063
3735.25,0.0062
3735.00,0.0066
3734.75,0.0071
3734.50,0.0074
3734.25,0.0075
3734.00,0.0073
3733.75,0.0071
3733.50,0.0070
3733.25,0.0070
3733.00,0.0071
3732.75,0.0073
3732.50,0.0076
3732.25,0.0079
3732.00,0.0082
3731.75,0.0080
3731.50,0.0076
3731.25,0.0072
3731.00,0.0071
3730.75,0.0072
3730.50,0.0074
3730.25,0.0075
3730.00,0.0076
3729.75,0.0077
3729.50,0.0077
3729.25,0.0078
3729.00,0.0079
3728.75,0.0079
3728.50,0.0079
3728.25,0.0078
3728.00,0.0077
3727.75,0.0076
3727.50,0.0075
3727.25,0.0074
3727.00,0.0072
3726.75,0.0071
3726.50,0.0071
3726.25,0.0072
3726.00,0.0073
3725.75,0.0075
3725.50,0.0076
3725.25,0.0078
3725.00,0.0081
3724.75,0.0083
3724.50,0.0083
3724.25,0.0082
3724.00,0.0080
3723.75,0.0080
3723.50,0.0080
3723.25,0.0080
3723.00,0.0080
3722.75,0.0080
3722.50,0.0079
3722.25,0.0078
3722.00,0.0079
3721.75,0.0079
3721.50,0.0080
3721.25,0.0079
3721.00,0.0079
3720.75,0.0079
3720.50,0.0080
3720.25,0.0081
3720.00,0.0081
3719.75,0.0080
3719.50,0.0077
3719.25,0.0075
3719.00,0.0073
3718.75,0.0072
3718.50,0.0072
3718.25,0.0073
3718.00,0.0074
3717.75,0.0077
3717.50,0.0079
3717.25,0.0081
3717.00,0.0082
3716.75,0.0082
3716.50,0.0081
3716.25,0.0081
3716.00,0.0081
3715.75,0.0081
3715.50,0.0082
3715.25,0.0083
3715.00,0.0085
3714.75,0.0086
3714.50,0.0085
3714.25,0.0083
3714.00,0.0080
3713.75,0.0078
3713.50,0.0077
3713.25,0.0077
3713.00,0.0077
3712.75,0.0076
3712.50,0.0075
3712.25,0.0075
3712.00,0.0076
3711.75,0.0075
3711.50,0.0072
3711.25,0.0070
3711.00,0.0069
3710.75,0.0071
3710.50,0.0073
3710.25,0.0076
3710.00,0.0078
3709.75,0.0078
3709.50,0.0077
3709.25,0.0076
3709.00,0.0076
3708.75,0.0077
3708.50,0.0079
3708.25,0.0082
3708.00,0.0084
3707.75,0.0087
3707.50,0.0088
3707.25,0.0088
3707.00,0.0088
3706.75,0.0087
3706.50,0.0087
3706.25,0.0087
3706.00,0.0087
3705.75,0.0086
3705.50,0.0085
3705.25,0.0085
3705.00,0.0085
3704.75,0.0085
3704.50,0.0085
3704.25,0.0084
3704.00,0.0084
3703.75,0.0085
3703.50,0.0086
3703.25,0.0086
3703.00,0.0086
3702.75,0.0085
3702.50,0.0084
3702.25,0.0083
3702.00,0.0082
3701.75,0.0081
3701.50,0.0080
3701.25,0.0080
3701.00,0.0081
3700.75,0.0083
3700.50,0.0086
3700.25,0.0089
3700.00,0.0092
3699.75,0.0093
3699.50,0.0093
3699.25,0.0091
3699.00,0.0089
3698.75,0.0088
3698.50,0.0088
3698.25,0.0088
3698.00,0.0089
3697.75,0.0089
3697.50,0.0088
3697.25,0.0086
3697.00,0.0085
3696.75,0.0084
3696.50,0.0084
3696.25,0.0083
3696.00,0.0084
3695.75,0.0085
3695.50,0.0085
3695.25,0.0086
3695.00,0.0087
3694.75,0.0087
3694.50,0.0087
3694.25,0.0087
3694.00,0.0088
3693.75,0.0087
3693.50,0.0086
3693.25,0.0085
3693.00,0.0083
3692.75,0.0082
3692.50,0.0082
3692.25,0.0083
3692.00,0.0084
3691.75,0.0084
3691.50,0.0084
3691.25,0.0084
3691.00,0.0085
3690.75,0.0084
3690.50,0.0080
3690.25,0.0077
3690.00,0.0074
3689.75,0.0073
3689.50,0.0073
3689.25,0.0074
3689.00,0.0075
3688.75,0.0076
3688.50,0.0081
3688.25,0.0088
3688.00,0.0090
3687.75,0.0088
3687.50,0.0085
3687.25,0.0082
3687.00,0.0082
3686.75,0.0082
3686.50,0.0083
3686.25,0.0085
3686.00,0.0085
3685.75,0.0086
3685.50,0.0086
3685.25,0.0087
3685.00,0.0087
3684.75,0.0088
3684.50,0.0088
3684.25,0.0089
3684.00,0.0089
3683.75,0.0090
3683.50,0.0090
3683.25,0.0091
3683.00,0.0092
3682.75,0.0093
3682.50,0.0094
3682.25,0.0093
3682.00,0.0092
3681.75,0.0091
3681.50,0.0090
3681.25,0.0090
3681.00,0.0090
3680.75,0.0090
3680.50,0.0089
3680.25,0.0088
3680.00,0.0087
3679.75,0.0085
3679.50,0.0083
3679.25,0.0082
3679.00,0.0082
3678.75,0.0083
3678.50,0.0084
3678.25,0.0085
3678.00,0.0084
3677.75,0.0083
3677.50,0.0082
3677.25,0.0081
3677.00,0.0080
3676.75,0.0079
3676.50,0.0076
3676.25,0.0073
3676.00,0.0073
3675.75,0.0076
3675.50,0.0080
3675.25,0.0080
3675.00,0.0076
3674.75,0.0071
3674.50,0.0069
3674.25,0.0070
3674.00,0.0074
3673.75,0.0077
3673.50,0.0080
3673.25,0.0082
3673.00,0.0084
3672.75,0.0084
3672.50,0.0084
3672.25,0.0083
3672.00,0.0083
3671.75,0.0084
3671.50,0.0085
3671.25,0.0085
3671.00,0.0085
3670.75,0.0086
3670.50,0.0089
3670.25,0.0091
3670.00,0.0092
3669.75,0.0091
3669.50,0.0090
3669.25,0.0089
3669.00,0.0090
3668.75,0.0091
3668.50,0.0092
3668.25,0.0090
3668.00,0.0087
3667.75,0.0085
3667.50,0.0083
3667.25,0.0083
3667.00,0.0085
3666.75,0.0086
3666.50,0.0087
3666.25,0.0089
3666.00,0.0090
3665.75,0.0091
3665.50,0.0094
3665.25,0.0096
3665.00,0.0097
3664.75,0.0097
3664.50,0.0097
3664.25,0.0096
3664.00,0.0095
3663.75,0.0094
3663.50,0.0093
3663.25,0.0093
3663.00,0.0092
3662.75,0.0090
3662.50,0.0089
3662.25,0.0087
3662.00,0.0087
3661.75,0.0087
3661.50,0.0089
3661.25,0.0090
3661.00,0.0091
3660.75,0.0092
3660.50,0.0091
3660.25,0.0091
3660.00,0.0092
3659.75,0.0092
3659.50,0.0092
3659.25,0.0092
3659.00,0.0092
3658.75,0.0093
3658.50,0.0093
3658.25,0.0093
3658.00,0.0091
3657.75,0.0089
3657.50,0.0087
3657.25,0.0086
3657.00,0.0085
3656.75,0.0084
3656.50,0.0082
3656.25,0.0081
3656.00,0.0082
3655.75,0.0084
3655.50,0.0087
3655.25,0.0090
3655.00,0.0091
3654.75,0.0091
3654.50,0.0090
3654.25,0.0089
3654.00,0.0088
3653.75,0.0088
3653.50,0.0089
3653.25,0.0090
3653.00,0.0091
3652.75,0.0091
3652.50,0.0089
3652.25,0.0086
3652.00,0.0083
3651.75,0.0080
3651.50,0.0079
3651.25,0.0079
3651.00,0.0081
3650.75,0.0081
3650.50,0.0079
3650.25,0.0078
3650.00,0.0078
3649.75,0.0076
3649.50,0.0075
3649.25,0.0074
3649.00,0.0076
3648.75,0.0078
3648.50,0.0079
3648.25,0.0079
3648.00,0.0078
3647.75,0.0077
3647.50,0.0077
3647.25,0.0078
3647.00,0.0078
3646.75,0.0076
3646.50,0.0077
3646.25,0.0079
3646.00,0.0082
3645.75,0.0086
3645.50,0.0090
3645.25,0.0092
3645.00,0.0094
3644.75,0.0095
3644.50,0.0095
3644.25,0.0095
3644.00,0.0094
3643.75,0.0093
3643.50,0.0092
3643.25,0.0091
3643.00,0.0091
3642.75,0.0091
3642.50,0.0092
3642.25,0.0092
3642.00,0.0092
3641.75,0.0092
3641.50,0.0091
3641.25,0.0090
3641.00,0.0089
3640.75,0.0089
3640.50,0.0090
3640.25,0.0091
3640.00,0.0092
3639.75,0.0092
3639.50,0.0093
3639.25,0.0093
3639.00,0.0094
3638.75,0.0094
3638.50,0.0095
3638.25,0.0096
3638.00,0.0095
3637.75,0.0094
3637.50,0.0091
3637.25,0.0089
3637.00,0.0088
3636.75,0.0089
3636.50,0.0089
3636.25,0.0091
3636.00,0.0093
3635.75,0.0094
3635.50,0.0095
3635.25,0.0095
3635.00,0.0094
3634.75,0.0092
3634.50,0.0090
3634.25,0.0091
3634.00,0.0093
3633.75,0.0096
3633.50,0.0098
3633.25,0.0098
3633.00,0.0096
3632.75,0.0095
3632.50,0.0094
3632.25,0.0095
3632.00,0.0096
3631.75,0.0097
3631.50,0.0097
3631.25,0.0096
3631.00,0.0095
3630.75,0.0095
3630.50,0.0093
3630.25,0.0091
3630.00,0.0087
3629.75,0.0084
3629.50,0.0082
3629.25,0.0079
3629.00,0.0074
3628.75,0.0069
3628.50,0.0067
3628.25,0.0070
3628.00,0.0076
3627.75,0.0082
3627.50,0.0087
3627.25,0.0091
3627.00,0.0093
3626.75,0.0094
3626.50,0.0095
3626.25,0.0095
3626.00,0.0094
3625.75,0.0093
3625.50,0.0093
3625.25,0.0092
3625.00,0.0091
3624.75,0.0090
3624.50,0.0089
3624.25,0.0089
3624.00,0.0089
3623.75,0.0091
3623.50,0.0093
3623.25,0.0096
3623.00,0.0098
3622.75,0.0098
3622.50,0.0097
3622.25,0.0096
3622.00,0.0095
3621.75,0.0095
3621.50,0.0095
3621.25,0.0095
3621.00,0.0095
3620.75,0.0094
3620.50,0.0091
3620.25,0.0088
3620.00,0.0084
3619.75,0.0082
3619.50,0.0082
3619.25,0.0085
3619.00,0.0089
3618.75,0.0092
3618.50,0.0094
3618.25,0.0095
3618.00,0.0095
3617.75,0.0095
3617.50,0.0094
3617.25,0.0093
3617.00,0.0091
3616.75,0.0089
3616.50,0.0088
3616.25,0.0088
3616.00,0.0088
3615.75,0.0090
3615.50,0.0092
3615.25,0.0094
3615.00,0.0095
3614.75,0.0094
3614.50,0.0092
3614.25,0.0091
3614.00,0.0090
3613.75,0.0090
3613.50,0.0090
3613.25,0.0091
3613.00,0.0091
3612.75,0.0091
3612.50,0.0091
3612.25,0.0090
3612.00,0.0090
3611.75,0.0090
3611.50,0.0090
3611.25,0.0091
3611.00,0.0092
3610.75,0.0092
3610.50,0.0092
3610.25,0.0091
3610.00,0.0089
3609.75,0.0087
3609.50,0.0087
3609.25,0.0087
3609.00,0.0089
3608.75,0.0090
3608.50,0.0091
3608.25,0.0091
3608.00,0.0091
3607.75,0.0092
3607.50,0.0092
3607.25,0.0093
3607.00,0.0094
3606.75,0.0093
3606.50,0.0092
3606.25,0.0091
3606.00,0.0090
3605.75,0.0091
3605.50,0.0092
3605.25,0.0094
3605.00,0.0095
3604.75,0.0096
3604.50,0.0096
3604.25,0.0097
3604.00,0.0097
3603.75,0.0096
3603.50,0.0096
3603.25,0.0095
3603.00,0.0094
3602.75,0.0092
3602.50,0.0091
3602.25,0.0090
3602.00,0.0089
3601.75,0.0089
3601.50,0.0090
3601.25,0.0091
3601.00,0.0093
3600.75,0.0095
3600.50,0.0095
3600.25,0.0095
3600.00,0.0095
3599.75,0.0094
3599.50,0.0095
3599.25,0.0095
3599.00,0.0095
3598.75,0.0096
3598.50,0.0096
3598.25,0.0097
3598.00,0.0096
3597.75,0.0096
3597.50,0.0094
3597.25,0.0093
3597.00,0.0092
3596.75,0.0092
3596.50,0.0092
3596.25,0.0092
3596.00,0.0092
3595.75,0.0093
3595.50,0.0094
3595.25,0.0095
3595.00,0.0095
3594.75,0.0094
3594.50,0.0093
3594.25,0.0092
3594.00,0.0091
3593.75,0.0091
3593.50,0.0091
3593.25,0.0091
3593.00,0.0092
3592.75,0.0092
3592.50,0.0092
3592.25,0.0092
3592.00,0.0091
3591.75,0.0091
3591.50,0.0092
3591.25,0.0093
3591.00,0.0095
3590.75,0.0097
3590.50,0.0098
3590.25,0.0099
3590.00,0.0098
3589.75,0.0097
3589.50,0.0096
3589.25,0.0095
3589.00,0.0095
3588.75,0.0095
3588.50,0.0095
3588.25,0.0094
3588.00,0.0092
3587.75,0.0090
3587.50,0.0088
3587.25,0.0087
3587.00,0.0088
3586.75,0.0090
3586.50,0.0092
3586.25,0.0091
3586.00,0.0090
3585.75,0.0090
3585.50,0.0091
3585.25,0.0092
3585.00,0.0093
3584.75,0.0093
3584.50,0.0093
3584.25,0.0093
3584.00,0.0093
3583.75,0.0094
3583.50,0.0095
3583.25,0.0095
3583.00,0.0095
3582.75,0.0094
3582.50,0.0094
3582.25,0.0095
3582.00,0.0095
3581.75,0.0095
3581.50,0.0096
3581.25,0.0097
3581.00,0.0097
3580.75,0.0098
3580.50,0.0097
3580.25,0.0095
3580.00,0.0094
3579.75,0.0095
3579.50,0.0096
3579.25,0.0097
3579.00,0.0098
3578.75,0.0097
3578.50,0.0097
3578.25,0.0096
3578.00,0.0097
3577.75,0.0097
3577.50,0.0099
3577.25,0.0100
3577.00,0.0100
3576.75,0.0100
3576.50,0.0098
3576.25,0.0096
3576.00,0.0095
3575.75,0.0095
3575.50,0.0095
3575.25,0.0096
3575.00,0.0097
3574.75,0.0097
3574.50,0.0097
3574.25,0.0098
3574.00,0.0099
3573.75,0.0099
3573.50,0.0099
3573.25,0.0099
3573.00,0.0099
3572.75,0.0099
3572.50,0.0098
3572.25,0.0096
3572.00,0.0095
3571.75,0.0094
3571.50,0.0095
3571.25,0.0096
3571.00,0.0098
3570.75,0.0098
3570.50,0.0097
3570.25,0.0096
3570.00,0.0094
3569.75,0.0093
3569.50,0.0093
3569.25,0.0094
3569.00,0.0094
3568.75,0.0094
3568.50,0.0093
3568.25,0.0093
3568.00,0.0092
3567.75,0.0091
3567.50,0.0090
3567.25,0.0091
3567.00,0.0092
3566.75,0.0093
3566.50,0.0094
3566.25,0.0094
3566.00,0.0092
3565.75,0.0089
3565.50,0.0087
3565.25,0.0086
3565.00,0.0087
3564.75,0.0089
3564.50,0.0091
3564.25,0.0093
3564.00,0.0095
3563.75,0.0096
3563.50,0.0097
3563.25,0.0098
3563.00,0.0098
3562.75,0.0097
3562.50,0.0096
3562.25,0.0095
3562.00,0.0095
3561.75,0.0096
3561.50,0.0097
3561.25,0.0099
3561.00,0.0100
3560.75,0.0100
3560.50,0.0099
3560.25,0.0098
3560.00,0.0097
3559.75,0.0097
3559.50,0.0097
3559.25,0.0097
3559.00,0.0098
3558.75,0.0099
3558.50,0.0099
3558.25,0.0100
3558.00,0.0100
3557.75,0.0100
3557.50,0.0099
3557.25,0.0099
3557.00,0.0098
3556.75,0.0098
3556.50,0.0097
3556.25,0.0097
3556.00,0.0097
3555.75,0.0096
3555.50,0.0096
3555.25,0.0096
3555.00,0.0096
3554.75,0.0095
3554.50,0.0094
3554.25,0.0093
3554.00,0.0093
3553.75,0.0094
3553.50,0.0095
3553.25,0.0095
3553.00,0.0095
3552.75,0.0093
3552.50,0.0092
3552.25,0.0092
3552.00,0.0092
3551.75,0.0093
3551.50,0.0094
3551.25,0.0095
3551.00,0.0096
3550.75,0.0097
3550.50,0.0097
3550.25,0.0096
3550.00,0.0096
3549.75,0.0097
3549.50,0.0097
3549.25,0.0098
3549.00,0.0097
3548.75,0.0097
3548.50,0.0097
3548.25,0.0098
3548.00,0.0099
3547.75,0.0099
3547.50,0.0097
3547.25,0.0095
3547.00,0.0093
3546.75,0.0091
3546.50,0.0092
3546.25,0.0094
3546.00,0.0097
3545.75,0.0100
3545.50,0.0102
3545.25,0.0103
3545.00,0.0102
3544.75,0.0100
3544.50,0.0097
3544.25,0.0094
3544.00,0.0093
3543.75,0.0092
3543.50,0.0093
3543.25,0.0094
3543.00,0.0095
3542.75,0.0097
3542.50,0.0098
3542.25,0.0098
3542.00,0.0098
3541.75,0.0097
3541.50,0.0096
3541.25,0.0095
3541.00,0.0095
3540.75,0.0095
3540.50,0.0095
3540.25,0.0096
3540.00,0.0096
3539.75,0.0095
3539.50,0.0095
3539.25,0.0094
3539.00,0.0095
3538.75,0.0096
3538.50,0.0098
3538.25,0.0099
3538.00,0.0100
3537.75,0.0100
3537.50,0.0100
3537.25,0.0098
3537.00,0.0097
3536.75,0.0096
3536.50,0.0095
3536.25,0.0095
3536.00,0.0094
3535.75,0.0093
3535.50,0.0092
3535.25,0.0092
3535.00,0.0093
3534.75,0.0094
3534.50,0.0095
3534.25,0.0097
3534.00,0.0098
3533.75,0.0098
3533.50,0.0099
3533.25,0.0100
3533.00,0.0101
3532.75,0.0103
3532.50,0.0104
3532.25,0.0104
3532.00,0.0103
3531.75,0.0101
3531.50,0.0100
3531.25,0.0098
3531.00,0.0097
3530.75,0.0096
3530.50,0.0096
3530.25,0.0095
3530.00,0.0096
3529.75,0.0097
3529.50,0.0099
3529.25,0.0099
3529.00,0.0099
3528.75,0.0097
3528.50,0.0095
3528.25,0.0093
3528.00,0.0093
3527.75,0.0092
3527.50,0.0092
3527.25,0.0092
3527.00,0.0093
3526.75,0.0094
3526.50,0.0096
3526.25,0.0098
3526.00,0.0100
3525.75,0.0101
3525.50,0.0102
3525.25,0.0101
3525.00,0.0100
3524.75,0.0100
3524.50,0.0099
3524.25,0.0099
3524.00,0.0099
3523.75,0.0098
3523.50,0.0097
3523.25,0.0095
3523.00,0.0095
3522.75,0.0094
3522.50,0.0095
3522.25,0.0096
3522.00,0.0097
3521.75,0.0098
3521.50,0.0099
3521.25,0.0100
3521.00,0.0100
3520.75,0.0100
3520.50,0.0099
3520.25,0.0098
3520.00,0.0096
3519.75,0.0095
3519.50,0.0095
3519.25,0.0097
3519.00,0.0098
3518.75,0.0100
3518.50,0.0101
3518.25,0.0100
3518.00,0.0100
3517.75,0.0099
3517.50,0.0097
3517.25,0.0096
3517.00,0.0095
3516.75,0.0094
3516.50,0.0095
3516.25,0.0096
3516.00,0.0097
3515.75,0.0097
3515.50,0.0096
3515.25,0.0096
3515.00,0.0098
3514.75,0.0100
3514.50,0.0102
3514.25,0.0103
3514.00,0.0102
3513.75,0.0100
3513.50,0.0098
3513.25,0.0097
3513.00,0.0097
3512.75,0.0098
3512.50,0.0100
3512.25,0.0101
3512.00,0.0102
3511.75,0.0102
3511.50,0.0101
3511.25,0.0100
3511.00,0.0099
3510.75,0.0098
3510.50,0.0096
3510.25,0.0095
3510.00,0.0094
3509.75,0.0094
3509.50,0.0095
3509.25,0.0095
3509.00,0.0096
3508.75,0.0096
3508.50,0.0097
3508.25,0.0098
3508.00,0.0101
3507.75,0.0104
3507.50,0.0106
3507.25,0.0107
3507.00,0.0107
3506.75,0.0105
3506.50,0.0103
3506.25,0.0100
3506.00,0.0097
3505.75,0.0096
3505.50,0.0096
3505.25,0.0097
3505.00,0.0100
3504.75,0.0102
3504.50,0.0104
3504.25,0.0104
3504.00,0.0104
3503.75,0.0103
3503.50,0.0102
3503.25,0.0102
3503.00,0.0102
3502.75,0.0102
3502.50,0.0102
3502.25,0.0101
3502.00,0.0100
3501.75,0.0100
3501.50,0.0100
3501.25,0.0099
3501.00,0.0099
3500.75,0.0099
3500.50,0.0099
3500.25,0.0099
3500.00,0.0100
3499.75,0.0100
3499.50,0.0101
3499.25,0.0101
3499.00,0.0102
3498.75,0.0103
3498.50,0.0103
3498.25,0.0102
3498.00,0.0101
3497.75,0.0100
3497.50,0.0099
3497.25,0.0099
3497.00,0.0098
3496.75,0.0098
3496.50,0.0098
3496.25,0.0099
3496.00,0.0100
3495.75,0.0100
3495.50,0.0100
3495.25,0.0100
3495.00,0.0100
3494.75,0.0100
3494.50,0.0100
3494.25,0.0099
3494.00,0.0099
3493.75,0.0099
3493.50,0.0100
3493.25,0.0101
3493.00,0.0102
3492.75,0.0103
3492.50,0.0103
3492.25,0.0104
3492.00,0.0104
3491.75,0.0103
3491.50,0.0102
3491.25,0.0101
3491.00,0.0100
3490.75,0.0099
3490.50,0.0099
3490.25,0.0099
3490.00,0.0099
3489.75,0.0098
3489.50,0.0097
3489.25,0.0097
3489.00,0.0097
3488.75,0.0098
3488.50,0.0099
3488.25,0.0100
3488.00,0.0100
3487.75,0.0100
3487.50,0.0100
3487.25,0.0100
3487.00,0.0099
3486.75,0.0099
3486.50,0.0098
3486.25,0.0098
3486.00,0.0099
3485.75,0.0100
3485.50,0.0100
3485.25,0.0100
3485.00,0.0100
3484.75,0.0100
3484.50,0.0100
3484.25,0.0101
3484.00,0.0101
3483.75,0.0100
3483.50,0.0099
3483.25,0.0098
3483.00,0.0098
3482.75,0.0099
3482.50,0.0099
3482.25,0.0100
3482.00,0.0100
3481.75,0.0099
3481.50,0.0098
3481.25,0.0098
3481.00,0.0099
3480.75,0.0100
3480.50,0.0101
3480.25,0.0102
3480.00,0.0103
3479.75,0.0104
3479.50,0.0105
3479.25,0.0105
3479.00,0.0106
3478.75,0.0105
3478.50,0.0105
3478.25,0.0103
3478.00,0.0102
3477.75,0.0101
3477.50,0.0100
3477.25,0.0101
3477.00,0.0102
3476.75,0.0104
3476.50,0.0105
3476.25,0.0105
3476.00,0.0103
3475.75,0.0102
3475.50,0.0101
3475.25,0.0101
3475.00,0.0102
3474.75,0.0103
3474.50,0.0103
3474.25,0.0102
3474.00,0.0102
3473.75,0.0102
3473.50,0.0103
3473.25,0.0103
3473.00,0.0102
3472.75,0.0101
3472.50,0.0101
3472.25,0.0101
3472.00,0.0100
3471.75,0.0101
3471.50,0.0101
3471.25,0.0101
3471.00,0.0102
3470.75,0.0103
3470.50,0.0102
3470.25,0.0101
3470.00,0.0100
3469.75,0.0098
3469.50,0.0097
3469.25,0.0096
3469.00,0.0097
3468.75,0.0097
3468.50,0.0098
3468.25,0.0098
3468.00,0.0099
3467.75,0.0101
3467.50,0.0102
3467.25,0.0103
3467.00,0.0104
3466.75,0.0104
3466.50,0.0104
3466.25,0.0104
3466.00,0.0104
3465.75,0.0103
3465.50,0.0103
3465.25,0.0103
3465.00,0.0102
3464.75,0.0101
3464.50,0.0100
3464.25,0.0099
3464.00,0.0098
3463.75,0.0097
3463.50,0.0097
3463.25,0.0097
3463.00,0.0098
3462.75,0.0099
3462.50,0.0099
3462.25,0.0100
3462.00,0.0100
3461.75,0.0101
3461.50,0.0102
3461.25,0.0103
3461.00,0.0104
3460.75,0.0104
3460.50,0.0103
3460.25,0.0102
3460.00,0.0101
3459.75,0.0100
3459.50,0.0101
3459.25,0.0103
3459.00,0.0105
3458.75,0.0107
3458.50,0.0107
3458.25,0.0106
3458.00,0.0105
3457.75,0.0104
3457.50,0.0104
3457.25,0.0104
3457.00,0.0104
3456.75,0.0105
3456.50,0.0105
3456.25,0.0104
3456.00,0.0102
3455.75,0.0100
3455.50,0.0097
3455.25,0.0095
3455.00,0.0094
3454.75,0.0095
3454.50,0.0097
3454.25,0.0098
3454.00,0.0099
3453.75,0.0100
3453.50,0.0101
3453.25,0.0103
3453.00,0.0104
3452.75,0.0104
3452.50,0.0104
3452.25,0.0103
3452.00,0.0102
3451.75,0.0101
3451.50,0.0101
3451.25,0.0101
3451.00,0.0101
3450.75,0.0101
3450.50,0.0101
3450.25,0.0102
3450.00,0.0102
3449.75,0.0101
3449.50,0.0101
3449.25,0.0101
3449.00,0.0101
3448.75,0.0100
3448.50,0.0100
3448.25,0.0100
3448.00,0.0100
3447.75,0.0101
3447.50,0.0102
3447.25,0.0103
3447.00,0.0104
3446.75,0.0104
3446.50,0.0104
3446.25,0.0102
3446.00,0.0101
3445.75,0.0101
3445.50,0.0100
3445.25,0.0100
3445.00,0.0100
3444.75,0.0100
3444.50,0.0101
3444.25,0.0103
3444.00,0.0104
3443.75,0.0104
3443.50,0.0105
3443.25,0.0105
3443.00,0.0106
3442.75,0.0106
3442.50,0.0105
3442.25,0.0103
3442.00,0.0101
3441.75,0.0100
3441.50,0.0100
3441.25,0.0101
3441.00,0.0101
3440.75,0.0101
3440.50,0.0101
3440.25,0.0100
3440.00,0.0100
3439.75,0.0100
3439.50,0.0101
3439.25,0.0102
3439.00,0.0103
3438.75,0.0103
3438.50,0.0103
3438.25,0.0102
3438.00,0.0102
3437.75,0.0100
3437.50,0.0099
3437.25,0.0097
3437.00,0.0097
3436.75,0.0098
3436.50,0.0100
3436.25,0.0103
3436.00,0.0105
3435.75,0.0106
3435.50,0.0106
3435.25,0.0106
3435.00,0.0105
3434.75,0.0105
3434.50,0.0104
3434.25,0.0102
3434.00,0.0101
3433.75,0.0100
3433.50,0.0099
3433.25,0.0098
3433.00,0.0098
3432.75,0.0099
3432.50,0.0101
3432.25,0.0102
3432.00,0.0102
3431.75,0.0102
3431.50,0.0101
3431.25,0.0101
3431.00,0.0101
3430.75,0.0101
3430.50,0.0101
3430.25,0.0101
3430.00,0.0100
3429.75,0.0098
3429.50,0.0098
3429.25,0.0098
3429.00,0.0099
3428.75,0.0099
3428.50,0.0099
3428.25,0.0099
3428.00,0.0098
3427.75,0.0097
3427.50,0.0097
3427.25,0.0098
3427.00,0.0098
3426.75,0.0098
3426.50,0.0099
3426.25,0.0100
3426.00,0.0101
3425.75,0.0103
3425.50,0.0105
3425.25,0.0105
3425.00,0.0105
3424.75,0.0104
3424.50,0.0103
3424.25,0.0103
3424.00,0.0102
3423.75,0.0102
3423.50,0.0102
3423.25,0.0101
3423.00,0.0101
3422.75,0.0101
3422.50,0.0101
3422.25,0.0101
3422.00,0.0101
3421.75,0.0101
3421.50,0.0101
3421.25,0.0100
3421.00,0.0099
3420.75,0.0099
3420.50,0.0099
3420.25,0.0099
3420.00,0.0098
3419.75,0.0098
3419.50,0.0098
3419.25,0.0097
3419.00,0.0098
3418.75,0.0098
3418.50,0.0099
3418.25,0.0099
3418.00,0.0098
3417.75,0.0098
3417.50,0.0098
3417.25,0.0098
3417.00,0.0099
3416.75,0.0100
3416.50,0.0101
3416.25,0.0103
3416.00,0.0104
3415.75,0.0105
3415.50,0.0105
3415.25,0.0105
3415.00,0.0105
3414.75,0.0105
3414.50,0.0106
3414.25,0.0106
3414.00,0.0105
3413.75,0.0103
3413.50,0.0102
3413.25,0.0101
3413.00,0.0100
3412.75,0.0099
3412.50,0.0098
3412.25,0.0098
3412.00,0.0097
3411.75,0.0098
3411.50,0.0100
3411.25,0.0102
3411.00,0.0104
3410.75,0.0105
3410.50,0.0106
3410.25,0.0106
3410.00,0.0105
3409.75,0.0104
3409.50,0.0104
3409.25,0.0104
3409.00,0.0104
3408.75,0.0104
3408.50,0.0104
3408.25,0.0104
3408.00,0.0104
3407.75,0.0103
3407.50,0.0103
3407.25,0.0102
3407.00,0.0102
3406.75,0.0101
3406.50,0.0100
3406.25,0.0099
3406.00,0.0099
3405.75,0.0099
3405.50,0.0100
3405.25,0.0101
3405.00,0.0101
3404.75,0.0101
3404.50,0.0101
3404.25,0.0101
3404.00,0.0101
3403.75,0.0102
3403.50,0.0103
3403.25,0.0103
3403.00,0.0102
3402.75,0.0100
3402.50,0.0099
3402.25,0.0099
3402.00,0.0101
3401.75,0.0103
3401.50,0.0104
3401.25,0.0104
3401.00,0.0103
3400.75,0.0102
3400.50,0.0100
3400.25,0.0100
3400.00,0.0099
3399.75,0.0099
3399.50,0.0100
3399.25,0.0100
3399.00,0.0101
3398.75,0.0102
3398.50,0.0103
3398.25,0.0103
3398.00,0.0103
3397.75,0.0102
3397.50,0.0102
3397.25,0.0103
3397.00,0.0104
3396.75,0.0105
3396.50,0.0107
3396.25,0.0108
3396.00,0.0107
3395.75,0.0105
3395.50,0.0101
3395.25,0.0098
3395.00,0.0096
3394.75,0.0096
3394.50,0.0097
3394.25,0.0099
3394.00,0.0102
3393.75,0.0104
3393.50,0.0105
3393.25,0.0104
3393.00,0.0102
3392.75,0.0100
3392.50,0.0099
3392.25,0.0099
3392.00,0.0100
3391.75,0.0101
3391.50,0.0101
3391.25,0.0101
3391.00,0.0101
3390.75,0.0101
3390.50,0.0102
3390.25,0.0103
3390.00,0.0105
3389.75,0.0106
3389.50,0.0106
3389.25,0.0106
3389.00,0.0105
3388.75,0.0104
3388.50,0.0102
3388.25,0.0101
3388.00,0.0100
3387.75,0.0100
3387.50,0.0100
3387.25,0.0101
3387.00,0.0102
3386.75,0.0103
3386.50,0.0104
3386.25,0.0104
3386.00,0.0103
3385.75,0.0103
3385.50,0.0103
3385.25,0.0103
3385.00,0.0103
3384.75,0.0102
3384.50,0.0101
3384.25,0.0100
3384.00,0.0099
3383.75,0.0097
3383.50,0.0096
3383.25,0.0096
3383.00,0.0097
3382.75,0.0098
3382.50,0.0099
3382.25,0.0100
3382.00,0.0100
3381.75,0.0100
3381.50,0.0101
3381.25,0.0102
3381.00,0.0103
3380.75,0.0104
3380.50,0.0105
3380.25,0.0104
3380.00,0.0102
3379.75,0.0100
3379.50,0.0098
3379.25,0.0098
3379.00,0.0100
3378.75,0.0102
3378.50,0.0105
3378.25,0.0107
3378.00,0.0108
3377.75,0.0107
3377.50,0.0105
3377.25,0.0103
3377.00,0.0101
3376.75,0.0100
3376.50,0.0100
3376.25,0.0100
3376.00,0.0100
3375.75,0.0100
3375.50,0.0099
3375.25,0.0098
3375.00,0.0098
3374.75,0.0099
3374.50,0.0100
3374.25,0.0102
3374.00,0.0102
3373.75,0.0102
3373.50,0.0101
3373.25,0.0099
3373.00,0.0097
3372.75,0.0097
3372.50,0.0097
3372.25,0.0098
3372.00,0.0100
3371.75,0.0101
3371.50,0.0101
3371.25,0.0100
3371.00,0.0099
3370.75,0.0097
3370.50,0.0096
3370.25,0.0096
3370.00,0.0097
3369.75,0.0098
3369.50,0.0100
3369.25,0.0101
3369.00,0.0101
3368.75,0.0101
3368.50,0.0100
3368.25,0.0100
3368.00,0.0100
3367.75,0.0101
3367.50,0.0102
3367.25,0.0103
3367.00,0.0104
3366.75,0.0103
3366.50,0.0102
3366.25,0.0102
3366.00,0.0101
3365.75,0.0101
3365.50,0.0101
3365.25,0.0100
3365.00,0.0099
3364.75,0.0099
3364.50,0.0099
3364.25,0.0099
3364.00,0.0100
3363.75,0.0101
3363.50,0.0103
3363.25,0.0104
3363.00,0.0105
3362.75,0.0106
3362.50,0.0106
3362.25,0.0106
3362.00,0.0105
3361.75,0.0104
3361.50,0.0102
3361.25,0.0101
3361.00,0.0099
3360.75,0.0099
3360.50,0.0099
3360.25,0.0100
3360.00,0.0101
3359.75,0.0102
3359.50,0.0102
3359.25,0.0102
3359.00,0.0101
3358.75,0.0100
3358.50,0.0100
3358.25,0.0100
3358.00,0.0101
3357.75,0.0101
3357.50,0.0101
3357.25,0.0100
3357.00,0.0100
3356.75,0.0100
3356.50,0.0101
3356.25,0.0101
3356.00,0.0103
3355.75,0.0104
3355.50,0.0105
3355.25,0.0105
3355.00,0.0103
3354.75,0.0102
3354.50,0.0101
3354.25,0.0101
3354.00,0.0101
3353.75,0.0102
3353.50,0.0101
3353.25,0.0101
3353.00,0.0100
3352.75,0.0099
3352.50,0.0098
3352.25,0.0098
3352.00,0.0097
3351.75,0.0098
3351.50,0.0098
3351.25,0.0099
3351.00,0.0100
3350.75,0.0100
3350.50,0.0099
3350.25,0.0099
3350.00,0.0099
3349.75,0.0100
3349.50,0.0102
3349.25,0.0103
3349.00,0.0104
3348.75,0.0103
3348.50,0.0102
3348.25,0.0101
3348.00,0.0101
3347.75,0.0102
3347.50,0.0102
3347.25,0.0101
3347.00,0.0099
3346.75,0.0096
3346.50,0.0095
3346.25,0.0094
3346.00,0.0095
3345.75,0.0096
3345.50,0.0098
3345.25,0.0100
3345.00,0.0102
3344.75,0.0104
3344.50,0.0105
3344.25,0.0105
3344.00,0.0104
3343.75,0.0103
3343.50,0.0103
3343.25,0.0103
3343.00,0.0103
3342.75,0.0103
3342.50,0.0102
3342.25,0.0101
3342.00,0.0099
3341.75,0.0097
3341.50,0.0096
3341.25,0.0096
3341.00,0.0096
3340.75,0.0097
3340.50,0.0098
3340.25,0.0098
3340.00,0.0099
3339.75,0.0100
3339.50,0.0101
3339.25,0.0101
3339.00,0.0101
3338.75,0.0101
3338.50,0.0100
3338.25,0.0100
3338.00,0.0100
3337.75,0.0101
3337.50,0.0101
3337.25,0.0102
3337.00,0.0102
3336.75,0.0101
3336.50,0.0100
3336.25,0.0100
3336.00,0.0100
3335.75,0.0100
3335.50,0.0100
3335.25,0.0100
3335.00,0.0099
3334.75,0.0098
3334.50,0.0098
3334.25,0.0098
3334.00,0.0098
3333.75,0.0098
3333.50,0.0097
3333.25,0.0097
3333.00,0.0097
3332.75,0.0099
3332.50,0.0101
3332.25,0.0102
3332.00,0.0102
3331.75,0.0101
3331.50,0.0099
3331.25,0.0098
3331.00,0.0098
3330.75,0.0099
3330.50,0.0100
3330.25,0.0100
3330.00,0.0100
3329.75,0.0101
3329.50,0.0101
3329.25,0.0102
3329.00,0.0103
3328.75,0.0104
3328.50,0.0104
3328.25,0.0103
3328.00,0.0102
3327.75,0.0100
3327.50,0.0099
3327.25,0.0099
3327.00,0.0100
3326.75,0.0100
3326.50,0.0100
3326.25,0.0099
3326.00,0.0098
3325.75,0.0096
3325.50,0.0094
3325.25,0.0093
3325.00,0.0093
3324.75,0.0095
3324.50,0.0098
3324.25,0.0100
3324.00,0.0102
3323.75,0.0104
3323.50,0.0104
3323.25,0.0102
3323.00,0.0100
3322.75,0.0097
3322.50,0.0095
3322.25,0.0094
3322.00,0.0095
3321.75,0.0096
3321.50,0.0098
3321.25,0.0099
3321.00,0.0099
3320.75,0.0099
3320.50,0.0098
3320.25,0.0097
3320.00,0.0097
3319.75,0.0098
3319.50,0.0099
3319.25,0.0101
3319.00,0.0102
3318.75,0.0102
3318.50,0.0101
3318.25,0.0101
3318.00,0.0100
3317.75,0.0100
3317.50,0.0100
3317.25,0.0099
3317.00,0.0097
3316.75,0.0095
3316.50,0.0093
3316.25,0.0093
3316.00,0.0093
3315.75,0.0094
3315.50,0.0095
3315.25,0.0097
3315.00,0.0098
3314.75,0.0100
3314.50,0.0101
3314.25,0.0101
3314.00,0.0099
3313.75,0.0097
3313.50,0.0096
3313.25,0.0096
3313.00,0.0096
3312.75,0.0096
3312.50,0.0096
3312.25,0.0095
3312.00,0.0095
3311.75,0.0096
3311.50,0.0097
3311.25,0.0099
3311.00,0.0100
3310.75,0.0100
3310.50,0.0099
3310.25,0.0097
3310.00,0.0097
3309.75,0.0096
3309.50,0.0096
3309.25,0.0095
3309.00,0.0094
3308.75,0.0093
3308.50,0.0092
3308.25,0.0092
3308.00,0.0093
3307.75,0.0095
3307.50,0.0097
3307.25,0.0099
3307.00,0.0101
3306.75,0.0102
3306.50,0.0102
3306.25,0.0101
3306.00,0.0099
3305.75,0.0098
3305.50,0.0097
3305.25,0.0097
3305.00,0.0097
3304.75,0.0098
3304.50,0.0100
3304.25,0.0101
3304.00,0.0101
3303.75,0.0100
3303.50,0.0099
3303.25,0.0097
3303.00,0.0096
3302.75,0.0096
3302.50,0.0097
3302.25,0.0098
3302.00,0.0099
3301.75,0.0100
3301.50,0.0100
3301.25,0.0099
3301.00,0.0098
3300.75,0.0097
3300.50,0.0095
3300.25,0.0094
3300.00,0.0094
3299.75,0.0094
3299.50,0.0096
3299.25,0.0098
3299.00,0.0099
3298.75,0.0101
3298.50,0.0101
3298.25,0.0101
3298.00,0.0100
3297.75,0.0099
3297.50,0.0098
3297.25,0.0098
3297.00,0.0097
3296.75,0.0097
3296.50,0.0096
3296.25,0.0096
3296.00,0.0096
3295.75,0.0096
3295.50,0.0097
3295.25,0.0097
3295.00,0.0097
3294.75,0.0096
3294.50,0.0096
3294.25,0.0096
3294.00,0.0097
3293.75,0.0098
3293.50,0.0099
3293.25,0.0099
3293.00,0.0099
3292.75,0.0098
3292.50,0.0096
3292.25,0.0095
3292.00,0.0094
3291.75,0.0095
3291.50,0.0096
3291.25,0.0097
3291.00,0.0098
3290.75,0.0098
3290.50,0.0098
3290.25,0.0097
3290.00,0.0097
3289.75,0.0097
3289.50,0.0098
3289.25,0.0098
3289.00,0.0098
3288.75,0.0098
3288.50,0.0098
3288.25,0.0097
3288.00,0.0096
3287.75,0.0095
3287.50,0.0095
3287.25,0.0096
3287.00,0.0096
3286.75,0.0096
3286.50,0.0096
3286.25,0.0095
3286.00,0.0094
3285.75,0.0094
3285.50,0.0093
3285.25,0.0094
3285.00,0.0094
3284.75,0.0095
3284.50,0.0096
3284.25,0.0097
3284.00,0.0097
3283.75,0.0096
3283.50,0.0094
3283.25,0.0094
3283.00,0.0094
3282.75,0.0094
3282.50,0.0095
3282.25,0.0097
3282.00,0.0098
3281.75,0.0098
3281.50,0.0099
3281.25,0.0098
3281.00,0.0097
3280.75,0.0097
3280.50,0.0097
3280.25,0.0098
3280.00,0.0099
3279.75,0.0099
3279.50,0.0099
3279.25,0.0098
3279.00,0.0097
3278.75,0.0096
3278.50,0.0096
3278.25,0.0097
3278.00,0.0097
3277.75,0.0097
3277.50,0.0097
3277.25,0.0095
3277.00,0.0094
3276.75,0.0093
3276.50,0.0093
3276.25,0.0093
3276.00,0.0094
3275.75,0.0095
3275.50,0.0096
3275.25,0.0096
3275.00,0.0096
3274.75,0.0097
3274.50,0.0098
3274.25,0.0098
3274.00,0.0098
3273.75,0.0097
3273.50,0.0095
3273.25,0.0094
3273.00,0.0093
3272.75,0.0094
3272.50,0.0095
3272.25,0.0097
3272.00,0.0100
3271.75,0.0101
3271.50,0.0101
3271.25,0.0100
3271.00,0.0098
3270.75,0.0095
3270.50,0.0093
3270.25,0.0091
3270.00,0.0091
3269.75,0.0091
3269.50,0.0092
3269.25,0.0093
3269.00,0.0094
3268.75,0.0094
3268.50,0.0094
3268.25,0.0093
3268.00,0.0093
3267.75,0.0094
3267.50,0.0096
3267.25,0.0098
3267.00,0.0100
3266.75,0.0102
3266.50,0.0102
3266.25,0.0102
3266.00,0.0102
3265.75,0.0101
3265.50,0.0100
3265.25,0.0098
3265.00,0.0097
3264.75,0.0096
3264.50,0.0096
3264.25,0.0097
3264.00,0.0097
3263.75,0.0097
3263.50,0.0096
3263.25,0.0094
3263.00,0.0093
3262.75,0.0092
3262.50,0.0092
3262.25,0.0091
3262.00,0.0091
3261.75,0.0091
3261.50,0.0092
3261.25,0.0093
3261.00,0.0094
3260.75,0.0095
3260.50,0.0096
3260.25,0.0097
3260.00,0.0097
3259.75,0.0097
3259.50,0.0096
3259.25,0.0095
3259.00,0.0095
3258.75,0.0095
3258.50,0.0096
3258.25,0.0098
3258.00,0.0098
3257.75,0.0098
3257.50,0.0097
3257.25,0.0096
3257.00,0.0095
3256.75,0.0095
3256.50,0.0096
3256.25,0.0097
3256.00,0.0098
3255.75,0.0098
3255.50,0.0098
3255.25,0.0098
3255.00,0.0097
3254.75,0.0096
3254.50,0.0096
3254.25,0.0095
3254.00,0.0095
3253.75,0.0094
3253.50,0.0094
3253.25,0.0094
3253.00,0.0095
3252.75,0.0095
3252.50,0.0096
3252.25,0.0096
3252.00,0.0096
3251.75,0.0096
3251.50,0.0096
3251.25,0.0096
3251.00,0.0097
3250.75,0.0097
3250.50,0.0096
3250.25,0.0095
3250.00,0.0095
3249.75,0.0096
3249.50,0.0097
3249.25,0.0099
3249.00,0.0100
3248.75,0.0100
3248.50,0.0100
3248.25,0.0099
3248.00,0.0098
3247.75,0.0097
3247.50,0.0097
3247.25,0.0097
3247.00,0.0097
3246.75,0.0098
3246.50,0.0098
3246.25,0.0097
3246.00,0.0096
3245.75,0.0094
3245.50,0.0093
3245.25,0.0092
3245.00,0.0092
3244.75,0.0092
3244.50,0.0094
3244.25,0.0096
3244.00,0.0098
3243.75,0.0099
3243.50,0.0099
3243.25,0.0098
3243.00,0.0097
3242.75,0.0096
3242.50,0.0094
3242.25,0.0092
3242.00,0.0090
3241.75,0.0090
3241.50,0.0090
3241.25,0.0091
3241.00,0.0093
3240.75,0.0095
3240.50,0.0096
3240.25,0.0097
3240.00,0.0098
3239.75,0.0098
3239.50,0.0098
3239.25,0.0098
3239.00,0.0097
3238.75,0.0095
3238.50,0.0093
3238.25,0.0092
3238.00,0.0092
3237.75,0.0093
3237.50,0.0094
3237.25,0.0094
3237.00,0.0092
3236.75,0.0091
3236.50,0.0090
3236.25,0.0090
3236.00,0.0092
3235.75,0.0093
3235.50,0.0095
3235.25,0.0096
3235.00,0.0096
3234.75,0.0097
3234.50,0.0097
3234.25,0.0097
3234.00,0.0098
3233.75,0.0098
3233.50,0.0098
3233.25,0.0096
3233.00,0.0095
3232.75,0.0093
3232.50,0.0091
3232.25,0.0089
3232.00,0.0088
3231.75,0.0088
3231.50,0.0088
3231.25,0.0090
3231.00,0.0091
3230.75,0.0093
3230.50,0.0094
3230.25,0.0095
3230.00,0.0096
3229.75,0.0097
3229.50,0.0097
3229.25,0.0098
3229.00,0.0098
3228.75,0.0098
3228.50,0.0097
3228.25,0.0096
3228.00,0.0096
3227.75,0.0095
3227.50,0.0095
3227.25,0.0095
3227.00,0.0095
3226.75,0.0094
3226.50,0.0093
3226.25,0.0092
3226.00,0.0092
3225.75,0.0092
3225.50,0.0093
3225.25,0.0095
3225.00,0.0095
3224.75,0.0095
3224.50,0.0094
3224.25,0.0093
3224.00,0.0093
3223.75,0.0093
3223.50,0.0094
3223.25,0.0095
3223.00,0.0095
3222.75,0.0095
3222.50,0.0094
3222.25,0.0092
3222.00,0.0091
3221.75,0.0089
3221.50,0.0089
3221.25,0.0090
3221.00,0.0092
3220.75,0.0093
3220.50,0.0093
3220.25,0.0092
3220.00,0.0091
3219.75,0.0090
3219.50,0.0091
3219.25,0.0093
3219.00,0.0094
3218.75,0.0094
3218.50,0.0094
3218.25,0.0094
3218.00,0.0094
3217.75,0.0094
3217.50,0.0094
3217.25,0.0094
3217.00,0.0094
3216.75,0.0093
3216.50,0.0094
3216.25,0.0094
3216.00,0.0095
3215.75,0.0095
3215.50,0.0095
3215.25,0.0095
3215.00,0.0095
3214.75,0.0096
3214.50,0.0096
3214.25,0.0095
3214.00,0.0094
3213.75,0.0092
3213.50,0.0091
3213.25,0.0091
3213.00,0.0091
3212.75,0.0091
3212.50,0.0091
3212.25,0.0091
3212.00,0.0091
3211.75,0.0093
3211.50,0.0094
3211.25,0.0095
3211.00,0.0094
3210.75,0.0093
3210.50,0.0092
3210.25,0.0092
3210.00,0.0093
3209.75,0.0095
3209.50,0.0096
3209.25,0.0097
3209.00,0.0098
3208.75,0.0097
3208.50,0.0095
3208.25,0.0093
3208.00,0.0091
3207.75,0.0091
3207.50,0.0092
3207.25,0.0093
3207.00,0.0093
3206.75,0.0093
3206.50,0.0092
3206.25,0.0092
3206.00,0.0092
3205.75,0.0092
3205.50,0.0092
3205.25,0.0091
3205.00,0.0091
3204.75,0.0091
3204.50,0.0091
3204.25,0.0092
3204.00,0.0094
3203.75,0.0095
3203.50,0.0095
3203.25,0.0094
3203.00,0.0093
3202.75,0.0092
3202.50,0.0091
3202.25,0.0092
3202.00,0.0092
3201.75,0.0092
3201.50,0.0092
3201.25,0.0092
3201.00,0.0093
3200.75,0.0093
3200.50,0.0094
3200.25,0.0095
3200.00,0.0094
3199.75,0.0093
3199.50,0.0091
3199.25,0.0090
3199.00,0.0089
3198.75,0.0089
3198.50,0.0089
3198.25,0.0090
3198.00,0.0091
3197.75,0.0092
3197.50,0.0092
3197.25,0.0092
3197.00,0.0092
3196.75,0.0093
3196.50,0.0094
3196.25,0.0094
3196.00,0.0092
3195.75,0.0090
3195.50,0.0089
3195.25,0.0089
3195.00,0.0090
3194.75,0.0090
3194.50,0.0091
3194.25,0.0090
3194.00,0.0090
3193.75,0.0090
3193.50,0.0091
3193.25,0.0091
3193.00,0.0092
3192.75,0.0092
3192.50,0.0093
3192.25,0.0094
3192.00,0.0094
3191.75,0.0093
3191.50,0.0092
3191.25,0.0091
3191.00,0.0091
3190.75,0.0091
3190.50,0.0091
3190.25,0.0091
3190.00,0.0092
3189.75,0.0093
3189.50,0.0093
3189.25,0.0093
3189.00,0.0093
3188.75,0.0093
3188.50,0.0092
3188.25,0.0092
3188.00,0.0092
3187.75,0.0092
3187.50,0.0092
3187.25,0.0093
3187.00,0.0093
3186.75,0.0094
3186.50,0.0094
3186.25,0.0095
3186.00,0.0094
3185.75,0.0093
3185.50,0.0091
3185.25,0.0090
3185.00,0.0090
3184.75,0.0091
3184.50,0.0092
3184.25,0.0093
3184.00,0.0094
3183.75,0.0094
3183.50,0.0093
3183.25,0.0091
3183.00,0.0089
3182.75,0.0087
3182.50,0.0087
3182.25,0.0088
3182.00,0.0090
3181.75,0.0092
3181.50,0.0094
3181.25,0.0094
3181.00,0.0094
3180.75,0.0092
3180.50,0.0091
3180.25,0.0090
3180.00,0.0089
3179.75,0.0089
3179.50,0.0089
3179.25,0.0089
3179.00,0.0089
3178.75,0.0089
3178.50,0.0090
3178.25,0.0090
3178.00,0.0091
3177.75,0.0091
3177.50,0.0091
3177.25,0.0091
3177.00,0.0092
3176.75,0.0093
3176.50,0.0094
3176.25,0.0095
3176.00,0.0096
3175.75,0.0097
3175.50,0.0098
3175.25,0.0098
3175.00,0.0098
3174.75,0.0097
3174.50,0.0095
3174.25,0.0094
3174.00,0.0093
3173.75,0.0092
3173.50,0.0091
3173.25,0.0090
3173.00,0.0090
3172.75,0.0090
3172.50,0.0091
3172.25,0.0092
3172.00,0.0092
3171.75,0.0092
3171.50,0.0091
3171.25,0.0091
3171.00,0.0091
3170.75,0.0091
3170.50,0.0091
3170.25,0.0090
3170.00,0.0089
3169.75,0.0088
3169.50,0.0087
3169.25,0.0087
3169.00,0.0088
3168.75,0.0088
3168.50,0.0087
3168.25,0.0086
3168.00,0.0085
3167.75,0.0086
3167.50,0.0088
3167.25,0.0091
3167.00,0.0094
3166.75,0.0096
3166.50,0.0097
3166.25,0.0097
3166.00,0.0096
3165.75,0.0094
3165.50,0.0092
3165.25,0.0091
3165.00,0.0089
3164.75,0.0088
3164.50,0.0087
3164.25,0.0085
3164.00,0.0085
3163.75,0.0084
3163.50,0.0084
3163.25,0.0085
3163.00,0.0085
3162.75,0.0087
3162.50,0.0088
3162.25,0.0090
3162.00,0.0090
3161.75,0.0090
3161.50,0.0088
3161.25,0.0087
3161.00,0.0087
3160.75,0.0087
3160.50,0.0088
3160.25,0.0089
3160.00,0.0090
3159.75,0.0090
3159.50,0.0090
3159.25,0.0090
3159.00,0.0089
3158.75,0.0088
3158.50,0.0087
3158.25,0.0087
3158.00,0.0086
3157.75,0.0087
3157.50,0.0088
3157.25,0.0089
3157.00,0.0090
3156.75,0.0090
3156.50,0.0090
3156.25,0.0089
3156.00,0.0089
3155.75,0.0089
3155.50,0.0089
3155.25,0.0090
3155.00,0.0091
3154.75,0.0091
3154.50,0.0091
3154.25,0.0091
3154.00,0.0091
3153.75,0.0090
3153.50,0.0089
3153.25,0.0089
3153.00,0.0089
3152.75,0.0090
3152.50,0.0091
3152.25,0.0092
3152.00,0.0092
3151.75,0.0093
3151.50,0.0092
3151.25,0.0091
3151.00,0.0089
3150.75,0.0088
3150.50,0.0088
3150.25,0.0088
3150.00,0.0088
3149.75,0.0089
3149.50,0.0090
3149.25,0.0091
3149.00,0.0091
3148.75,0.0090
3148.50,0.0089
3148.25,0.0089
3148.00,0.0088
3147.75,0.0088
3147.50,0.0088
3147.25,0.0089
3147.00,0.0090
3146.75,0.0090
3146.50,0.0091
3146.25,0.0092
3146.00,0.0092
3145.75,0.0092
3145.50,0.0091
3145.25,0.0090
3145.00,0.0089
3144.75,0.0088
3144.50,0.0088
3144.25,0.0088
3144.00,0.0089
3143.75,0.0090
3143.50,0.0091
3143.25,0.0091
3143.00,0.0091
3142.75,0.0090
3142.50,0.0090
3142.25,0.0089
3142.00,0.0089
3141.75,0.0090
3141.50,0.0091
3141.25,0.0092
3141.00,0.0092
3140.75,0.0092
3140.50,0.0091
3140.25,0.0090
3140.00,0.0088
3139.75,0.0088
3139.50,0.0088
3139.25,0.0089
3139.00,0.0090
3138.75,0.0091
3138.50,0.0092
3138.25,0.0091
3138.00,0.0090
3137.75,0.0089
3137.50,0.0087
3137.25,0.0086
3137.00,0.0085
3136.75,0.0086
3136.50,0.0086
3136.25,0.0087
3136.00,0.0087
3135.75,0.0086
3135.50,0.0085
3135.25,0.0084
3135.00,0.0084
3134.75,0.0085
3134.50,0.0086
3134.25,0.0087
3134.00,0.0088
3133.75,0.0088
3133.50,0.0087
3133.25,0.0086
3133.00,0.0086
3132.75,0.0086
3132.50,0.0087
3132.25,0.0088
3132.00,0.0088
3131.75,0.0088
3131.50,0.0087
3131.25,0.0087
3131.00,0.0088
3130.75,0.0089
3130.50,0.0090
3130.25,0.0091
3130.00,0.0091
3129.75,0.0090
3129.50,0.0089
3129.25,0.0088
3129.00,0.0087
3128.75,0.0085
3128.50,0.0084
3128.25,0.0084
3128.00,0.0085
3127.75,0.0086
3127.50,0.0087
3127.25,0.0088
3127.00,0.0088
3126.75,0.0089
3126.50,0.0089
3126.25,0.0089
3126.00,0.0089
3125.75,0.0089
3125.50,0.0088
3125.25,0.0088
3125.00,0.0087
3124.75,0.0086
3124.50,0.0086
3124.25,0.0087
3124.00,0.0087
3123.75,0.0087
3123.50,0.0087
3123.25,0.0087
3123.00,0.0087
3122.75,0.0087
3122.50,0.0088
3122.25,0.0088
3122.00,0.0087
3121.75,0.0086
3121.50,0.0086
3121.25,0.0086
3121.00,0.0087
3120.75,0.0087
3120.50,0.0087
3120.25,0.0087
3120.00,0.0087
3119.75,0.0087
3119.50,0.0087
3119.25,0.0087
3119.00,0.0087
3118.75,0.0087
3118.50,0.0087
3118.25,0.0086
3118.00,0.0086
3117.75,0.0085
3117.50,0.0085
3117.25,0.0085
3117.00,0.0086
3116.75,0.0086
3116.50,0.0087
3116.25,0.0087
3116.00,0.0088
3115.75,0.0087
3115.50,0.0086
3115.25,0.0085
3115.00,0.0084
3114.75,0.0084
3114.50,0.0085
3114.25,0.0086
3114.00,0.0086
3113.75,0.0085
3113.50,0.0084
3113.25,0.0084
3113.00,0.0084
3112.75,0.0083
3112.50,0.0084
3112.25,0.0084
3112.00,0.0084
3111.75,0.0084
3111.50,0.0084
3111.25,0.0083
3111.00,0.0083
3110.75,0.0082
3110.50,0.0083
3110.25,0.0083
3110.00,0.0084
3109.75,0.0085
3109.50,0.0085
3109.25,0.0085
3109.00,0.0085
3108.75,0.0084
3108.50,0.0084
3108.25,0.0084
3108.00,0.0084
3107.75,0.0084
3107.50,0.0084
3107.25,0.0084
3107.00,0.0084
3106.75,0.0084
3106.50,0.0084
3106.25,0.0084
3106.00,0.0084
3105.75,0.0084
3105.50,0.0084
3105.25,0.0084
3105.00,0.0083
3104.75,0.0083
3104.50,0.0083
3104.25,0.0083
3104.00,0.0083
3103.75,0.0082
3103.50,0.0082
3103.25,0.0082
3103.00,0.0082
3102.75,0.0081
3102.50,0.0081
3102.25,0.0081
3102.00,0.0082
3101.75,0.0083
3101.50,0.0085
3101.25,0.0086
3101.00,0.0086
3100.75,0.0086
3100.50,0.0087
3100.25,0.0087
3100.00,0.0088
3099.75,0.0088
3099.50,0.0088
3099.25,0.0087
3099.00,0.0086
3098.75,0.0084
3098.50,0.0082
3098.25,0.0081
3098.00,0.0080
3097.75,0.0081
3097.50,0.0082
3097.25,0.0084
3097.00,0.0084
3096.75,0.0084
3096.50,0.0084
3096.25,0.0084
3096.00,0.0085
3095.75,0.0086
3095.50,0.0086
3095.25,0.0086
3095.00,0.0085
3094.75,0.0083
3094.50,0.0081
3094.25,0.0080
3094.00,0.0079
3093.75,0.0080
3093.50,0.0081
3093.25,0.0082
3093.00,0.0083
3092.75,0.0084
3092.50,0.0084
3092.25,0.0083
3092.00,0.0083
3091.75,0.0082
3091.50,0.0081
3091.25,0.0081
3091.00,0.0081
3090.75,0.0080
3090.50,0.0079
3090.25,0.0077
3090.00,0.0075
3089.75,0.0075
3089.50,0.0075
3089.25,0.0076
3089.00,0.0077
3088.75,0.0079
3088.50,0.0081
3088.25,0.0083
3088.00,0.0085
3087.75,0.0085
3087.50,0.0084
3087.25,0.0082
3087.00,0.0080
3086.75,0.0079
3086.50,0.0079
3086.25,0.0080
3086.00,0.0080
3085.75,0.0081
3085.50,0.0080
3085.25,0.0080
3085.00,0.0080
3084.75,0.0081
3084.50,0.0082
3084.25,0.0082
3084.00,0.0082
3083.75,0.0081
3083.50,0.0079
3083.25,0.0077
3083.00,0.0076
3082.75,0.0077
3082.50,0.0078
3082.25,0.0081
3082.00,0.0082
3081.75,0.0082
3081.50,0.0081
3081.25,0.0080
3081.00,0.0079
3080.75,0.0079
3080.50,0.0079
3080.25,0.0080
3080.00,0.0081
3079.75,0.0082
3079.50,0.0083
3079.25,0.0083
3079.00,0.0082
3078.75,0.0081
3078.50,0.0080
3078.25,0.0080
3078.00,0.0079
3077.75,0.0080
3077.50,0.0081
3077.25,0.0082
3077.00,0.0082
3076.75,0.0082
3076.50,0.0082
3076.25,0.0082
3076.00,0.0083
3075.75,0.0083
3075.50,0.0083
3075.25,0.0083
3075.00,0.0082
3074.75,0.0081
3074.50,0.0080
3074.25,0.0079
3074.00,0.0079
3073.75,0.0078
3073.50,0.0079
3073.25,0.0079
3073.00,0.0079
3072.75,0.0079
3072.50,0.0079
3072.25,0.0079
3072.00,0.0079
3071.75,0.0079
3071.50,0.0079
3071.25,0.0079
3071.00,0.0079
3070.75,0.0079
3070.50,0.0080
3070.25,0.0080
3070.00,0.0080
3069.75,0.0080
3069.50,0.0079
3069.25,0.0078
3069.00,0.0077
3068.75,0.0077
3068.50,0.0077
3068.25,0.0077
3068.00,0.0077
3067.75,0.0077
3067.50,0.0077
3067.25,0.0077
3067.00,0.0079
3066.75,0.0080
3066.50,0.0081
3066.25,0.0081
3066.00,0.0080
3065.75,0.0079
3065.50,0.0079
3065.25,0.0079
3065.00,0.0080
3064.75,0.0080
3064.50,0.0080
3064.25,0.0080
3064.00,0.0079
3063.75,0.0078
3063.50,0.0078
3063.25,0.0077
3063.00,0.0077
3062.75,0.0078
3062.50,0.0078
3062.25,0.0079
3062.00,0.0079
3061.75,0.0080
3061.50,0.0081
3061.25,0.0082
3061.00,0.0082
3060.75,0.0082
3060.50,0.0081
3060.25,0.0080
3060.00,0.0079
3059.75,0.0079
3059.50,0.0080
3059.25,0.0080
3059.00,0.0081
3058.75,0.0081
3058.50,0.0081
3058.25,0.0081
3058.00,0.0081
3057.75,0.0081
3057.50,0.0082
3057.25,0.0083
3057.00,0.0084
3056.75,0.0083
3056.50,0.0081
3056.25,0.0080
3056.00,0.0079
3055.75,0.0078
3055.50,0.0078
3055.25,0.0079
3055.00,0.0080
3054.75,0.0081
3054.50,0.0081
3054.25,0.0081
3054.00,0.0081
3053.75,0.0080
3053.50,0.0079
3053.25,0.0078
3053.00,0.0078
3052.75,0.0078
3052.50,0.0079
3052.25,0.0079
3052.00,0.0080
3051.75,0.0080
3051.50,0.0080
3051.25,0.0079
3051.00,0.0078
3050.75,0.0077
3050.50,0.0076
3050.25,0.0075
3050.00,0.0074
3049.75,0.0073
3049.50,0.0073
3049.25,0.0073
3049.00,0.0074
3048.75,0.0074
3048.50,0.0074
3048.25,0.0073
3048.00,0.0073
3047.75,0.0073
3047.50,0.0074
3047.25,0.0076
3047.00,0.0076
3046.75,0.0075
3046.50,0.0074
3046.25,0.0071
3046.00,0.0069
3045.75,0.0068
3045.50,0.0068
3045.25,0.0068
3045.00,0.0069
3044.75,0.0071
3044.50,0.0072
3044.25,0.0073
3044.00,0.0073
3043.75,0.0072
3043.50,0.0070
3043.25,0.0069
3043.00,0.0068
3042.75,0.0068
3042.50,0.0068
3042.25,0.0070
3042.00,0.0072
3041.75,0.0074
3041.50,0.0076
3041.25,0.0077
3041.00,0.0076
3040.75,0.0075
3040.50,0.0074
3040.25,0.0074
3040.00,0.0074
3039.75,0.0074
3039.50,0.0073
3039.25,0.0071
3039.00,0.0069
3038.75,0.0069
3038.50,0.0069
3038.25,0.0071
3038.00,0.0072
3037.75,0.0074
3037.50,0.0075
3037.25,0.0075
3037.00,0.0075
3036.75,0.0074
3036.50,0.0073
3036.25,0.0073
3036.00,0.0074
3035.75,0.0075
3035.50,0.0076
3035.25,0.0077
3035.00,0.0076
3034.75,0.0074
3034.50,0.0071
3034.25,0.0070
3034.00,0.0070
3033.75,0.0071
3033.50,0.0071
3033.25,0.0071
3033.00,0.0071
3032.75,0.0070
3032.50,0.0069
3032.25,0.0069
3032.00,0.0070
3031.75,0.0071
3031.50,0.0072
3031.25,0.0072
3031.00,0.0073
3030.75,0.0073
3030.50,0.0073
3030.25,0.0074
3030.00,0.0074
3029.75,0.0074
3029.50,0.0074
3029.25,0.0073
3029.00,0.0073
3028.75,0.0072
3028.50,0.0072
3028.25,0.0073
3028.00,0.0074
3027.75,0.0074
3027.50,0.0075
3027.25,0.0075
3027.00,0.0075
3026.75,0.0075
3026.50,0.0076
3026.25,0.0076
3026.00,0.0077
3025.75,0.0077
3025.50,0.0077
3025.25,0.0076
3025.00,0.0076
3024.75,0.0076
3024.50,0.0076
3024.25,0.0077
3024.00,0.0078
3023.75,0.0080
3023.50,0.0081
3023.25,0.0081
3023.00,0.0081
3022.75,0.0081
3022.50,0.0080
3022.25,0.0079
3022.00,0.0077
3021.75,0.0076
3021.50,0.0075
3021.25,0.0075
3021.00,0.0076
3020.75,0.0077
3020.50,0.0079
3020.25,0.0081
3020.00,0.0082
3019.75,0.0081
3019.50,0.0080
3019.25,0.0078
3019.00,0.0077
3018.75,0.0077
3018.50,0.0078
3018.25,0.0079
3018.00,0.0081
3017.75,0.0082
3017.50,0.0083
3017.25,0.0084
3017.00,0.0084
3016.75,0.0085
3016.50,0.0084
3016.25,0.0083
3016.00,0.0081
3015.75,0.0080
3015.50,0.0078
3015.25,0.0077
3015.00,0.0077
3014.75,0.0077
3014.50,0.0078
3014.25,0.0080
3014.00,0.0081
3013.75,0.0082
3013.50,0.0082
3013.25,0.0081
3013.00,0.0080
3012.75,0.0079
3012.50,0.0079
3012.25,0.0079
3012.00,0.0080
3011.75,0.0080
3011.50,0.0081
3011.25,0.0083
3011.00,0.0084
3010.75,0.0084
3010.50,0.0085
3010.25,0.0084
3010.00,0.0084
3009.75,0.0083
3009.50,0.0082
3009.25,0.0082
3009.00,0.0083
3008.75,0.0084
3008.50,0.0085
3008.25,0.0085
3008.00,0.0085
3007.75,0.0086
3007.50,0.0086
3007.25,0.0086
3007.00,0.0085
3006.75,0.0084
3006.50,0.0083
3006.25,0.0082
3006.00,0.0083
3005.75,0.0084
3005.50,0.0085
3005.25,0.0085
3005.00,0.0084
3004.75,0.0083
3004.50,0.0083
3004.25,0.0083
3004.00,0.0083
3003.75,0.0084
3003.50,0.0084
3003.25,0.0085
3003.00,0.0085
3002.75,0.0085
3002.50,0.0085
3002.25,0.0085
3002.00,0.0085
3001.75,0.0086
3001.50,0.0086
3001.25,0.0087
3001.00,0.0086
3000.75,0.0086
3000.50,0.0085
3000.25,0.0084
3000.00,0.0083
2999.75,0.0082
2999.50,0.0081
2999.25,0.0081
2999.00,0.0081
2998.75,0.0083
2998.50,0.0085
2998.25,0.0087
2998.00,0.0088
2997.75,0.0089
2997.50,0.0088
2997.25,0.0088
2997.00,0.0088
2996.75,0.0088
2996.50,0.0089
2996.25,0.0090
2996.00,0.0092
2995.75,0.0093
2995.50,0.0094
2995.25,0.0094
2995.00,0.0094
2994.75,0.0093
2994.50,0.0091
2994.25,0.0089
2994.00,0.0087
2993.75,0.0086
2993.50,0.0087
2993.25,0.0088
2993.00,0.0089
2992.75,0.0091
2992.50,0.0093
2992.25,0.0094
2992.00,0.0094
2991.75,0.0094
2991.50,0.0093
2991.25,0.0092
2991.00,0.0091
2990.75,0.0090
2990.50,0.0088
2990.25,0.0088
2990.00,0.0088
2989.75,0.0089
2989.50,0.0091
2989.25,0.0092
2989.00,0.0094
2988.75,0.0094
2988.50,0.0095
2988.25,0.0095
2988.00,0.0094
2987.75,0.0094
2987.50,0.0095
2987.25,0.0096
2987.00,0.0097
2986.75,0.0098
2986.50,0.0099
2986.25,0.0099
2986.00,0.0098
2985.75,0.0097
2985.50,0.0097
2985.25,0.0098
2985.00,0.0100
2984.75,0.0102
2984.50,0.0103
2984.25,0.0103
2984.00,0.0102
2983.75,0.0101
2983.50,0.0101
2983.25,0.0103
2983.00,0.0105
2982.75,0.0106
2982.50,0.0107
2982.25,0.0107
2982.00,0.0107
2981.75,0.0107
2981.50,0.0108
2981.25,0.0108
2981.00,0.0108
2980.75,0.0108
2980.50,0.0108
2980.25,0.0109
2980.00,0.0111
2979.75,0.0114
2979.50,0.0116
2979.25,0.0117
2979.00,0.0118
2978.75,0.0118
2978.50,0.0119
2978.25,0.0120
2978.00,0.0122
2977.75,0.0123
2977.50,0.0124
2977.25,0.0124
2977.00,0.0125
2976.75,0.0125
2976.50,0.0125
2976.25,0.0125
2976.00,0.0126
2975.75,0.0126
2975.50,0.0127
2975.25,0.0128
2975.00,0.0129
2974.75,0.0132
2974.50,0.0134
2974.25,0.0137
2974.00,0.0139
2973.75,0.0141
2973.50,0.0143
2973.25,0.0143
2973.00,0.0143
2972.75,0.0143
2972.50,0.0143
2972.25,0.0143
2972.00,0.0144
2971.75,0.0145
2971.50,0.0147
2971.25,0.0148
2971.00,0.0150
2970.75,0.0151
2970.50,0.0152
2970.25,0.0154
2970.00,0.0155
2969.75,0.0156
2969.50,0.0157
2969.25,0.0158
2969.00,0.0159
2968.75,0.0160
2968.50,0.0160
2968.25,0.0160
2968.00,0.0160
2967.75,0.0160
2967.50,0.0161
2967.25,0.0162
2967.00,0.0163
2966.75,0.0164
2966.50,0.0165
2966.25,0.0165
2966.00,0.0166
2965.75,0.0167
2965.50,0.0167
2965.25,0.0167
2965.00,0.0168
2964.75,0.0168
2964.50,0.0170
2964.25,0.0171
2964.00,0.0172
2963.75,0.0172
2963.50,0.0170
2963.25,0.0169
2963.00,0.0167
2962.75,0.0165
2962.50,0.0164
2962.25,0.0164
2962.00,0.0165
2961.75,0.0166
2961.50,0.0167
2961.25,0.0166
2961.00,0.0165
2960.75,0.0164
2960.50,0.0162
2960.25,0.0160
2960.00,0.0158
2959.75,0.0156
2959.50,0.0155
2959.25,0.0154
2959.00,0.0153
2958.75,0.0152
2958.50,0.0151
2958.25,0.0150
2958.00,0.0148
2957.75,0.0147
2957.50,0.0145
2957.25,0.0144
2957.00,0.0142
2956.75,0.0141
2956.50,0.0139
2956.25,0.0137
2956.00,0.0134
2955.75,0.0132
2955.50,0.0130
2955.25,0.0128
2955.00,0.0127
2954.75,0.0126
2954.50,0.0125
2954.25,0.0125
2954.00,0.0124
2953.75,0.0124
2953.50,0.0123
2953.25,0.0122
2953.00,0.0120
2952.75,0.0117
2952.50,0.0114
2952.25,0.0112
2952.00,0.0110
2951.75,0.0109
2951.50,0.0109
2951.25,0.0110
2951.00,0.0112
2950.75,0.0113
2950.50,0.0113
2950.25,0.0112
2950.00,0.0110
2949.75,0.0107
2949.50,0.0104
2949.25,0.0101
2949.00,0.0099
2948.75,0.0097
2948.50,0.0096
2948.25,0.0096
2948.00,0.0096
2947.75,0.0096
2947.50,0.0096
2947.25,0.0097
2947.00,0.0098
2946.75,0.0098
2946.50,0.0098
2946.25,0.0097
2946.00,0.0097
2945.75,0.0096
2945.50,0.0095
2945.25,0.0094
2945.00,0.0092
2944.75,0.0091
2944.50,0.0089
2944.25,0.0089
2944.00,0.0089
2943.75,0.0090
2943.50,0.0090
2943.25,0.0090
2943.00,0.0091
2942.75,0.0091
2942.50,0.0092
2942.25,0.0092
2942.00,0.0092
2941.75,0.0092
2941.50,0.0092
2941.25,0.0091
2941.00,0.0090
2940.75,0.0089
2940.50,0.0088
2940.25,0.0088
2940.00,0.0087
2939.75,0.0087
2939.50,0.0088
2939.25,0.0089
2939.00,0.0090
2938.75,0.0089
2938.50,0.0088
2938.25,0.0087
2938.00,0.0086
2937.75,0.0086
2937.50,0.0086
2937.25,0.0087
2937.00,0.0087
2936.75,0.0088
2936.50,0.0089
2936.25,0.0089
2936.00,0.0089
2935.75,0.0088
2935.50,0.0086
2935.25,0.0085
2935.00,0.0085
2934.75,0.0086
2934.50,0.0086
2934.25,0.0087
2934.00,0.0087
2933.75,0.0087
2933.50,0.0087
2933.25,0.0088
2933.00,0.0088
2932.75,0.0089
2932.50,0.0090
2932.25,0.0091
2932.00,0.0091
2931.75,0.0090
2931.50,0.0088
2931.25,0.0086
2931.00,0.0085
2930.75,0.0085
2930.50,0.0085
2930.25,0.0085
2930.00,0.0086
2929.75,0.0086
2929.50,0.0087
2929.25,0.0087
2929.00,0.0088
2928.75,0.0088
2928.50,0.0088
2928.25,0.0088
2928.00,0.0088
2927.75,0.0088
2927.50,0.0088
2927.25,0.0087
2927.00,0.0086
2926.75,0.0085
2926.50,0.0085
2926.25,0.0086
2926.00,0.0087
2925.75,0.0089
2925.50,0.0090
2925.25,0.0090
2925.00,0.0090
2924.75,0.0089
2924.50,0.0088
2924.25,0.0088
2924.00,0.0087
2923.75,0.0087
2923.50,0.0087
2923.25,0.0088
2923.00,0.0088
2922.75,0.0089
2922.50,0.0090
2922.25,0.0091
2922.00,0.0090
2921.75,0.0090
2921.50,0.0089
2921.25,0.0088
2921.00,0.0088
2920.75,0.0089
2920.50,0.0090
2920.25,0.0090
2920.00,0.0089
2919.75,0.0088
2919.50,0.0088
2919.25,0.0088
2919.00,0.0089
2918.75,0.0089
2918.50,0.0090
2918.25,0.0091
2918.00,0.0092
2917.75,0.0093
2917.50,0.0094
2917.25,0.0094
2917.00,0.0094
2916.75,0.0094
2916.50,0.0093
2916.25,0.0093
2916.00,0.0092
2915.75,0.0092
2915.50,0.0092
2915.25,0.0092
2915.00,0.0092
2914.75,0.0092
2914.50,0.0092
2914.25,0.0093
2914.00,0.0093
2913.75,0.0093
2913.50,0.0094
2913.25,0.0095
2913.00,0.0095
2912.75,0.0094
2912.50,0.0094
2912.25,0.0094
2912.00,0.0094
2911.75,0.0096
2911.50,0.0097
2911.25,0.0097
2911.00,0.0097
2910.75,0.0096
2910.50,0.0094
2910.25,0.0094
2910.00,0.0094
2909.75,0.0095
2909.50,0.0095
2909.25,0.0096
2909.00,0.0095
2908.75,0.0095
2908.50,0.0095
2908.25,0.0096
2908.00,0.0096
2907.75,0.0095
2907.50,0.0095
2907.25,0.0095
2907.00,0.0096
2906.75,0.0097
2906.50,0.0098
2906.25,0.0099
2906.00,0.0099
2905.75,0.0098
2905.50,0.0098
2905.25,0.0098
2905.00,0.0098
2904.75,0.0097
2904.50,0.0096
2904.25,0.0094
2904.00,0.0093
2903.75,0.0093
2903.50,0.0093
2903.25,0.0094
2903.00,0.0095
2902.75,0.0095
2902.50,0.0095
2902.25,0.0095
2902.00,0.0095
2901.75,0.0095
2901.50,0.0095
2901.25,0.0095
2901.00,0.0095
2900.75,0.0094
2900.50,0.0094
2900.25,0.0094
2900.00,0.0093
2899.75,0.0093
2899.50,0.0093
2899.25,0.0092
2899.00,0.0091
2898.75,0.0090
2898.50,0.0090
2898.25,0.0090
2898.00,0.0091
2897.75,0.0091
2897.50,0.0091
2897.25,0.0091
2897.00,0.0090
2896.75,0.0090
2896.50,0.0089
2896.25,0.0089
2896.00,0.0090
2895.75,0.0090
2895.50,0.0090
2895.25,0.0089
2895.00,0.0088
2894.75,0.0087
2894.50,0.0086
2894.25,0.0086
2894.00,0.0086
2893.75,0.0086
2893.50,0.0086
2893.25,0.0087
2893.00,0.0087
2892.75,0.0088
2892.50,0.0088
2892.25,0.0087
2892.00,0.0086
2891.75,0.0085
2891.50,0.0085
2891.25,0.0085
2891.00,0.0086
2890.75,0.0086
2890.50,0.0085
2890.25,0.0084
2890.00,0.0082
2889.75,0.0081
2889.50,0.0081
2889.25,0.0082
2889.00,0.0083
2888.75,0.0083
2888.50,0.0083
2888.25,0.0083
2888.00,0.0083
2887.75,0.0083
2887.50,0.0084
2887.25,0.0084
2887.00,0.0084
2886.75,0.0083
2886.50,0.0083
2886.25,0.0082
2886.00,0.0083
2885.75,0.0083
2885.50,0.0083
2885.25,0.0082
2885.00,0.0082
2884.75,0.0082
2884.50,0.0082
2884.25,0.0082
2884.00,0.0082
2883.75,0.0082
2883.50,0.0082
2883.25,0.0083
2883.00,0.0084
2882.75,0.0084
2882.50,0.0085
2882.25,0.0085
2882.00,0.0084
2881.75,0.0083
2881.50,0.0083
2881.25,0.0083
2881.00,0.0083
2880.75,0.0083
2880.50,0.0083
2880.25,0.0083
2880.00,0.0083
2879.75,0.0083
2879.50,0.0083
2879.25,0.0082
2879.00,0.0081
2878.75,0.0080
2878.50,0.0080
2878.25,0.0081
2878.00,0.0083
2877.75,0.0084
2877.50,0.0085
2877.25,0.0084
2877.00,0.0083
2876.75,0.0082
2876.50,0.0082
2876.25,0.0081
2876.00,0.0081
2875.75,0.0080
2875.50,0.0080
2875.25,0.0080
2875.00,0.0081
2874.75,0.0082
2874.50,0.0082
2874.25,0.0082
2874.00,0.0081
2873.75,0.0080
2873.50,0.0080
2873.25,0.0080
2873.00,0.0081
2872.75,0.0081
2872.50,0.0081
2872.25,0.0080
2872.00,0.0080
2871.75,0.0081
2871.50,0.0082
2871.25,0.0082
2871.00,0.0081
2870.75,0.0081
2870.50,0.0081
2870.25,0.0081
2870.00,0.0082
2869.75,0.0082
2869.50,0.0082
2869.25,0.0083
2869.00,0.0083
2868.75,0.0083
2868.50,0.0084
2868.25,0.0084
2868.00,0.0084
2867.75,0.0084
2867.50,0.0083
2867.25,0.0083
2867.00,0.0082
2866.75,0.0081
2866.50,0.0081
2866.25,0.0080
2866.00,0.0080
2865.75,0.0080
2865.50,0.0081
2865.25,0.0082
2865.00,0.0082
2864.75,0.0082
2864.50,0.0082
2864.25,0.0082
2864.00,0.0083
2863.75,0.0083
2863.50,0.0083
2863.25,0.0082
2863.00,0.0081
2862.75,0.0081
2862.50,0.0081
2862.25,0.0081
2862.00,0.0082
2861.75,0.0083
2861.50,0.0084
2861.25,0.0085
2861.00,0.0084
2860.75,0.0083
2860.50,0.0082
2860.25,0.0080
2860.00,0.0079
2859.75,0.0078
2859.50,0.0078
2859.25,0.0079
2859.00,0.0079
2858.75,0.0080
2858.50,0.0080
2858.25,0.0080
2858.00,0.0081
2857.75,0.0082
2857.50,0.0084
2857.25,0.0085
2857.00,0.0085
2856.75,0.0084
2856.50,0.0083
2856.25,0.0081
2856.00,0.0080
2855.75,0.0079
2855.50,0.0079
2855.25,0.0079
2855.00,0.0080
2854.75,0.0080
2854.50,0.0081
2854.25,0.0082
2854.00,0.0082
2853.75,0.0083
2853.50,0.0083
2853.25,0.0083
2853.00,0.0083
2852.75,0.0082
2852.50,0.0081
2852.25,0.0081
2852.00,0.0080
2851.75,0.0081
2851.50,0.0081
2851.25,0.0082
2851.00,0.0083
2850.75,0.0084
2850.50,0.0085
2850.25,0.0086
2850.00,0.0086
2849.75,0.0085
2849.50,0.0084
2849.25,0.0083
2849.00,0.0083
2848.75,0.0083
2848.50,0.0083
2848.25,0.0082
2848.00,0.0081
2847.75,0.0080
2847.50,0.0080
2847.25,0.0081
2847.00,0.0082
2846.75,0.0082
2846.50,0.0082
2846.25,0.0082
2846.00,0.0082
2845.75,0.0081
2845.50,0.0081
2845.25,0.0080
2845.00,0.0079
2844.75,0.0079
2844.50,0.0080
2844.25,0.0081
2844.00,0.0081
2843.75,0.0081
2843.50,0.0080
2843.25,0.0080
2843.00,0.0080
2842.75,0.0080
2842.50,0.0080
2842.25,0.0079
2842.00,0.0078
2841.75,0.0078
2841.50,0.0077
2841.25,0.0077
2841.00,0.0078
2840.75,0.0078
2840.50,0.0079
2840.25,0.0079
2840.00,0.0079
2839.75,0.0079
2839.50,0.0079
2839.25,0.0079
2839.00,0.0079
2838.75,0.0079
2838.50,0.0080
2838.25,0.0082
2838.00,0.0083
2837.75,0.0083
2837.50,0.0083
2837.25,0.0083
2837.00,0.0082
2836.75,0.0081
2836.50,0.0080
2836.25,0.0079
2836.00,0.0078
2835.75,0.0077
2835.50,0.0076
2835.25,0.0077
2835.00,0.0077
2834.75,0.0078
2834.50,0.0079
2834.25,0.0080
2834.00,0.0080
2833.75,0.0080
2833.50,0.0080
2833.25,0.0080
2833.00,0.0080
2832.75,0.0080
2832.50,0.0081
2832.25,0.0081
2832.00,0.0082
2831.75,0.0082
2831.50,0.0082
2831.25,0.0082
2831.00,0.0082
2830.75,0.0081
2830.50,0.0080
2830.25,0.0080
2830.00,0.0080
2829.75,0.0080
2829.50,0.0081
2829.25,0.0082
2829.00,0.0083
2828.75,0.0083
2828.50,0.0082
2828.25,0.0081
2828.00,0.0080
2827.75,0.0079
2827.50,0.0079
2827.25,0.0079
2827.00,0.0079
2826.75,0.0078
2826.50,0.0078
2826.25,0.0079
2826.00,0.0080
2825.75,0.0082
2825.50,0.0083
2825.25,0.0083
2825.00,0.0083
2824.75,0.0082
2824.50,0.0081
2824.25,0.0080
2824.00,0.0080
2823.75,0.0079
2823.50,0.0079
2823.25,0.0080
2823.00,0.0080
2822.75,0.0079
2822.50,0.0079
2822.25,0.0078
2822.00,0.0079
2821.75,0.0080
2821.50,0.0081
2821.25,0.0082
2821.00,0.0083
2820.75,0.0082
2820.50,0.0081
2820.25,0.0080
2820.00,0.0079
2819.75,0.0079
2819.50,0.0079
2819.25,0.0079
2819.00,0.0079
2818.75,0.0080
2818.50,0.0080
2818.25,0.0080
2818.00,0.0080
2817.75,0.0079
2817.50,0.0078
2817.25,0.0077
2817.00,0.0077
2816.75,0.0077
2816.50,0.0078
2816.25,0.0079
2816.00,0.0080
2815.75,0.0079
2815.50,0.0079
2815.25,0.0079
2815.00,0.0080
2814.75,0.0080
2814.50,0.0081
2814.25,0.0081
2814.00,0.0082
2813.75,0.0082
2813.50,0.0082
2813.25,0.0082
2813.00,0.0081
2812.75,0.0080
2812.50,0.0080
2812.25,0.0079
2812.00,0.0080
2811.75,0.0080
2811.50,0.0081
2811.25,0.0080
2811.00,0.0080
2810.75,0.0080
2810.50,0.0081
2810.25,0.0081
2810.00,0.0082
2809.75,0.0083
2809.50,0.0083
2809.25,0.0083
2809.00,0.0082
2808.75,0.0082
2808.50,0.0081
2808.25,0.0080
2808.00,0.0079
2807.75,0.0079
2807.50,0.0080
2807.25,0.0080
2807.00,0.0081
2806.75,0.0081
2806.50,0.0081
2806.25,0.0082
2806.00,0.0082
2805.75,0.0083
2805.50,0.0083
2805.25,0.0083
2805.00,0.0082
2804.75,0.0081
2804.50,0.0080
2804.25,0.0079
2804.00,0.0078
2803.75,0.0078
2803.50,0.0078
2803.25,0.0078
2803.00,0.0078
2802.75,0.0078
2802.50,0.0079
2802.25,0.0080
2802.00,0.0082
2801.75,0.0082
2801.50,0.0082
2801.25,0.0081
2801.00,0.0080
2800.75,0.0079
2800.50,0.0078
2800.25,0.0077
2800.00,0.0077
2799.75,0.0078
2799.50,0.0079
2799.25,0.0081
2799.00,0.0082
2798.75,0.0082
2798.50,0.0081
2798.25,0.0081
2798.00,0.0080
2797.75,0.0081
2797.50,0.0082
2797.25,0.0082
2797.00,0.0082
2796.75,0.0081
2796.50,0.0081
2796.25,0.0081
2796.00,0.0082
2795.75,0.0082
2795.50,0.0081
2795.25,0.0080
2795.00,0.0080
2794.75,0.0081
2794.50,0.0082
2794.25,0.0082
2794.00,0.0082
2793.75,0.0081
2793.50,0.0080
2793.25,0.0079
2793.00,0.0079
2792.75,0.0079
2792.50,0.0080
2792.25,0.0081
2792.00,0.0081
2791.75,0.0081
2791.50,0.0081
2791.25,0.0081
2791.00,0.0081
2790.75,0.0082
2790.50,0.0081
2790.25,0.0081
2790.00,0.0079
2789.75,0.0078
2789.50,0.0078
2789.25,0.0079
2789.00,0.0080
2788.75,0.0082
2788.50,0.0083
2788.25,0.0082
2788.00,0.0081
2787.75,0.0080
2787.50,0.0079
2787.25,0.0079
2787.00,0.0080
2786.75,0.0080
2786.50,0.0080
2786.25,0.0080
2786.00,0.0079
2785.75,0.0078
2785.50,0.0077
2785.25,0.0077
2785.00,0.0077
2784.75,0.0078
2784.50,0.0079
2784.25,0.0080
2784.00,0.0080
2783.75,0.0080
2783.50,0.0080
2783.25,0.0080
2783.00,0.0080
2782.75,0.0079
2782.50,0.0079
2782.25,0.0079
2782.00,0.0079
2781.75,0.0078
2781.50,0.0078
2781.25,0.0078
2781.00,0.0078
2780.75,0.0078
2780.50,0.0079
2780.25,0.0079
2780.00,0.0080
2779.75,0.0081
2779.50,0.0082
2779.25,0.0081
2779.00,0.0079
2778.75,0.0078
2778.50,0.0078
2778.25,0.0077
2778.00,0.0078
2777.75,0.0078
2777.50,0.0078
2777.25,0.0078
2777.00,0.0078
2776.75,0.0079
2776.50,0.0079
2776.25,0.0079
2776.00,0.0078
2775.75,0.0077
2775.50,0.0076
2775.25,0.0075
2775.00,0.0076
2774.75,0.0077
2774.50,0.0078
2774.25,0.0078
2774.00,0.0077
2773.75,0.0076
2773.50,0.0076
2773.25,0.0076
2773.00,0.0077
2772.75,0.0078
2772.50,0.0080
2772.25,0.0081
2772.00,0.0081
2771.75,0.0081
2771.50,0.0080
2771.25,0.0079
2771.00,0.0078
2770.75,0.0077
2770.50,0.0076
2770.25,0.0076
2770.00,0.0077
2769.75,0.0078
2769.50,0.0078
2769.25,0.0078
2769.00,0.0077
2768.75,0.0077
2768.50,0.0077
2768.25,0.0078
2768.00,0.0078
2767.75,0.0078
2767.50,0.0077
2767.25,0.0076
2767.00,0.0076
2766.75,0.0075
2766.50,0.0076
2766.25,0.0077
2766.00,0.0077
2765.75,0.0078
2765.50,0.0077
2765.25,0.0077
2765.00,0.0078
2764.75,0.0079
2764.50,0.0080
2764.25,0.0081
2764.00,0.0082
2763.75,0.0081
2763.50,0.0081
2763.25,0.0080
2763.00,0.0080
2762.75,0.0079
2762.50,0.0077
2762.25,0.0076
2762.00,0.0075
2761.75,0.0075
2761.50,0.0076
2761.25,0.0077
2761.00,0.0078
2760.75,0.0079
2760.50,0.0080
2760.25,0.0080
2760.00,0.0080
2759.75,0.0079
2759.50,0.0078
2759.25,0.0076
2759.00,0.0075
2758.75,0.0074
2758.50,0.0074
2758.25,0.0075
2758.00,0.0075
2757.75,0.0076
2757.50,0.0077
2757.25,0.0077
2757.00,0.0076
2756.75,0.0076
2756.50,0.0076
2756.25,0.0076
2756.00,0.0077
2755.75,0.0078
2755.50,0.0079
2755.25,0.0079
2755.00,0.0080
2754.75,0.0080
2754.50,0.0080
2754.25,0.0079
2754.00,0.0079
2753.75,0.0078
2753.50,0.0077
2753.25,0.0077
2753.00,0.0076
2752.75,0.0075
2752.50,0.0075
2752.25,0.0074
2752.00,0.0075
2751.75,0.0075
2751.50,0.0075
2751.25,0.0074
2751.00,0.0074
2750.75,0.0074
2750.50,0.0074
2750.25,0.0075
2750.00,0.0075
2749.75,0.0075
2749.50,0.0074
2749.25,0.0073
2749.00,0.0073
2748.75,0.0074
2748.50,0.0076
2748.25,0.0078
2748.00,0.0079
2747.75,0.0079
2747.50,0.0079
2747.25,0.0078
2747.00,0.0078
2746.75,0.0078
2746.50,0.0078
2746.25,0.0077
2746.00,0.0076
2745.75,0.0075
2745.50,0.0075
2745.25,0.0075
2745.00,0.0076
2744.75,0.0076
2744.50,0.0076
2744.25,0.0076
2744.00,0.0076
2743.75,0.0076
2743.50,0.0076
2743.25,0.0077
2743.00,0.0078
2742.75,0.0079
2742.50,0.0080
2742.25,0.0079
2742.00,0.0079
2741.75,0.0078
2741.50,0.0077
2741.25,0.0076
2741.00,0.0075
2740.75,0.0076
2740.50,0.0076
2740.25,0.0076
2740.00,0.0075
2739.75,0.0074
2739.50,0.0074
2739.25,0.0075
2739.00,0.0075
2738.75,0.0076
2738.50,0.0077
2738.25,0.0078
2738.00,0.0078
2737.75,0.0079
2737.50,0.0079
2737.25,0.0079
2737.00,0.0079
2736.75,0.0078
2736.50,0.0077
2736.25,0.0077
2736.00,0.0077
2735.75,0.0077
2735.50,0.0076
2735.25,0.0076
2735.00,0.0075
2734.75,0.0075
2734.50,0.0076
2734.25,0.0077
2734.00,0.0077
2733.75,0.0077
2733.50,0.0077
2733.25,0.0076
2733.00,0.0075
2732.75,0.0074
2732.50,0.0074
2732.25,0.0075
2732.00,0.0076
2731.75,0.0076
2731.50,0.0076
2731.25,0.0076
2731.00,0.0075
2730.75,0.0075
2730.50,0.0075
2730.25,0.0075
2730.00,0.0076
2729.75,0.0077
2729.50,0.0078
2729.25,0.0078
2729.00,0.0078
2728.75,0.0077
2728.50,0.0077
2728.25,0.0076
2728.00,0.0075
2727.75,0.0074
2727.50,0.0074
2727.25,0.0074
2727.00,0.0075
2726.75,0.0076
2726.50,0.0077
2726.25,0.0078
2726.00,0.0078
2725.75,0.0079
2725.50,0.0079
2725.25,0.0079
2725.00,0.0079
2724.75,0.0078
2724.50,0.0077
2724.25,0.0077
2724.00,0.0076
2723.75,0.0075
2723.50,0.0075
2723.25,0.0074
2723.00,0.0074
2722.75,0.0075
2722.50,0.0075
2722.25,0.0076
2722.00,0.0076
2721.75,0.0077
2721.50,0.0077
2721.25,0.0077
2721.00,0.0075
2720.75,0.0074
2720.50,0.0074
2720.25,0.0074
2720.00,0.0075
2719.75,0.0077
2719.50,0.0078
2719.25,0.0079
2719.00,0.0079
2718.75,0.0078
2718.50,0.0078
2718.25,0.0078
2718.00,0.0078
2717.75,0.0078
2717.50,0.0077
2717.25,0.0076
2717.00,0.0075
2716.75,0.0075
2716.50,0.0075
2716.25,0.0077
2716.00,0.0078
2715.75,0.0079
2715.50,0.0080
2715.25,0.0080
2715.00,0.0079
2714.75,0.0078
2714.50,0.0078
2714.25,0.0078
2714.00,0.0078
2713.75,0.0078
2713.50,0.0078
2713.25,0.0078
2713.00,0.0079
2712.75,0.0078
2712.50,0.0078
2712.25,0.0076
2712.00,0.0075
2711.75,0.0074
2711.50,0.0074
2711.25,0.0074
2711.00,0.0075
2710.75,0.0076
2710.50,0.0076
2710.25,0.0077
2710.00,0.0077
2709.75,0.0077
2709.50,0.0077
2709.25,0.0077
2709.00,0.0077
2708.75,0.0078
2708.50,0.0079
2708.25,0.0079
2708.00,0.0079
2707.75,0.0078
2707.50,0.0078
2707.25,0.0078
2707.00,0.0078
2706.75,0.0078
2706.50,0.0077
2706.25,0.0077
2706.00,0.0077
2705.75,0.0077
2705.50,0.0076
2705.25,0.0076
2705.00,0.0076
2704.75,0.0077
2704.50,0.0077
2704.25,0.0076
2704.00,0.0076
2703.75,0.0076
2703.50,0.0076
2703.25,0.0076
2703.00,0.0077
2702.75,0.0077
2702.50,0.0077
2702.25,0.0078
2702.00,0.0077
2701.75,0.0077
2701.50,0.0076
2701.25,0.0076
2701.00,0.0075
2700.75,0.0075
2700.50,0.0075
2700.25,0.0075
2700.00,0.0075
2699.75,0.0075
2699.50,0.0075
2699.25,0.0074
2699.00,0.0074
2698.75,0.0074
2698.50,0.0075
2698.25,0.0075
2698.00,0.0076
2697.75,0.0076
2697.50,0.0076
2697.25,0.0077
2697.00,0.0077
2696.75,0.0078
2696.50,0.0078
2696.25,0.0078
2696.00,0.0077
2695.75,0.0076
2695.50,0.0076
2695.25,0.0076
2695.00,0.0077
2694.75,0.0079
2694.50,0.0080
2694.25,0.0080
2694.00,0.0080
2693.75,0.0079
2693.50,0.0077
2693.25,0.0076
2693.00,0.0076
2692.75,0.0076
2692.50,0.0076
2692.25,0.0077
2692.00,0.0077
2691.75,0.0077
2691.50,0.0077
2691.25,0.0076
2691.00,0.0074
2690.75,0.0073
2690.50,0.0073
2690.25,0.0073
2690.00,0.0075
2689.75,0.0077
2689.50,0.0079
2689.25,0.0080
2689.00,0.0081
2688.75,0.0081
2688.50,0.0080
2688.25,0.0079
2688.00,0.0078
2687.75,0.0078
2687.50,0.0078
2687.25,0.0079
2687.00,0.0080
2686.75,0.0080
2686.50,0.0080
2686.25,0.0079
2686.00,0.0079
2685.75,0.0078
2685.50,0.0076
2685.25,0.0075
2685.00,0.0074
2684.75,0.0074
2684.50,0.0073
2684.25,0.0073
2684.00,0.0074
2683.75,0.0075
2683.50,0.0076
2683.25,0.0077
2683.00,0.0078
2682.75,0.0078
2682.50,0.0078
2682.25,0.0077
2682.00,0.0077
2681.75,0.0077
2681.50,0.0077
2681.25,0.0076
2681.00,0.0076
2680.75,0.0077
2680.50,0.0077
2680.25,0.0077
2680.00,0.0077
2679.75,0.0077
2679.50,0.0077
2679.25,0.0077
2679.00,0.0076
2678.75,0.0076
2678.50,0.0075
2678.25,0.0074
2678.00,0.0074
2677.75,0.0074
2677.50,0.0074
2677.25,0.0074
2677.00,0.0075
2676.75,0.0075
2676.50,0.0076
2676.25,0.0077
2676.00,0.0077
2675.75,0.0077
2675.50,0.0077
2675.25,0.0077
2675.00,0.0077
2674.75,0.0077
2674.50,0.0077
2674.25,0.0078
2674.00,0.0078
2673.75,0.0078
2673.50,0.0078
2673.25,0.0077
2673.00,0.0077
2672.75,0.0077
2672.50,0.0078
2672.25,0.0078
2672.00,0.0077
2671.75,0.0077
2671.50,0.0076
2671.25,0.0075
2671.00,0.0074
2670.75,0.0074
2670.50,0.0074
2670.25,0.0075
2670.00,0.0075
2669.75,0.0076
2669.50,0.0077
2669.25,0.0078
2669.00,0.0078
2668.75,0.0078
2668.50,0.0077
2668.25,0.0076
2668.00,0.0075
2667.75,0.0075
2667.50,0.0075
2667.25,0.0075
2667.00,0.0076
2666.75,0.0076
2666.50,0.0075
2666.25,0.0075
2666.00,0.0075
2665.75,0.0076
2665.50,0.0077
2665.25,0.0078
2665.00,0.0078
2664.75,0.0077
2664.50,0.0076
2664.25,0.0075
2664.00,0.0075
2663.75,0.0076
2663.50,0.0076
2663.25,0.0075
2663.00,0.0075
2662.75,0.0076
2662.50,0.0077
2662.25,0.0078
2662.00,0.0078
2661.75,0.0079
2661.50,0.0079
2661.25,0.0078
2661.00,0.0078
2660.75,0.0077
2660.50,0.0077
2660.25,0.0076
2660.00,0.0076
2659.75,0.0075
2659.50,0.0075
2659.25,0.0075
2659.00,0.0075
2658.75,0.0075
2658.50,0.0074
2658.25,0.0075
2658.00,0.0075
2657.75,0.0076
2657.50,0.0077
2657.25,0.0078
2657.00,0.0079
2656.75,0.0079
2656.50,0.0078
2656.25,0.0078
2656.00,0.0078
2655.75,0.0078
2655.50,0.0078
2655.25,0.0078
2655.00,0.0077
2654.75,0.0077
2654.50,0.0077
2654.25,0.0077
2654.00,0.0077
2653.75,0.0078
2653.50,0.0079
2653.25,0.0080
2653.00,0.0080
2652.75,0.0080
2652.50,0.0080
2652.25,0.0079
2652.00,0.0079
2651.75,0.0078
2651.50,0.0077
2651.25,0.0077
2651.00,0.0076
2650.75,0.0076
2650.50,0.0076
2650.25,0.0077
2650.00,0.0078
2649.75,0.0078
2649.50,0.0079
2649.25,0.0078
2649.00,0.0078
2648.75,0.0077
2648.50,0.0077
2648.25,0.0077
2648.00,0.0077
2647.75,0.0077
2647.50,0.0077
2647.25,0.0076
2647.00,0.0076
2646.75,0.0076
2646.50,0.0077
2646.25,0.0078
2646.00,0.0079
2645.75,0.0079
2645.50,0.0079
2645.25,0.0079
2645.00,0.0079
2644.75,0.0078
2644.50,0.0077
2644.25,0.0076
2644.00,0.0075
2643.75,0.0075
2643.50,0.0075
2643.25,0.0076
2643.00,0.0077
2642.75,0.0078
2642.50,0.0078
2642.25,0.0078
2642.00,0.0077
2641.75,0.0077
2641.50,0.0077
2641.25,0.0078
2641.00,0.0078
2640.75,0.0077
2640.50,0.0075
2640.25,0.0075
2640.00,0.0075
2639.75,0.0077
2639.50,0.0078
2639.25,0.0078
2639.00,0.0077
2638.75,0.0075
2638.50,0.0073
2638.25,0.0073
2638.00,0.0073
2637.75,0.0075
2637.50,0.0076
2637.25,0.0077
2637.00,0.0077
2636.75,0.0076
2636.50,0.0074
2636.25,0.0073
2636.00,0.0072
2635.75,0.0073
2635.50,0.0074
2635.25,0.0075
2635.00,0.0077
2634.75,0.0077
2634.50,0.0077
2634.25,0.0077
2634.00,0.0076
2633.75,0.0076
2633.50,0.0075
2633.25,0.0075
2633.00,0.0076
2632.75,0.0077
2632.50,0.0078
2632.25,0.0079
2632.00,0.0078
2631.75,0.0077
2631.50,0.0077
2631.25,0.0076
2631.00,0.0076
2630.75,0.0076
2630.50,0.0076
2630.25,0.0075
2630.00,0.0075
2629.75,0.0075
2629.50,0.0075
2629.25,0.0076
2629.00,0.0076
2628.75,0.0076
2628.50,0.0076
2628.25,0.0076
2628.00,0.0077
2627.75,0.0077
2627.50,0.0077
2627.25,0.0077
2627.00,0.0078
2626.75,0.0078
2626.50,0.0078
2626.25,0.0078
2626.00,0.0078
2625.75,0.0076
2625.50,0.0075
2625.25,0.0073
2625.00,0.0073
2624.75,0.0073
2624.50,0.0073
2624.25,0.0073
2624.00,0.0073
2623.75,0.0073
2623.50,0.0073
2623.25,0.0074
2623.00,0.0074
2622.75,0.0075
2622.50,0.0075
2622.25,0.0076
2622.00,0.0076
2621.75,0.0077
2621.50,0.0077
2621.25,0.0077
2621.00,0.0077
2620.75,0.0077
2620.50,0.0077
2620.25,0.0076
2620.00,0.0076
2619.75,0.0077
2619.50,0.0077
2619.25,0.0078
2619.00,0.0078
2618.75,0.0077
2618.50,0.0077
2618.25,0.0077
2618.00,0.0077
2617.75,0.0077
2617.50,0.0077
2617.25,0.0077
2617.00,0.0076
2616.75,0.0075
2616.50,0.0074
2616.25,0.0074
2616.00,0.0074
2615.75,0.0075
2615.50,0.0076
2615.25,0.0077
2615.00,0.0077
2614.75,0.0076
2614.50,0.0076
2614.25,0.0076
2614.00,0.0077
2613.75,0.0079
2613.50,0.0079
2613.25,0.0078
2613.00,0.0076
2612.75,0.0072
2612.50,0.0070
2612.25,0.0069
2612.00,0.0070
2611.75,0.0072
2611.50,0.0074
2611.25,0.0076
2611.00,0.0077
2610.75,0.0077
2610.50,0.0077
2610.25,0.0077
2610.00,0.0077
2609.75,0.0076
2609.50,0.0077
2609.25,0.0077
2609.00,0.0077
2608.75,0.0077
2608.50,0.0077
2608.25,0.0076
2608.00,0.0075
2607.75,0.0073
2607.50,0.0073
2607.25,0.0073
2607.00,0.0073
2606.75,0.0074
2606.50,0.0075
2606.25,0.0076
2606.00,0.0077
2605.75,0.0079
2605.50,0.0081
2605.25,0.0082
2605.00,0.0082
2604.75,0.0080
2604.50,0.0078
2604.25,0.0075
2604.00,0.0073
2603.75,0.0071
2603.50,0.0071
2603.25,0.0072
2603.00,0.0074
2602.75,0.0076
2602.50,0.0078
2602.25,0.0079
2602.00,0.0078
2601.75,0.0075
2601.50,0.0072
2601.25,0.0070
2601.00,0.0069
2600.75,0.0069
2600.50,0.0071
2600.25,0.0073
2600.00,0.0075
2599.75,0.0076
2599.50,0.0075
2599.25,0.0074
2599.00,0.0072
2598.75,0.0071
2598.50,0.0071
2598.25,0.0073
2598.00,0.0075
2597.75,0.0077
2597.50,0.0079
2597.25,0.0080
2597.00,0.0079
2596.75,0.0078
2596.50,0.0077
2596.25,0.0077
2596.00,0.0076
2595.75,0.0074
2595.50,0.0072
2595.25,0.0069
2595.00,0.0068
2594.75,0.0069
2594.50,0.0071
2594.25,0.0074
2594.00,0.0075
2593.75,0.0076
2593.50,0.0075
2593.25,0.0074
2593.00,0.0073
2592.75,0.0074
2592.50,0.0075
2592.25,0.0077
2592.00,0.0078
2591.75,0.0079
2591.50,0.0079
2591.25,0.0078
2591.00,0.0077
2590.75,0.0075
2590.50,0.0075
2590.25,0.0075
2590.00,0.0076
2589.75,0.0077
2589.50,0.0077
2589.25,0.0077
2589.00,0.0077
2588.75,0.0078
2588.50,0.0078
2588.25,0.0078
2588.00,0.0078
2587.75,0.0077
2587.50,0.0077
2587.25,0.0075
2587.00,0.0074
2586.75,0.0072
2586.50,0.0072
2586.25,0.0073
2586.00,0.0075
2585.75,0.0075
2585.50,0.0075
2585.25,0.0074
2585.00,0.0073
2584.75,0.0072
2584.50,0.0072
2584.25,0.0072
2584.00,0.0072
2583.75,0.0071
2583.50,0.0071
2583.25,0.0072
2583.00,0.0073
2582.75,0.0074
2582.50,0.0075
2582.25,0.0074
2582.00,0.0073
2581.75,0.0072
2581.50,0.0072
2581.25,0.0072
2581.00,0.0072
2580.75,0.0073
2580.50,0.0075
2580.25,0.0076
2580.00,0.0077
2579.75,0.0078
2579.50,0.0077
2579.25,0.0076
2579.00,0.0076
2578.75,0.0076
2578.50,0.0077
2578.25,0.0078
2578.00,0.0077
2577.75,0.0075
2577.50,0.0073
2577.25,0.0071
2577.00,0.0070
2576.75,0.0071
2576.50,0.0072
2576.25,0.0073
2576.00,0.0074
2575.75,0.0075
2575.50,0.0076
2575.25,0.0077
2575.00,0.0078
2574.75,0.0079
2574.50,0.0079
2574.25,0.0078
2574.00,0.0078
2573.75,0.0078
2573.50,0.0078
2573.25,0.0078
2573.00,0.0077
2572.75,0.0075
2572.50,0.0074
2572.25,0.0073
2572.00,0.0073
2571.75,0.0074
2571.50,0.0074
2571.25,0.0074
2571.00,0.0072
2570.75,0.0071
2570.50,0.0069
2570.25,0.0069
2570.00,0.0069
2569.75,0.0069
2569.50,0.0070
2569.25,0.0071
2569.00,0.0073
2568.75,0.0074
2568.50,0.0075
2568.25,0.0075
2568.00,0.0074
2567.75,0.0072
2567.50,0.0071
2567.25,0.0070
2567.00,0.0070
2566.75,0.0070
2566.50,0.0071
2566.25,0.0073
2566.00,0.0074
2565.75,0.0076
2565.50,0.0076
2565.25,0.0076
2565.00,0.0075
2564.75,0.0075
2564.50,0.0074
2564.25,0.0074
2564.00,0.0074
2563.75,0.0075
2563.50,0.0075
2563.25,0.0075
2563.00,0.0075
2562.75,0.0073
2562.50,0.0072
2562.25,0.0071
2562.00,0.0071
2561.75,0.0071
2561.50,0.0071
2561.25,0.0070
2561.00,0.0071
2560.75,0.0071
2560.50,0.0071
2560.25,0.0071
2560.00,0.0070
2559.75,0.0070
2559.50,0.0071
2559.25,0.0072
2559.00,0.0074
2558.75,0.0075
2558.50,0.0076
2558.25,0.0076
2558.00,0.0076
2557.75,0.0076
2557.50,0.0075
2557.25,0.0074
2557.00,0.0074
2556.75,0.0075
2556.50,0.0075
2556.25,0.0075
2556.00,0.0076
2555.75,0.0076
2555.50,0.0076
2555.25,0.0076
2555.00,0.0075
2554.75,0.0073
2554.50,0.0070
2554.25,0.0067
2554.00,0.0066
2553.75,0.0065
2553.50,0.0064
2553.25,0.0065
2553.00,0.0065
2552.75,0.0066
2552.50,0.0067
2552.25,0.0068
2552.00,0.0068
2551.75,0.0069
2551.50,0.0069
2551.25,0.0070
2551.00,0.0071
2550.75,0.0071
2550.50,0.0071
2550.25,0.0071
2550.00,0.0071
2549.75,0.0071
2549.50,0.0070
2549.25,0.0069
2549.00,0.0067
2548.75,0.0067
2548.50,0.0068
2548.25,0.0070
2548.00,0.0073
2547.75,0.0074
2547.50,0.0073
2547.25,0.0071
2547.00,0.0068
2546.75,0.0064
2546.50,0.0063
2546.25,0.0064
2546.00,0.0066
2545.75,0.0069
2545.50,0.0071
2545.25,0.0071
2545.00,0.0070
2544.75,0.0068
2544.50,0.0066
2544.25,0.0064
2544.00,0.0062
2543.75,0.0060
2543.50,0.0060
2543.25,0.0059
2543.00,0.0060
2542.75,0.0062
2542.50,0.0064
2542.25,0.0067
2542.00,0.0070
2541.75,0.0072
2541.50,0.0074
2541.25,0.0075
2541.00,0.0075
2540.75,0.0073
2540.50,0.0071
2540.25,0.0068
2540.00,0.0066
2539.75,0.0066
2539.50,0.0068
2539.25,0.0069
2539.00,0.0069
2538.75,0.0068
2538.50,0.0066
2538.25,0.0065
2538.00,0.0065
2537.75,0.0065
2537.50,0.0066
2537.25,0.0068
2537.00,0.0071
2536.75,0.0074
2536.50,0.0077
2536.25,0.0078
2536.00,0.0078
2535.75,0.0077
2535.50,0.0075
2535.25,0.0073
2535.00,0.0072
2534.75,0.0073
2534.50,0.0075
2534.25,0.0076
2534.00,0.0077
2533.75,0.0076
2533.50,0.0074
2533.25,0.0073
2533.00,0.0072
2532.75,0.0072
2532.50,0.0073
2532.25,0.0072
2532.00,0.0072
2531.75,0.0071
2531.50,0.0069
2531.25,0.0068
2531.00,0.0066
2530.75,0.0065
2530.50,0.0064
2530.25,0.0064
2530.00,0.0066
2529.75,0.0069
2529.50,0.0071
2529.25,0.0073
2529.00,0.0074
2528.75,0.0075
2528.50,0.0075
2528.25,0.0074
2528.00,0.0071
2527.75,0.0068
2527.50,0.0065
2527.25,0.0063
2527.00,0.0062
2526.75,0.0063
2526.50,0.0066
2526.25,0.0069
2526.00,0.0071
2525.75,0.0072
2525.50,0.0071
2525.25,0.0069
2525.00,0.0067
2524.75,0.0066
2524.50,0.0067
2524.25,0.0067
2524.00,0.0067
2523.75,0.0067
2523.50,0.0067
2523.25,0.0068
2523.00,0.0069
2522.75,0.0069
2522.50,0.0068
2522.25,0.0066
2522.00,0.0064
2521.75,0.0063
2521.50,0.0063
2521.25,0.0063
2521.00,0.0065
2520.75,0.0067
2520.50,0.0068
2520.25,0.0069
2520.00,0.0071
2519.75,0.0071
2519.50,0.0071
2519.25,0.0071
2519.00,0.0070
2518.75,0.0071
2518.50,0.0071
2518.25,0.0072
2518.00,0.0071
2517.75,0.0070
2517.50,0.0070
2517.25,0.0069
2517.00,0.0069
2516.75,0.0068
2516.50,0.0068
2516.25,0.0067
2516.00,0.0067
2515.75,0.0067
2515.50,0.0068
2515.25,0.0069
2515.00,0.0070
2514.75,0.0071
2514.50,0.0071
2514.25,0.0071
2514.00,0.0071
2513.75,0.0071
2513.50,0.0072
2513.25,0.0072
2513.00,0.0073
2512.75,0.0072
2512.50,0.0071
2512.25,0.0071
2512.00,0.0071
2511.75,0.0072
2511.50,0.0074
2511.25,0.0075
2511.00,0.0075
2510.75,0.0074
2510.50,0.0073
2510.25,0.0072
2510.00,0.0071
2509.75,0.0070
2509.50,0.0069
2509.25,0.0068
2509.00,0.0067
2508.75,0.0067
2508.50,0.0068
2508.25,0.0069
2508.00,0.0070
2507.75,0.0071
2507.50,0.0072
2507.25,0.0072
2507.00,0.0072
2506.75,0.0071
2506.50,0.0069
2506.25,0.0068
2506.00,0.0067
2505.75,0.0067
2505.50,0.0068
2505.25,0.0069
2505.00,0.0070
2504.75,0.0069
2504.50,0.0068
2504.25,0.0067
2504.00,0.0066
2503.75,0.0066
2503.50,0.0067
2503.25,0.0068
2503.00,0.0069
2502.75,0.0070
2502.50,0.0070
2502.25,0.0070
2502.00,0.0070
2501.75,0.0071
2501.50,0.0071
2501.25,0.0072
2501.00,0.0072
2500.75,0.0072
2500.50,0.0072
2500.25,0.0072
2500.00,0.0071
2499.75,0.0069
2499.50,0.0069
2499.25,0.0069
2499.00,0.0070
2498.75,0.0070
2498.50,0.0070
2498.25,0.0069
2498.00,0.0069
2497.75,0.0068
2497.50,0.0069
2497.25,0.0069
2497.00,0.0070
2496.75,0.0071
2496.50,0.0071
2496.25,0.0072
2496.00,0.0073
2495.75,0.0073
2495.50,0.0073
2495.25,0.0072
2495.00,0.0071
2494.75,0.0070
2494.50,0.0069
2494.25,0.0068
2494.00,0.0068
2493.75,0.0068
2493.50,0.0068
2493.25,0.0068
2493.00,0.0069
2492.75,0.0069
2492.50,0.0069
2492.25,0.0070
2492.00,0.0070
2491.75,0.0071
2491.50,0.0070
2491.25,0.0070
2491.00,0.0069
2490.75,0.0069
2490.50,0.0070
2490.25,0.0072
2490.00,0.0073
2489.75,0.0073
2489.50,0.0072
2489.25,0.0070
2489.00,0.0067
2488.75,0.0066
2488.50,0.0066
2488.25,0.0068
2488.00,0.0071
2487.75,0.0073
2487.50,0.0074
2487.25,0.0074
2487.00,0.0073
2486.75,0.0072
2486.50,0.0070
2486.25,0.0068
2486.00,0.0066
2485.75,0.0065
2485.50,0.0065
2485.25,0.0067
2485.00,0.0070
2484.75,0.0073
2484.50,0.0075
2484.25,0.0077
2484.00,0.0077
2483.75,0.0076
2483.50,0.0074
2483.25,0.0072
2483.00,0.0071
2482.75,0.0071
2482.50,0.0071
2482.25,0.0072
2482.00,0.0073
2481.75,0.0073
2481.50,0.0073
2481.25,0.0073
2481.00,0.0073
2480.75,0.0073
2480.50,0.0074
2480.25,0.0074
2480.00,0.0074
2479.75,0.0074
2479.50,0.0074
2479.25,0.0074
2479.00,0.0073
2478.75,0.0073
2478.50,0.0072
2478.25,0.0072
2478.00,0.0072
2477.75,0.0073
2477.50,0.0074
2477.25,0.0075
2477.00,0.0076
2476.75,0.0077
2476.50,0.0077
2476.25,0.0077
2476.00,0.0076
2475.75,0.0076
2475.50,0.0076
2475.25,0.0076
2475.00,0.0076
2474.75,0.0075
2474.50,0.0073
2474.25,0.0071
2474.00,0.0068
2473.75,0.0067
2473.50,0.0066
2473.25,0.0066
2473.00,0.0066
2472.75,0.0067
2472.50,0.0067
2472.25,0.0068
2472.00,0.0068
2471.75,0.0069
2471.50,0.0070
2471.25,0.0071
2471.00,0.0073
2470.75,0.0074
2470.50,0.0074
2470.25,0.0075
2470.00,0.0075
2469.75,0.0074
2469.50,0.0073
2469.25,0.0072
2469.00,0.0071
2468.75,0.0069
2468.50,0.0069
2468.25,0.0070
2468.00,0.0071
2467.75,0.0073
2467.50,0.0073
2467.25,0.0073
2467.00,0.0071
2466.75,0.0070
2466.50,0.0068
2466.25,0.0069
2466.00,0.0070
2465.75,0.0073
2465.50,0.0075
2465.25,0.0076
2465.00,0.0076
2464.75,0.0075
2464.50,0.0074
2464.25,0.0073
2464.00,0.0072
2463.75,0.0071
2463.50,0.0070
2463.25,0.0069
2463.00,0.0067
2462.75,0.0067
2462.50,0.0067
2462.25,0.0069
2462.00,0.0071
2461.75,0.0072
2461.50,0.0073
2461.25,0.0073
2461.00,0.0073
2460.75,0.0074
2460.50,0.0074
2460.25,0.0075
2460.00,0.0075
2459.75,0.0075
2459.50,0.0075
2459.25,0.0074
2459.00,0.0073
2458.75,0.0072
2458.50,0.0070
2458.25,0.0069
2458.00,0.0068
2457.75,0.0068
2457.50,0.0070
2457.25,0.0072
2457.00,0.0073
2456.75,0.0073
2456.50,0.0073
2456.25,0.0072
2456.00,0.0071
2455.75,0.0070
2455.50,0.0070
2455.25,0.0070
2455.00,0.0070
2454.75,0.0069
2454.50,0.0068
2454.25,0.0067
2454.00,0.0068
2453.75,0.0069
2453.50,0.0070
2453.25,0.0070
2453.00,0.0071
2452.75,0.0072
2452.50,0.0074
2452.25,0.0076
2452.00,0.0077
2451.75,0.0077
2451.50,0.0076
2451.25,0.0075
2451.00,0.0076
2450.75,0.0077
2450.50,0.0080
2450.25,0.0081
2450.00,0.0080
2449.75,0.0078
2449.50,0.0075
2449.25,0.0072
2449.00,0.0069
2448.75,0.0069
2448.50,0.0071
2448.25,0.0074
2448.00,0.0075
2447.75,0.0074
2447.50,0.0072
2447.25,0.0071
2447.00,0.0071
2446.75,0.0072
2446.50,0.0072
2446.25,0.0070
2446.00,0.0068
2445.75,0.0065
2445.50,0.0064
2445.25,0.0064
2445.00,0.0065
2444.75,0.0067
2444.50,0.0067
2444.25,0.0066
2444.00,0.0064
2443.75,0.0063
2443.50,0.0063
2443.25,0.0066
2443.00,0.0068
2442.75,0.0071
2442.50,0.0072
2442.25,0.0073
2442.00,0.0074
2441.75,0.0075
2441.50,0.0077
2441.25,0.0079
2441.00,0.0080
2440.75,0.0078
2440.50,0.0076
2440.25,0.0072
2440.00,0.0070
2439.75,0.0069
2439.50,0.0070
2439.25,0.0071
2439.00,0.0071
2438.75,0.0071
2438.50,0.0070
2438.25,0.0070
2438.00,0.0071
2437.75,0.0072
2437.50,0.0073
2437.25,0.0073
2437.00,0.0071
2436.75,0.0069
2436.50,0.0066
2436.25,0.0064
2436.00,0.0064
2435.75,0.0065
2435.50,0.0065
2435.25,0.0065
2435.00,0.0064
2434.75,0.0064
2434.50,0.0065
2434.25,0.0068
2434.00,0.0070
2433.75,0.0073
2433.50,0.0074
2433.25,0.0074
2433.00,0.0074
2432.75,0.0072
2432.50,0.0071
2432.25,0.0070
2432.00,0.0070
2431.75,0.0070
2431.50,0.0070
2431.25,0.0070
2431.00,0.0071
2430.75,0.0072
2430.50,0.0072
2430.25,0.0072
2430.00,0.0072
2429.75,0.0073
2429.50,0.0073
2429.25,0.0074
2429.00,0.0074
2428.75,0.0075
2428.50,0.0076
2428.25,0.0076
2428.00,0.0075
2427.75,0.0074
2427.50,0.0072
2427.25,0.0071
2427.00,0.0071
2426.75,0.0071
2426.50,0.0070
2426.25,0.0070
2426.00,0.0069
2425.75,0.0069
2425.50,0.0070
2425.25,0.0072
2425.00,0.0074
2424.75,0.0075
2424.50,0.0075
2424.25,0.0073
2424.00,0.0070
2423.75,0.0066
2423.50,0.0064
2423.25,0.0065
2423.00,0.0066
2422.75,0.0069
2422.50,0.0071
2422.25,0.0071
2422.00,0.0071
2421.75,0.0070
2421.50,0.0069
2421.25,0.0068
2421.00,0.0068
2420.75,0.0068
2420.50,0.0069
2420.25,0.0069
2420.00,0.0070
2419.75,0.0071
2419.50,0.0071
2419.25,0.0070
2419.00,0.0069
2418.75,0.0069
2418.50,0.0069
2418.25,0.0070
2418.00,0.0071
2417.75,0.0072
2417.50,0.0073
2417.25,0.0075
2417.00,0.0075
2416.75,0.0075
2416.50,0.0074
2416.25,0.0071
2416.00,0.0069
2415.75,0.0067
2415.50,0.0068
2415.25,0.0070
2415.00,0.0073
2414.75,0.0076
2414.50,0.0077
2414.25,0.0077
2414.00,0.0076
2413.75,0.0075
2413.50,0.0074
2413.25,0.0073
2413.00,0.0072
2412.75,0.0071
2412.50,0.0072
2412.25,0.0074
2412.00,0.0076
2411.75,0.0077
2411.50,0.0077
2411.25,0.0074
2411.00,0.0071
2410.75,0.0068
2410.50,0.0067
2410.25,0.0066
2410.00,0.0066
2409.75,0.0066
2409.50,0.0067
2409.25,0.0069
2409.00,0.0070
2408.75,0.0071
2408.50,0.0072
2408.25,0.0071
2408.00,0.0070
2407.75,0.0070
2407.50,0.0069
2407.25,0.0070
2407.00,0.0071
2406.75,0.0072
2406.50,0.0072
2406.25,0.0072
2406.00,0.0071
2405.75,0.0070
2405.50,0.0069
2405.25,0.0069
2405.00,0.0069
2404.75,0.0070
2404.50,0.0071
2404.25,0.0071
2404.00,0.0070
2403.75,0.0068
2403.50,0.0067
2403.25,0.0067
2403.00,0.0068
2402.75,0.0069
2402.50,0.0070
2402.25,0.0071
2402.00,0.0071
2401.75,0.0072
2401.50,0.0072
2401.25,0.0072
2401.00,0.0073
2400.75,0.0073
2400.50,0.0072
2400.25,0.0070
2400.00,0.0069
2399.75,0.0068
2399.50,0.0068
2399.25,0.0069
2399.00,0.0069
2398.75,0.0069
2398.50,0.0069
2398.25,0.0069
2398.00,0.0068
2397.75,0.0067
2397.50,0.0066
2397.25,0.0065
2397.00,0.0065
2396.75,0.0066
2396.50,0.0068
2396.25,0.0070
2396.00,0.0072
2395.75,0.0072
2395.50,0.0070
2395.25,0.0067
2395.00,0.0066
2394.75,0.0066
2394.50,0.0067
2394.25,0.0068
2394.00,0.0069
2393.75,0.0069
2393.50,0.0069
2393.25,0.0069
2393.00,0.0069
2392.75,0.0068
2392.50,0.0067
2392.25,0.0067
2392.00,0.0067
2391.75,0.0068
2391.50,0.0068
2391.25,0.0067
2391.00,0.0066
2390.75,0.0066
2390.50,0.0067
2390.25,0.0069
2390.00,0.0071
2389.75,0.0072
2389.50,0.0072
2389.25,0.0071
2389.00,0.0069
2388.75,0.0068
2388.50,0.0067
2388.25,0.0066
2388.00,0.0066
2387.75,0.0066
2387.50,0.0066
2387.25,0.0067
2387.00,0.0069
2386.75,0.0069
2386.50,0.0070
2386.25,0.0069
2386.00,0.0070
2385.75,0.0070
2385.50,0.0070
2385.25,0.0069
2385.00,0.0067
2384.75,0.0066
2384.50,0.0065
2384.25,0.0066
2384.00,0.0067
2383.75,0.0067
2383.50,0.0068
2383.25,0.0067
2383.00,0.0066
2382.75,0.0064
2382.50,0.0062
2382.25,0.0061
2382.00,0.0060
2381.75,0.0060
2381.50,0.0061
2381.25,0.0060
2381.00,0.0060
2380.75,0.0059
2380.50,0.0060
2380.25,0.0061
2380.00,0.0061
2379.75,0.0061
2379.50,0.0061
2379.25,0.0060
2379.00,0.0060
2378.75,0.0060
2378.50,0.0060
2378.25,0.0058
2378.00,0.0058
2377.75,0.0058
2377.50,0.0060
2377.25,0.0062
2377.00,0.0065
2376.75,0.0066
2376.50,0.0066
2376.25,0.0064
2376.00,0.0062
2375.75,0.0060
2375.50,0.0060
2375.25,0.0060
2375.00,0.0060
2374.75,0.0059
2374.50,0.0057
2374.25,0.0056
2374.00,0.0057
2373.75,0.0059
2373.50,0.0061
2373.25,0.0062
2373.00,0.0060
2372.75,0.0056
2372.50,0.0054
2372.25,0.0054
2372.00,0.0057
2371.75,0.0059
2371.50,0.0058
2371.25,0.0056
2371.00,0.0054
2370.75,0.0052
2370.50,0.0053
2370.25,0.0053
2370.00,0.0055
2369.75,0.0057
2369.50,0.0059
2369.25,0.0058
2369.00,0.0055
2368.75,0.0051
2368.50,0.0050
2368.25,0.0050
2368.00,0.0052
2367.75,0.0053
2367.50,0.0053
2367.25,0.0053
2367.00,0.0051
2366.75,0.0046
2366.50,0.0043
2366.25,0.0044
2366.00,0.0051
2365.75,0.0059
2365.50,0.0065
2365.25,0.0069
2365.00,0.0071
2364.75,0.0074
2364.50,0.0075
2364.25,0.0072
2364.00,0.0065
2363.75,0.0057
2363.50,0.0053
2363.25,0.0052
2363.00,0.0050
2362.75,0.0049
2362.50,0.0050
2362.25,0.0055
2362.00,0.0061
2361.75,0.0066
2361.50,0.0069
2361.25,0.0072
2361.00,0.0075
2360.75,0.0077
2360.50,0.0076
2360.25,0.0068
2360.00,0.0056
2359.75,0.0046
2359.50,0.0045
2359.25,0.0049
2359.00,0.0055
2358.75,0.0059
2358.50,0.0063
2358.25,0.0066
2358.00,0.0068
2357.75,0.0069
2357.50,0.0066
2357.25,0.0061
2357.00,0.0056
2356.75,0.0055
2356.50,0.0057
2356.25,0.0058
2356.00,0.0059
2355.75,0.0061
2355.50,0.0064
2355.25,0.0066
2355.00,0.0068
2354.75,0.0068
2354.50,0.0066
2354.25,0.0062
2354.00,0.0060
2353.75,0.0061
2353.50,0.0064
2353.25,0.0065
2353.00,0.0065
2352.75,0.0062
2352.50,0.0061
2352.25,0.0062
2352.00,0.0065
2351.75,0.0068
2351.50,0.0068
2351.25,0.0066
2351.00,0.0062
2350.75,0.0061
2350.50,0.0062
2350.25,0.0064
2350.00,0.0064
2349.75,0.0063
2349.50,0.0061
2349.25,0.0060
2349.00,0.0061
2348.75,0.0062
2348.50,0.0064
2348.25,0.0065
2348.00,0.0066
2347.75,0.0065
2347.50,0.0061
2347.25,0.0057
2347.00,0.0054
2346.75,0.0054
2346.50,0.0056
2346.25,0.0059
2346.00,0.0062
2345.75,0.0063
2345.50,0.0063
2345.25,0.0065
2345.00,0.0066
2344.75,0.0066
2344.50,0.0062
2344.25,0.0053
2344.00,0.0047
2343.75,0.0048
2343.50,0.0052
2343.25,0.0059
2343.00,0.0066
2342.75,0.0069
2342.50,0.0067
2342.25,0.0065
2342.00,0.0065
2341.75,0.0067
2341.50,0.0071
2341.25,0.0073
2341.00,0.0072
2340.75,0.0069
2340.50,0.0066
2340.25,0.0066
2340.00,0.0067
2339.75,0.0068
2339.50,0.0065
2339.25,0.0060
2339.00,0.0057
2338.75,0.0058
2338.50,0.0061
2338.25,0.0064
2338.00,0.0066
2337.75,0.0065
2337.50,0.0064
2337.25,0.0063
2337.00,0.0063
2336.75,0.0063
2336.50,0.0063
2336.25,0.0062
2336.00,0.0061
2335.75,0.0060
2335.50,0.0062
2335.25,0.0066
2335.00,0.0069
2334.75,0.0072
2334.50,0.0073
2334.25,0.0068
2334.00,0.0058
2333.75,0.0049
2333.50,0.0048
2333.25,0.0052
2333.00,0.0057
2332.75,0.0063
2332.50,0.0065
2332.25,0.0064
2332.00,0.0060
2331.75,0.0058
2331.50,0.0058
2331.25,0.0059
2331.00,0.0060
2330.75,0.0059
2330.50,0.0056
2330.25,0.0055
2330.00,0.0057
2329.75,0.0061
2329.50,0.0064
2329.25,0.0067
2329.00,0.0069
2328.75,0.0069
2328.50,0.0067
2328.25,0.0065
2328.00,0.0066
2327.75,0.0067
2327.50,0.0069
2327.25,0.0070
2327.00,0.0068
2326.75,0.0062
2326.50,0.0056
2326.25,0.0055
2326.00,0.0058
2325.75,0.0062
2325.50,0.0068
2325.25,0.0071
2325.00,0.0070
2324.75,0.0062
2324.50,0.0054
2324.25,0.0051
2324.00,0.0052
2323.75,0.0055
2323.50,0.0059
2323.25,0.0061
2323.00,0.0057
2322.75,0.0053
2322.50,0.0053
2322.25,0.0057
2322.00,0.0062
2321.75,0.0066
2321.50,0.0067
2321.25,0.0063
2321.00,0.0055
2320.75,0.0050
2320.50,0.0053
2320.25,0.0058
2320.00,0.0063
2319.75,0.0066
2319.50,0.0067
2319.25,0.0064
2319.00,0.0059
2318.75,0.0056
2318.50,0.0053
2318.25,0.0052
2318.00,0.0051
2317.75,0.0052
2317.50,0.0053
2317.25,0.0055
2317.00,0.0057
2316.75,0.0058
2316.50,0.0058
2316.25,0.0058
2316.00,0.0058
2315.75,0.0058
2315.50,0.0057
2315.25,0.0056
2315.00,0.0054
2314.75,0.0053
2314.50,0.0052
2314.25,0.0052
2314.00,0.0053
2313.75,0.0053
2313.50,0.0051
2313.25,0.0047
2313.00,0.0044
2312.75,0.0045
2312.50,0.0049
2312.25,0.0054
2312.00,0.0059
2311.75,0.0061
2311.50,0.0061
2311.25,0.0057
2311.00,0.0054
2310.75,0.0052
2310.50,0.0053
2310.25,0.0054
2310.00,0.0054
2309.75,0.0054
2309.50,0.0055
2309.25,0.0056
2309.00,0.0056
2308.75,0.0056
2308.50,0.0057
2308.25,0.0058
2308.00,0.0060
2307.75,0.0062
2307.50,0.0062
2307.25,0.0059
2307.00,0.0055
2306.75,0.0051
2306.50,0.0050
2306.25,0.0050
2306.00,0.0052
2305.75,0.0053
2305.50,0.0055
2305.25,0.0057
2305.00,0.0058
2304.75,0.0058
2304.50,0.0058
2304.25,0.0059
2304.00,0.0061
2303.75,0.0063
2303.50,0.0064
2303.25,0.0064
2303.00,0.0062
2302.75,0.0059
2302.50,0.0057
2302.25,0.0055
2302.00,0.0055
2301.75,0.0056
2301.50,0.0058
2301.25,0.0061
2301.00,0.0063
2300.75,0.0065
2300.50,0.0065
2300.25,0.0064
2300.00,0.0062
2299.75,0.0060
2299.50,0.0059
2299.25,0.0059
2299.00,0.0060
2298.75,0.0060
2298.50,0.0060
2298.25,0.0060
2298.00,0.0060
2297.75,0.0061
2297.50,0.0062
2297.25,0.0062
2297.00,0.0060
2296.75,0.0058
2296.50,0.0057
2296.25,0.0058
2296.00,0.0058
2295.75,0.0058
2295.50,0.0057
2295.25,0.0056
2295.00,0.0056
2294.75,0.0058
2294.50,0.0061
2294.25,0.0064
2294.00,0.0066
2293.75,0.0067
2293.50,0.0066
2293.25,0.0066
2293.00,0.0064
2292.75,0.0062
2292.50,0.0061
2292.25,0.0061
2292.00,0.0063
2291.75,0.0066
2291.50,0.0069
2291.25,0.0070
2291.00,0.0070
2290.75,0.0069
2290.50,0.0069
2290.25,0.0069
2290.00,0.0070
2289.75,0.0070
2289.50,0.0070
2289.25,0.0067
2289.00,0.0063
2288.75,0.0060
2288.50,0.0057
2288.25,0.0057
2288.00,0.0057
2287.75,0.0057
2287.50,0.0058
2287.25,0.0059
2287.00,0.0060
2286.75,0.0061
2286.50,0.0060
2286.25,0.0059
2286.00,0.0058
2285.75,0.0059
2285.50,0.0060
2285.25,0.0061
2285.00,0.0061
2284.75,0.0060
2284.50,0.0058
2284.25,0.0058
2284.00,0.0059
2283.75,0.0061
2283.50,0.0062
2283.25,0.0063
2283.00,0.0063
2282.75,0.0063
2282.50,0.0065
2282.25,0.0067
2282.00,0.0068
2281.75,0.0067
2281.50,0.0064
2281.25,0.0062
2281.00,0.0060
2280.75,0.0060
2280.50,0.0061
2280.25,0.0060
2280.00,0.0059
2279.75,0.0059
2279.50,0.0060
2279.25,0.0061
2279.00,0.0063
2278.75,0.0065
2278.50,0.0065
2278.25,0.0064
2278.00,0.0062
2277.75,0.0058
2277.50,0.0055
2277.25,0.0053
2277.00,0.0054
2276.75,0.0057
2276.50,0.0061
2276.25,0.0063
2276.00,0.0063
2275.75,0.0060
2275.50,0.0057
2275.25,0.0056
2275.00,0.0057
2274.75,0.0061
2274.50,0.0066
2274.25,0.0071
2274.00,0.0073
2273.75,0.0073
2273.50,0.0070
2273.25,0.0067
2273.00,0.0064
2272.75,0.0060
2272.50,0.0058
2272.25,0.0057
2272.00,0.0059
2271.75,0.0062
2271.50,0.0065
2271.25,0.0065
2271.00,0.0065
2270.75,0.0063
2270.50,0.0060
2270.25,0.0057
2270.00,0.0053
2269.75,0.0051
2269.50,0.0049
2269.25,0.0049
2269.00,0.0050
2268.75,0.0050
2268.50,0.0050
2268.25,0.0050
2268.00,0.0050
2267.75,0.0049
2267.50,0.0049
2267.25,0.0048
2267.00,0.0047
2266.75,0.0048
2266.50,0.0050
2266.25,0.0054
2266.00,0.0058
2265.75,0.0060
2265.50,0.0060
2265.25,0.0059
2265.00,0.0057
2264.75,0.0055
2264.50,0.0052
2264.25,0.0050
2264.00,0.0049
2263.75,0.0049
2263.50,0.0050
2263.25,0.0051
2263.00,0.0051
2262.75,0.0052
2262.50,0.0054
2262.25,0.0056
2262.00,0.0060
2261.75,0.0062
2261.50,0.0063
2261.25,0.0063
2261.00,0.0061
2260.75,0.0060
2260.50,0.0059
2260.25,0.0058
2260.00,0.0057
2259.75,0.0055
2259.50,0.0055
2259.25,0.0055
2259.00,0.0057
2258.75,0.0059
2258.50,0.0060
2258.25,0.0060
2258.00,0.0059
2257.75,0.0056
2257.50,0.0053
2257.25,0.0051
2257.00,0.0051
2256.75,0.0051
2256.50,0.0052
2256.25,0.0053
2256.00,0.0053
2255.75,0.0054
2255.50,0.0054
2255.25,0.0054
2255.00,0.0055
2254.75,0.0057
2254.50,0.0059
2254.25,0.0061
2254.00,0.0060
2253.75,0.0057
2253.50,0.0052
2253.25,0.0048
2253.00,0.0046
2252.75,0.0048
2252.50,0.0052
2252.25,0.0056
2252.00,0.0058
2251.75,0.0057
2251.50,0.0055
2251.25,0.0053
2251.00,0.0051
2250.75,0.0051
2250.50,0.0052
2250.25,0.0055
2250.00,0.0058
2249.75,0.0061
2249.50,0.0061
2249.25,0.0059
2249.00,0.0056
2248.75,0.0052
2248.50,0.0050
2248.25,0.0050
2248.00,0.0051
2247.75,0.0052
2247.50,0.0052
2247.25,0.0052
2247.00,0.0052
2246.75,0.0051
2246.50,0.0049
2246.25,0.0047
2246.00,0.0046
2245.75,0.0046
2245.50,0.0049
2245.25,0.0052
2245.00,0.0056
2244.75,0.0058
2244.50,0.0060
2244.25,0.0060
2244.00,0.0058
2243.75,0.0057
2243.50,0.0056
2243.25,0.0055
2243.00,0.0054
2242.75,0.0054
2242.50,0.0053
2242.25,0.0054
2242.00,0.0055
2241.75,0.0057
2241.50,0.0059
2241.25,0.0060
2241.00,0.0060
2240.75,0.0060
2240.50,0.0061
2240.25,0.0061
2240.00,0.0059
2239.75,0.0055
2239.50,0.0051
2239.25,0.0048
2239.00,0.0048
2238.75,0.0050
2238.50,0.0053
2238.25,0.0055
2238.00,0.0055
2237.75,0.0055
2237.50,0.0055
2237.25,0.0058
2237.00,0.0061
2236.75,0.0063
2236.50,0.0062
2236.25,0.0057
2236.00,0.0051
2235.75,0.0046
2235.50,0.0044
2235.25,0.0043
2235.00,0.0043
2234.75,0.0042
2234.50,0.0041
2234.25,0.0039
2234.00,0.0040
2233.75,0.0045
2233.50,0.0050
2233.25,0.0056
2233.00,0.0058
2232.75,0.0058
2232.50,0.0056
2232.25,0.0053
2232.00,0.0051
2231.75,0.0051
2231.50,0.0052
2231.25,0.0051
2231.00,0.0050
2230.75,0.0047
2230.50,0.0046
2230.25,0.0046
2230.00,0.0048
2229.75,0.0049
2229.50,0.0050
2229.25,0.0050
2229.00,0.0048
2228.75,0.0047
2228.50,0.0047
2228.25,0.0048
2228.00,0.0050
2227.75,0.0052
2227.50,0.0054
2227.25,0.0054
2227.00,0.0052
2226.75,0.0050
2226.50,0.0047
2226.25,0.0043
2226.00,0.0040
2225.75,0.0038
2225.50,0.0038
2225.25,0.0041
2225.00,0.0046
2224.75,0.0051
2224.50,0.0055
2224.25,0.0057
2224.00,0.0058
2223.75,0.0058
2223.50,0.0058
2223.25,0.0056
2223.00,0.0054
2222.75,0.0051
2222.50,0.0048
2222.25,0.0046
2222.00,0.0046
2221.75,0.0047
2221.50,0.0048
2221.25,0.0047
2221.00,0.0047
2220.75,0.0046
2220.50,0.0045
2220.25,0.0045
2220.00,0.0045
2219.75,0.0045
2219.50,0.0047
2219.25,0.0049
2219.00,0.0051
2218.75,0.0050
2218.50,0.0045
2218.25,0.0039
2218.00,0.0036
2217.75,0.0036
2217.50,0.0039
2217.25,0.0042
2217.00,0.0045
2216.75,0.0048
2216.50,0.0051
2216.25,0.0053
2216.00,0.0053
2215.75,0.0051
2215.50,0.0048
2215.25,0.0046
2215.00,0.0047
2214.75,0.0050
2214.50,0.0054
2214.25,0.0057
2214.00,0.0057
2213.75,0.0054
2213.50,0.0050
2213.25,0.0046
2213.00,0.0042
2212.75,0.0038
2212.50,0.0036
2212.25,0.0035
2212.00,0.0038
2211.75,0.0041
2211.50,0.0045
2211.25,0.0047
2211.00,0.0049
2210.75,0.0049
2210.50,0.0049
2210.25,0.0049
2210.00,0.0050
2209.75,0.0052
2209.50,0.0052
2209.25,0.0050
2209.00,0.0048
2208.75,0.0047
2208.50,0.0047
2208.25,0.0049
2208.00,0.0049
2207.75,0.0049
2207.50,0.0047
2207.25,0.0044
2207.00,0.0042
2206.75,0.0042
2206.50,0.0044
2206.25,0.0045
2206.00,0.0044
2205.75,0.0041
2205.50,0.0036
2205.25,0.0034
2205.00,0.0036
2204.75,0.0042
2204.50,0.0049
2204.25,0.0054
2204.00,0.0055
2203.75,0.0052
2203.50,0.0049
2203.25,0.0048
2203.00,0.0049
2202.75,0.0050
2202.50,0.0051
2202.25,0.0050
2202.00,0.0048
2201.75,0.0046
2201.50,0.0046
2201.25,0.0048
2201.00,0.0050
2200.75,0.0051
2200.50,0.0051
2200.25,0.0049
2200.00,0.0048
2199.75,0.0047
2199.50,0.0046
2199.25,0.0045
2199.00,0.0044
2198.75,0.0045
2198.50,0.0045
2198.25,0.0045
2198.00,0.0043
2197.75,0.0042
2197.50,0.0041
2197.25,0.0042
2197.00,0.0042
2196.75,0.0042
2196.50,0.0042
2196.25,0.0041
2196.00,0.0038
2195.75,0.0036
2195.50,0.0036
2195.25,0.0039
2195.00,0.0044
2194.75,0.0049
2194.50,0.0051
2194.25,0.0049
2194.00,0.0044
2193.75,0.0040
2193.50,0.0038
2193.25,0.0037
2193.00,0.0036
2192.75,0.0034
2192.50,0.0031
2192.25,0.0030
2192.00,0.0033
2191.75,0.0041
2191.50,0.0050
2191.25,0.0057
2191.00,0.0061
2190.75,0.0062
2190.50,0.0059
2190.25,0.0056
2190.00,0.0053
2189.75,0.0052
2189.50,0.0053
2189.25,0.0054
2189.00,0.0057
2188.75,0.0059
2188.50,0.0061
2188.25,0.0062
2188.00,0.0060
2187.75,0.0056
2187.50,0.0052
2187.25,0.0050
2187.00,0.0050
2186.75,0.0052
2186.50,0.0051
2186.25,0.0048
2186.00,0.0041
2185.75,0.0033
2185.50,0.0028
2185.25,0.0026
2185.00,0.0027
2184.75,0.0030
2184.50,0.0033
2184.25,0.0037
2184.00,0.0041
2183.75,0.0045
2183.50,0.0046
2183.25,0.0045
2183.00,0.0042
2182.75,0.0039
2182.50,0.0038
2182.25,0.0038
2182.00,0.0037
2181.75,0.0035
2181.50,0.0031
2181.25,0.0030
2181.00,0.0033
2180.75,0.0038
2180.50,0.0042
2180.25,0.0045
2180.00,0.0044
2179.75,0.0042
2179.50,0.0041
2179.25,0.0041
2179.00,0.0040
2178.75,0.0039
2178.50,0.0036
2178.25,0.0033
2178.00,0.0033
2177.75,0.0036
2177.50,0.0042
2177.25,0.0050
2177.00,0.0057
2176.75,0.0063
2176.50,0.0065
2176.25,0.0062
2176.00,0.0056
2175.75,0.0048
2175.50,0.0040
2175.25,0.0036
2175.00,0.0036
2174.75,0.0040
2174.50,0.0046
2174.25,0.0051
2174.00,0.0054
2173.75,0.0052
2173.50,0.0048
2173.25,0.0043
2173.00,0.0038
2172.75,0.0035
2172.50,0.0034
2172.25,0.0035
2172.00,0.0038
2171.75,0.0040
2171.50,0.0041
2171.25,0.0040
2171.00,0.0038
2170.75,0.0037
2170.50,0.0036
2170.25,0.0037
2170.00,0.0038
2169.75,0.0041
2169.50,0.0045
2169.25,0.0050
2169.00,0.0055
2168.75,0.0059
2168.50,0.0060
2168.25,0.0058
2168.00,0.0053
2167.75,0.0048
2167.50,0.0043
2167.25,0.0039
2167.00,0.0036
2166.75,0.0034
2166.50,0.0031
2166.25,0.0029
2166.00,0.0029
2165.75,0.0031
2165.50,0.0034
2165.25,0.0037
2165.00,0.0041
2164.75,0.0047
2164.50,0.0055
2164.25,0.0063
2164.00,0.0066
2163.75,0.0064
2163.50,0.0057
2163.25,0.0048
2163.00,0.0039
2162.75,0.0034
2162.50,0.0035
2162.25,0.0039
2162.00,0.0045
2161.75,0.0048
2161.50,0.0048
2161.25,0.0043
2161.00,0.0036
2160.75,0.0030
2160.50,0.0026
2160.25,0.0025
2160.00,0.0027
2159.75,0.0030
2159.50,0.0033
2159.25,0.0038
2159.00,0.0041
2158.75,0.0043
2158.50,0.0044
2158.25,0.0043
2158.00,0.0040
2157.75,0.0037
2157.50,0.0034
2157.25,0.0032
2157.00,0.0032
2156.75,0.0033
2156.50,0.0036
2156.25,0.0038
2156.00,0.0038
2155.75,0.0037
2155.50,0.0036
2155.25,0.0035
2155.00,0.0035
2154.75,0.0037
2154.50,0.0039
2154.25,0.0042
2154.00,0.0044
2153.75,0.0045
2153.50,0.0045
2153.25,0.0044
2153.00,0.0042
2152.75,0.0040
2152.50,0.0038
2152.25,0.0038
2152.00,0.0039
2151.75,0.0043
2151.50,0.0046
2151.25,0.0048
2151.00,0.0050
2150.75,0.0051
2150.50,0.0052
2150.25,0.0049
2150.00,0.0045
2149.75,0.0040
2149.50,0.0038
2149.25,0.0042
2149.00,0.0049
2148.75,0.0057
2148.50,0.0061
2148.25,0.0061
2148.00,0.0058
2147.75,0.0055
2147.50,0.0051
2147.25,0.0050
2147.00,0.0049
2146.75,0.0049
2146.50,0.0048
2146.25,0.0046
2146.00,0.0045
2145.75,0.0045
2145.50,0.0048
2145.25,0.0053
2145.00,0.0056
2144.75,0.0057
2144.50,0.0055
2144.25,0.0051
2144.00,0.0047
2143.75,0.0044
2143.50,0.0042
2143.25,0.0041
2143.00,0.0041
2142.75,0.0042
2142.50,0.0043
2142.25,0.0044
2142.00,0.0044
2141.75,0.0042
2141.50,0.0038
2141.25,0.0033
2141.00,0.0030
2140.75,0.0031
2140.50,0.0036
2140.25,0.0044
2140.00,0.0051
2139.75,0.0056
2139.50,0.0057
2139.25,0.0058
2139.00,0.0059
2138.75,0.0059
2138.50,0.0059
2138.25,0.0059
2138.00,0.0060
2137.75,0.0062
2137.50,0.0063
2137.25,0.0063
2137.00,0.0062
2136.75,0.0060
2136.50,0.0059
2136.25,0.0057
2136.00,0.0053
2135.75,0.0048
2135.50,0.0043
2135.25,0.0041
2135.00,0.0043
2134.75,0.0047
2134.50,0.0051
2134.25,0.0054
2134.00,0.0054
2133.75,0.0054
2133.50,0.0054
2133.25,0.0056
2133.00,0.0060
2132.75,0.0063
2132.50,0.0063
2132.25,0.0061
2132.00,0.0058
2131.75,0.0055
2131.50,0.0054
2131.25,0.0054
2131.00,0.0054
2130.75,0.0052
2130.50,0.0047
2130.25,0.0043
2130.00,0.0040
2129.75,0.0041
2129.50,0.0045
2129.25,0.0053
2129.00,0.0061
2128.75,0.0067
2128.50,0.0070
2128.25,0.0068
2128.00,0.0063
2127.75,0.0056
2127.50,0.0052
2127.25,0.0051
2127.00,0.0052
2126.75,0.0054
2126.50,0.0055
2126.25,0.0055
2126.00,0.0055
2125.75,0.0056
2125.50,0.0057
2125.25,0.0058
2125.00,0.0058
2124.75,0.0057
2124.50,0.0056
2124.25,0.0056
2124.00,0.0057
2123.75,0.0056
2123.50,0.0055
2123.25,0.0053
2123.00,0.0052
2122.75,0.0053
2122.50,0.0054
2122.25,0.0055
2122.00,0.0056
2121.75,0.0056
2121.50,0.0056
2121.25,0.0057
2121.00,0.0059
2120.75,0.0060
2120.50,0.0059
2120.25,0.0055
2120.00,0.0051
2119.75,0.0049
2119.50,0.0050
2119.25,0.0054
2119.00,0.0057
2118.75,0.0057
2118.50,0.0056
2118.25,0.0055
2118.00,0.0053
2117.75,0.0052
2117.50,0.0050
2117.25,0.0047
2117.00,0.0045
2116.75,0.0045
2116.50,0.0047
2116.25,0.0050
2116.00,0.0054
2115.75,0.0057
2115.50,0.0058
2115.25,0.0057
2115.00,0.0056
2114.75,0.0056
2114.50,0.0056
2114.25,0.0055
2114.00,0.0052
2113.75,0.0049
2113.50,0.0047
2113.25,0.0047
2113.00,0.0047
2112.75,0.0048
2112.50,0.0049
2112.25,0.0047
2112.00,0.0046
2111.75,0.0045
2111.50,0.0046
2111.25,0.0048
2111.00,0.0050
2110.75,0.0050
2110.50,0.0051
2110.25,0.0051
2110.00,0.0052
2109.75,0.0053
2109.50,0.0054
2109.25,0.0055
2109.00,0.0055
2108.75,0.0055
2108.50,0.0056
2108.25,0.0057
2108.00,0.0058
2107.75,0.0059
2107.50,0.0059
2107.25,0.0057
2107.00,0.0054
2106.75,0.0052
2106.50,0.0051
2106.25,0.0050
2106.00,0.0049
2105.75,0.0049
2105.50,0.0051
2105.25,0.0056
2105.00,0.0060
2104.75,0.0062
2104.50,0.0060
2104.25,0.0056
2104.00,0.0052
2103.75,0.0050
2103.50,0.0051
2103.25,0.0053
2103.00,0.0056
2102.75,0.0059
2102.50,0.0061
2102.25,0.0062
2102.00,0.0062
2101.75,0.0061
2101.50,0.0060
2101.25,0.0061
2101.00,0.0061
2100.75,0.0060
2100.50,0.0057
2100.25,0.0055
2100.00,0.0054
2099.75,0.0055
2099.50,0.0057
2099.25,0.0059
2099.00,0.0060
2098.75,0.0060
2098.50,0.0061
2098.25,0.0060
2098.00,0.0058
2097.75,0.0055
2097.50,0.0050
2097.25,0.0047
2097.00,0.0045
2096.75,0.0044
2096.50,0.0045
2096.25,0.0045
2096.00,0.0045
2095.75,0.0045
2095.50,0.0045
2095.25,0.0047
2095.00,0.0050
2094.75,0.0051
2094.50,0.0052
2094.25,0.0053
2094.00,0.0056
2093.75,0.0058
2093.50,0.0060
2093.25,0.0060
2093.00,0.0058
2092.75,0.0056
2092.50,0.0054
2092.25,0.0053
2092.00,0.0053
2091.75,0.0054
2091.50,0.0054
2091.25,0.0053
2091.00,0.0051
2090.75,0.0050
2090.50,0.0050
2090.25,0.0051
2090.00,0.0053
2089.75,0.0054
2089.50,0.0055
2089.25,0.0054
2089.00,0.0052
2088.75,0.0051
2088.50,0.0050
2088.25,0.0049
2088.00,0.0048
2087.75,0.0047
2087.50,0.0046
2087.25,0.0048
2087.00,0.0051
2086.75,0.0054
2086.50,0.0055
2086.25,0.0052
2086.00,0.0048
2085.75,0.0045
2085.50,0.0045
2085.25,0.0046
2085.00,0.0048
2084.75,0.0050
2084.50,0.0049
2084.25,0.0045
2084.00,0.0041
2083.75,0.0037
2083.50,0.0036
2083.25,0.0038
2083.00,0.0042
2082.75,0.0047
2082.50,0.0050
2082.25,0.0050
2082.00,0.0049
2081.75,0.0049
2081.50,0.0050
2081.25,0.0051
2081.00,0.0051
2080.75,0.0050
2080.50,0.0051
2080.25,0.0052
2080.00,0.0054
2079.75,0.0055
2079.50,0.0056
2079.25,0.0057
2079.00,0.0058
2078.75,0.0060
2078.50,0.0061
2078.25,0.0061
2078.00,0.0059
2077.75,0.0056
2077.50,0.0051
2077.25,0.0047
2077.00,0.0044
2076.75,0.0044
2076.50,0.0044
2076.25,0.0045
2076.00,0.0046
2075.75,0.0046
2075.50,0.0046
2075.25,0.0045
2075.00,0.0043
2074.75,0.0041
2074.50,0.0039
2074.25,0.0039
2074.00,0.0042
2073.75,0.0046
2073.50,0.0049
2073.25,0.0050
2073.00,0.0050
2072.75,0.0049
2072.50,0.0048
2072.25,0.0047
2072.00,0.0046
2071.75,0.0045
2071.50,0.0044
2071.25,0.0045
2071.00,0.0046
2070.75,0.0047
2070.50,0.0048
2070.25,0.0049
2070.00,0.0051
2069.75,0.0052
2069.50,0.0051
2069.25,0.0050
2069.00,0.0049
2068.75,0.0047
2068.50,0.0045
2068.25,0.0043
2068.00,0.0043
2067.75,0.0045
2067.50,0.0047
2067.25,0.0049
2067.00,0.0047
2066.75,0.0046
2066.50,0.0046
2066.25,0.0048
2066.00,0.0053
2065.75,0.0056
2065.50,0.0057
2065.25,0.0055
2065.00,0.0051
2064.75,0.0046
2064.50,0.0042
2064.25,0.0039
2064.00,0.0040
2063.75,0.0043
2063.50,0.0046
2063.25,0.0047
2063.00,0.0046
2062.75,0.0042
2062.50,0.0039
2062.25,0.0039
2062.00,0.0041
2061.75,0.0044
2061.50,0.0047
2061.25,0.0048
2061.00,0.0049
2060.75,0.0049
2060.50,0.0050
2060.25,0.0050
2060.00,0.0048
2059.75,0.0044
2059.50,0.0039
2059.25,0.0035
2059.00,0.0035
2058.75,0.0038
2058.50,0.0044
2058.25,0.0049
2058.00,0.0053
2057.75,0.0055
2057.50,0.0054
2057.25,0.0051
2057.00,0.0047
2056.75,0.0042
2056.50,0.0039
2056.25,0.0038
2056.00,0.0039
2055.75,0.0041
2055.50,0.0042
2055.25,0.0040
2055.00,0.0038
2054.75,0.0037
2054.50,0.0036
2054.25,0.0037
2054.00,0.0037
2053.75,0.0036
2053.50,0.0036
2053.25,0.0038
2053.00,0.0042
2052.75,0.0046
2052.50,0.0047
2052.25,0.0046
2052.00,0.0045
2051.75,0.0045
2051.50,0.0046
2051.25,0.0046
2051.00,0.0046
2050.75,0.0044
2050.50,0.0044
2050.25,0.0044
2050.00,0.0044
2049.75,0.0044
2049.50,0.0044
2049.25,0.0044
2049.00,0.0045
2048.75,0.0045
2048.50,0.0045
2048.25,0.0044
2048.00,0.0043
2047.75,0.0043
2047.50,0.0041
2047.25,0.0039
2047.00,0.0038
2046.75,0.0038
2046.50,0.0041
2046.25,0.0047
2046.00,0.0054
2045.75,0.0058
2045.50,0.0056
2045.25,0.0050
2045.00,0.0043
2044.75,0.0037
2044.50,0.0035
2044.25,0.0035
2044.00,0.0036
2043.75,0.0038
2043.50,0.0040
2043.25,0.0041
2043.00,0.0040
2042.75,0.0037
2042.50,0.0035
2042.25,0.0034
2042.00,0.0035
2041.75,0.0037
2041.50,0.0038
2041.25,0.0039
2041.00,0.0039
2040.75,0.0038
2040.50,0.0037
2040.25,0.0036
2040.00,0.0035
2039.75,0.0033
2039.50,0.0033
2039.25,0.0033
2039.00,0.0032
2038.75,0.0031
2038.50,0.0029
2038.25,0.0026
2038.00,0.0026
2037.75,0.0029
2037.50,0.0036
2037.25,0.0046
2037.00,0.0054
2036.75,0.0058
2036.50,0.0056
2036.25,0.0049
2036.00,0.0042
2035.75,0.0037
2035.50,0.0037
2035.25,0.0039
2035.00,0.0041
2034.75,0.0041
2034.50,0.0038
2034.25,0.0033
2034.00,0.0029
2033.75,0.0028
2033.50,0.0028
2033.25,0.0029
2033.00,0.0031
2032.75,0.0034
2032.50,0.0037
2032.25,0.0040
2032.00,0.0041
2031.75,0.0041
2031.50,0.0039
2031.25,0.0036
2031.00,0.0032
2030.75,0.0029
2030.50,0.0027
2030.25,0.0026
2030.00,0.0025
2029.75,0.0025
2029.50,0.0025
2029.25,0.0023
2029.00,0.0023
2028.75,0.0024
2028.50,0.0027
2028.25,0.0032
2028.00,0.0036
2027.75,0.0039
2027.50,0.0041
2027.25,0.0045
2027.00,0.0050
2026.75,0.0054
2026.50,0.0053
2026.25,0.0048
2026.00,0.0039
2025.75,0.0030
2025.50,0.0023
2025.25,0.0021
2025.00,0.0023
2024.75,0.0027
2024.50,0.0030
2024.25,0.0032
2024.00,0.0032
2023.75,0.0033
2023.50,0.0032
2023.25,0.0030
2023.00,0.0027
2022.75,0.0024
2022.50,0.0020
2022.25,0.0015
2022.00,0.0012
2021.75,0.0012
2021.50,0.0015
2021.25,0.0021
2021.00,0.0028
2020.75,0.0034
2020.50,0.0037
2020.25,0.0035
2020.00,0.0032
2019.75,0.0028
2019.50,0.0028
2019.25,0.0032
2019.00,0.0038
2018.75,0.0044
2018.50,0.0048
2018.25,0.0048
2018.00,0.0047
2017.75,0.0047
2017.50,0.0050
2017.25,0.0054
2017.00,0.0055
2016.75,0.0050
2016.50,0.0042
2016.25,0.0033
2016.00,0.0025
2015.75,0.0020
2015.50,0.0019
2015.25,0.0021
2015.00,0.0026
2014.75,0.0032
2014.50,0.0038
2014.25,0.0043
2014.00,0.0046
2013.75,0.0048
2013.50,0.0048
2013.25,0.0047
2013.00,0.0047
2012.75,0.0046
2012.50,0.0045
2012.25,0.0043
2012.00,0.0041
2011.75,0.0038
2011.50,0.0036
2011.25,0.0035
2011.00,0.0037
2010.75,0.0039
2010.50,0.0039
2010.25,0.0037
2010.00,0.0033
2009.75,0.0028
2009.50,0.0026
2009.25,0.0028
2009.00,0.0031
2008.75,0.0034
2008.50,0.0035
2008.25,0.0036
2008.00,0.0037
2007.75,0.0039
2007.50,0.0041
2007.25,0.0039
2007.00,0.0036
2006.75,0.0033
2006.50,0.0031
2006.25,0.0031
2006.00,0.0034
2005.75,0.0038
2005.50,0.0041
2005.25,0.0044
2005.00,0.0045
2004.75,0.0044
2004.50,0.0041
2004.25,0.0037
2004.00,0.0033
2003.75,0.0031
2003.50,0.0032
2003.25,0.0035
2003.00,0.0041
2002.75,0.0045
2002.50,0.0046
2002.25,0.0043
2002.00,0.0035
2001.75,0.0027
2001.50,0.0022
2001.25,0.0021
2001.00,0.0024
2000.75,0.0028
2000.50,0.0030
2000.25,0.0030
2000.00,0.0029
1999.75,0.0030
1999.50,0.0033
1999.25,0.0040
1999.00,0.0047
1998.75,0.0052
1998.50,0.0054
1998.25,0.0051
1998.00,0.0046
1997.75,0.0039
1997.50,0.0032
1997.25,0.0026
1997.00,0.0021
1996.75,0.0021
1996.50,0.0024
1996.25,0.0031
1996.00,0.0038
1995.75,0.0042
1995.50,0.0044
1995.25,0.0045
1995.00,0.0045
1994.75,0.0048
1994.50,0.0050
1994.25,0.0053
1994.00,0.0052
1993.75,0.0051
1993.50,0.0048
1993.25,0.0047
1993.00,0.0046
1992.75,0.0045
1992.50,0.0042
1992.25,0.0037
1992.00,0.0033
1991.75,0.0031
1991.50,0.0032
1991.25,0.0037
1991.00,0.0042
1990.75,0.0046
1990.50,0.0049
1990.25,0.0048
1990.00,0.0046
1989.75,0.0043
1989.50,0.0041
1989.25,0.0040
1989.00,0.0038
1988.75,0.0035
1988.50,0.0032
1988.25,0.0029
1988.00,0.0029
1987.75,0.0030
1987.50,0.0031
1987.25,0.0034
1987.00,0.0036
1986.75,0.0039
1986.50,0.0042
1986.25,0.0044
1986.00,0.0047
1985.75,0.0049
1985.50,0.0050
1985.25,0.0048
1985.00,0.0046
1984.75,0.0042
1984.50,0.0040
1984.25,0.0038
1984.00,0.0036
1983.75,0.0034
1983.50,0.0032
1983.25,0.0030
1983.00,0.0030
1982.75,0.0031
1982.50,0.0033
1982.25,0.0036
1982.00,0.0036
1981.75,0.0035
1981.50,0.0033
1981.25,0.0033
1981.00,0.0034
1980.75,0.0037
1980.50,0.0040
1980.25,0.0042
1980.00,0.0043
1979.75,0.0045
1979.50,0.0049
1979.25,0.0055
1979.00,0.0061
1978.75,0.0064
1978.50,0.0063
1978.25,0.0059
1978.00,0.0052
1977.75,0.0043
1977.50,0.0034
1977.25,0.0027
1977.00,0.0026
1976.75,0.0030
1976.50,0.0038
1976.25,0.0046
1976.00,0.0049
1975.75,0.0046
1975.50,0.0041
1975.25,0.0036
1975.00,0.0034
1974.75,0.0036
1974.50,0.0039
1974.25,0.0040
1974.00,0.0039
1973.75,0.0036
1973.50,0.0034
1973.25,0.0033
1973.00,0.0035
1972.75,0.0037
1972.50,0.0039
1972.25,0.0041
1972.00,0.0043
1971.75,0.0044
1971.50,0.0045
1971.25,0.0044
1971.00,0.0043
1970.75,0.0041
1970.50,0.0039
1970.25,0.0039
1970.00,0.0040
1969.75,0.0042
1969.50,0.0044
1969.25,0.0043
1969.00,0.0041
1968.75,0.0039
1968.50,0.0039
1968.25,0.0043
1968.00,0.0047
1967.75,0.0049
1967.50,0.0048
1967.25,0.0043
1967.00,0.0037
1966.75,0.0034
1966.50,0.0033
1966.25,0.0035
1966.00,0.0037
1965.75,0.0037
1965.50,0.0037
1965.25,0.0036
1965.00,0.0036
1964.75,0.0036
1964.50,0.0037
1964.25,0.0039
1964.00,0.0042
1963.75,0.0046
1963.50,0.0048
1963.25,0.0049
1963.00,0.0050
1962.75,0.0050
1962.50,0.0051
1962.25,0.0052
1962.00,0.0051
1961.75,0.0047
1961.50,0.0042
1961.25,0.0038
1961.00,0.0036
1960.75,0.0037
1960.50,0.0040
1960.25,0.0044
1960.00,0.0047
1959.75,0.0049
1959.50,0.0051
1959.25,0.0054
1959.00,0.0058
1958.75,0.0061
1958.50,0.0063
1958.25,0.0061
1958.00,0.0055
1957.75,0.0048
1957.50,0.0044
1957.25,0.0044
1957.00,0.0046
1956.75,0.0048
1956.50,0.0049
1956.25,0.0049
1956.00,0.0049
1955.75,0.0050
1955.50,0.0051
1955.25,0.0053
1955.00,0.0054
1954.75,0.0054
1954.50,0.0051
1954.25,0.0048
1954.00,0.0044
1953.75,0.0043
1953.50,0.0044
1953.25,0.0048
1953.00,0.0053
1952.75,0.0058
1952.50,0.0062
1952.25,0.0064
1952.00,0.0064
1951.75,0.0064
1951.50,0.0063
1951.25,0.0063
1951.00,0.0063
1950.75,0.0062
1950.50,0.0061
1950.25,0.0059
1950.00,0.0057
1949.75,0.0053
1949.50,0.0049
1949.25,0.0047
1949.00,0.0047
1948.75,0.0048
1948.50,0.0049
1948.25,0.0049
1948.00,0.0048
1947.75,0.0048
1947.50,0.0050
1947.25,0.0054
1947.00,0.0058
1946.75,0.0062
1946.50,0.0064
1946.25,0.0065
1946.00,0.0066
1945.75,0.0068
1945.50,0.0069
1945.25,0.0068
1945.00,0.0065
1944.75,0.0060
1944.50,0.0055
1944.25,0.0052
1944.00,0.0049
1943.75,0.0047
1943.50,0.0045
1943.25,0.0046
1943.00,0.0048
1942.75,0.0052
1942.50,0.0055
1942.25,0.0056
1942.00,0.0057
1941.75,0.0057
1941.50,0.0059
1941.25,0.0060
1941.00,0.0060
1940.75,0.0060
1940.50,0.0061
1940.25,0.0062
1940.00,0.0063
1939.75,0.0064
1939.50,0.0064
1939.25,0.0063
1939.00,0.0061
1938.75,0.0060
1938.50,0.0059
1938.25,0.0060
1938.00,0.0062
1937.75,0.0063
1937.50,0.0064
1937.25,0.0063
1937.00,0.0061
1936.75,0.0059
1936.50,0.0059
1936.25,0.0060
1936.00,0.0061
1935.75,0.0061
1935.50,0.0061
1935.25,0.0059
1935.00,0.0056
1934.75,0.0055
1934.50,0.0056
1934.25,0.0059
1934.00,0.0062
1933.75,0.0064
1933.50,0.0063
1933.25,0.0061
1933.00,0.0058
1932.75,0.0055
1932.50,0.0053
1932.25,0.0051
1932.00,0.0052
1931.75,0.0053
1931.50,0.0056
1931.25,0.0059
1931.00,0.0063
1930.75,0.0065
1930.50,0.0066
1930.25,0.0065
1930.00,0.0064
1929.75,0.0065
1929.50,0.0069
1929.25,0.0073
1929.00,0.0077
1928.75,0.0079
1928.50,0.0078
1928.25,0.0075
1928.00,0.0072
1927.75,0.0069
1927.50,0.0069
1927.25,0.0069
1927.00,0.0069
1926.75,0.0067
1926.50,0.0063
1926.25,0.0059
1926.00,0.0056
1925.75,0.0055
1925.50,0.0055
1925.25,0.0056
1925.00,0.0058
1924.75,0.0061
1924.50,0.0065
1924.25,0.0070
1924.00,0.0074
1923.75,0.0076
1923.50,0.0077
1923.25,0.0074
1923.00,0.0070
1922.75,0.0064
1922.50,0.0059
1922.25,0.0056
1922.00,0.0055
1921.75,0.0056
1921.50,0.0058
1921.25,0.0061
1921.00,0.0064
1920.75,0.0067
1920.50,0.0068
1920.25,0.0069
1920.00,0.0067
1919.75,0.0065
1919.50,0.0064
1919.25,0.0064
1919.00,0.0066
1918.75,0.0067
1918.50,0.0067
1918.25,0.0065
1918.00,0.0063
1917.75,0.0060
1917.50,0.0060
1917.25,0.0060
1917.00,0.0061
1916.75,0.0064
1916.50,0.0066
1916.25,0.0068
1916.00,0.0068
1915.75,0.0068
1915.50,0.0066
1915.25,0.0066
1915.00,0.0066
1914.75,0.0066
1914.50,0.0067
1914.25,0.0067
1914.00,0.0068
1913.75,0.0070
1913.50,0.0073
1913.25,0.0075
1913.00,0.0075
1912.75,0.0074
1912.50,0.0072
1912.25,0.0071
1912.00,0.0070
1911.75,0.0070
1911.50,0.0068
1911.25,0.0067
1911.00,0.0066
1910.75,0.0067
1910.50,0.0069
1910.25,0.0069
1910.00,0.0067
1909.75,0.0064
1909.50,0.0060
1909.25,0.0060
1909.00,0.0061
1908.75,0.0065
1908.50,0.0070
1908.25,0.0073
1908.00,0.0075
1907.75,0.0074
1907.50,0.0072
1907.25,0.0071
1907.00,0.0070
1906.75,0.0070
1906.50,0.0069
1906.25,0.0069
1906.00,0.0068
1905.75,0.0068
1905.50,0.0068
1905.25,0.0069
1905.00,0.0070
1904.75,0.0069
1904.50,0.0068
1904.25,0.0067
1904.00,0.0067
1903.75,0.0067
1903.50,0.0069
1903.25,0.0071
1903.00,0.0073
1902.75,0.0074
1902.50,0.0073
1902.25,0.0071
1902.00,0.0068
1901.75,0.0065
1901.50,0.0062
1901.25,0.0062
1901.00,0.0063
1900.75,0.0066
1900.50,0.0070
1900.25,0.0073
1900.00,0.0075
1899.75,0.0076
1899.50,0.0076
1899.25,0.0075
1899.00,0.0072
1898.75,0.0069
1898.50,0.0068
1898.25,0.0067
1898.00,0.0067
1897.75,0.0067
1897.50,0.0067
1897.25,0.0067
1897.00,0.0068
1896.75,0.0070
1896.50,0.0073
1896.25,0.0076
1896.00,0.0077
1895.75,0.0076
1895.50,0.0074
1895.25,0.0072
1895.00,0.0069
1894.75,0.0067
1894.50,0.0066
1894.25,0.0065
1894.00,0.0065
1893.75,0.0067
1893.50,0.0069
1893.25,0.0072
1893.00,0.0073
1892.75,0.0074
1892.50,0.0074
1892.25,0.0074
1892.00,0.0074
1891.75,0.0075
1891.50,0.0074
1891.25,0.0073
1891.00,0.0071
1890.75,0.0070
1890.50,0.0069
1890.25,0.0068
1890.00,0.0066
1889.75,0.0063
1889.50,0.0060
1889.25,0.0059
1889.00,0.0062
1888.75,0.0067
1888.50,0.0072
1888.25,0.0076
1888.00,0.0077
1887.75,0.0075
1887.50,0.0071
1887.25,0.0067
1887.00,0.0065
1886.75,0.0065
1886.50,0.0068
1886.25,0.0071
1886.00,0.0073
1885.75,0.0074
1885.50,0.0073
1885.25,0.0071
1885.00,0.0069
1884.75,0.0067
1884.50,0.0066
1884.25,0.0065
1884.00,0.0066
1883.75,0.0067
1883.50,0.0068
1883.25,0.0068
1883.00,0.0069
1882.75,0.0069
1882.50,0.0070
1882.25,0.0071
1882.00,0.0072
1881.75,0.0073
1881.50,0.0074
1881.25,0.0075
1881.00,0.0075
1880.75,0.0075
1880.50,0.0075
1880.25,0.0075
1880.00,0.0075
1879.75,0.0075
1879.50,0.0075
1879.25,0.0074
1879.00,0.0073
1878.75,0.0073
1878.50,0.0073
1878.25,0.0072
1878.00,0.0073
1877.75,0.0074
1877.50,0.0075
1877.25,0.0074
1877.00,0.0073
1876.75,0.0070
1876.50,0.0068
1876.25,0.0067
1876.00,0.0067
1875.75,0.0067
1875.50,0.0066
1875.25,0.0067
1875.00,0.0068
1874.75,0.0070
1874.50,0.0072
1874.25,0.0073
1874.00,0.0074
1873.75,0.0074
1873.50,0.0075
1873.25,0.0075
1873.00,0.0075
1872.75,0.0074
1872.50,0.0073
1872.25,0.0071
1872.00,0.0069
1871.75,0.0067
1871.50,0.0065
1871.25,0.0064
1871.00,0.0065
1870.75,0.0067
1870.50,0.0069
1870.25,0.0071
1870.00,0.0072
1869.75,0.0072
1869.50,0.0072
1869.25,0.0073
1869.00,0.0075
1868.75,0.0075
1868.50,0.0074
1868.25,0.0072
1868.00,0.0071
1867.75,0.0072
1867.50,0.0074
1867.25,0.0076
1867.00,0.0077
1866.75,0.0076
1866.50,0.0076
1866.25,0.0076
1866.00,0.0078
1865.75,0.0080
1865.50,0.0080
1865.25,0.0081
1865.00,0.0080
1864.75,0.0079
1864.50,0.0078
1864.25,0.0076
1864.00,0.0075
1863.75,0.0074
1863.50,0.0075
1863.25,0.0078
1863.00,0.0080
1862.75,0.0081
1862.50,0.0080
1862.25,0.0079
1862.00,0.0076
1861.75,0.0073
1861.50,0.0071
1861.25,0.0071
1861.00,0.0073
1860.75,0.0075
1860.50,0.0078
1860.25,0.0079
1860.00,0.0079
1859.75,0.0079
1859.50,0.0079
1859.25,0.0080
1859.00,0.0081
1858.75,0.0081
1858.50,0.0079
1858.25,0.0075
1858.00,0.0070
1857.75,0.0066
1857.50,0.0064
1857.25,0.0063
1857.00,0.0063
1856.75,0.0065
1856.50,0.0068
1856.25,0.0072
1856.00,0.0075
1855.75,0.0078
1855.50,0.0080
1855.25,0.0081
1855.00,0.0080
1854.75,0.0079
1854.50,0.0078
1854.25,0.0077
1854.00,0.0076
1853.75,0.0075
1853.50,0.0074
1853.25,0.0072
1853.00,0.0071
1852.75,0.0070
1852.50,0.0070
1852.25,0.0070
1852.00,0.0071
1851.75,0.0073
1851.50,0.0075
1851.25,0.0077
1851.00,0.0078
1850.75,0.0078
1850.50,0.0078
1850.25,0.0078
1850.00,0.0078
1849.75,0.0078
1849.50,0.0077
1849.25,0.0076
1849.00,0.0075
1848.75,0.0074
1848.50,0.0075
1848.25,0.0075
1848.00,0.0076
1847.75,0.0076
1847.50,0.0075
1847.25,0.0073
1847.00,0.0072
1846.75,0.0070
1846.50,0.0070
1846.25,0.0070
1846.00,0.0072
1845.75,0.0074
1845.50,0.0075
1845.25,0.0075
1845.00,0.0073
1844.75,0.0070
1844.50,0.0068
1844.25,0.0071
1844.00,0.0076
1843.75,0.0081
1843.50,0.0083
1843.25,0.0082
1843.00,0.0080
1842.75,0.0079
1842.50,0.0078
1842.25,0.0077
1842.00,0.0078
1841.75,0.0079
1841.50,0.0081
1841.25,0.0081
1841.00,0.0082
1840.75,0.0081
1840.50,0.0080
1840.25,0.0080
1840.00,0.0080
1839.75,0.0081
1839.50,0.0081
1839.25,0.0081
1839.00,0.0080
1838.75,0.0079
1838.50,0.0078
1838.25,0.0077
1838.00,0.0077
1837.75,0.0076
1837.50,0.0076
1837.25,0.0077
1837.00,0.0078
1836.75,0.0078
1836.50,0.0078
1836.25,0.0078
1836.00,0.0078
1835.75,0.0078
1835.50,0.0079
1835.25,0.0079
1835.00,0.0079
1834.75,0.0079
1834.50,0.0078
1834.25,0.0077
1834.00,0.0076
1833.75,0.0076
1833.50,0.0077
1833.25,0.0079
1833.00,0.0080
1832.75,0.0080
1832.50,0.0079
1832.25,0.0079
1832.00,0.0079
1831.75,0.0079
1831.50,0.0079
1831.25,0.0080
1831.00,0.0080
1830.75,0.0080
1830.50,0.0080
1830.25,0.0080
1830.00,0.0082
1829.75,0.0084
1829.50,0.0084
1829.25,0.0083
1829.00,0.0081
1828.75,0.0081
1828.50,0.0080
1828.25,0.0080
1828.00,0.0080
1827.75,0.0079
1827.50,0.0079
1827.25,0.0080
1827.00,0.0081
1826.75,0.0081
1826.50,0.0081
1826.25,0.0080
1826.00,0.0078
1825.75,0.0076
1825.50,0.0075
1825.25,0.0074
1825.00,0.0075
1824.75,0.0078
1824.50,0.0079
1824.25,0.0079
1824.00,0.0079
1823.75,0.0077
1823.50,0.0077
1823.25,0.0077
1823.00,0.0079
1822.75,0.0082
1822.50,0.0084
1822.25,0.0085
1822.00,0.0085
1821.75,0.0084
1821.50,0.0084
1821.25,0.0084
1821.00,0.0084
1820.75,0.0083
1820.50,0.0082
1820.25,0.0081
1820.00,0.0080
1819.75,0.0079
1819.50,0.0078
1819.25,0.0078
1819.00,0.0078
1818.75,0.0079
1818.50,0.0079
1818.25,0.0079
1818.00,0.0079
1817.75,0.0078
1817.50,0.0077
1817.25,0.0077
1817.00,0.0076
1816.75,0.0077
1816.50,0.0078
1816.25,0.0079
1816.00,0.0080
1815.75,0.0081
1815.50,0.0082
1815.25,0.0082
1815.00,0.0083
1814.75,0.0083
1814.50,0.0081
1814.25,0.0080
1814.00,0.0079
1813.75,0.0079
1813.50,0.0080
1813.25,0.0082
1813.00,0.0083
1812.75,0.0083
1812.50,0.0081
1812.25,0.0081
1812.00,0.0080
1811.75,0.0081
1811.50,0.0081
1811.25,0.0081
1811.00,0.0080
1810.75,0.0079
1810.50,0.0080
1810.25,0.0080
1810.00,0.0081
1809.75,0.0081
1809.50,0.0081
1809.25,0.0081
1809.00,0.0082
1808.75,0.0082
1808.50,0.0082
1808.25,0.0082
1808.00,0.0081
1807.75,0.0079
1807.50,0.0078
1807.25,0.0077
1807.00,0.0078
1806.75,0.0079
1806.50,0.0081
1806.25,0.0083
1806.00,0.0084
1805.75,0.0085
1805.50,0.0084
1805.25,0.0084
1805.00,0.0083
1804.75,0.0082
1804.50,0.0081
1804.25,0.0080
1804.00,0.0080
1803.75,0.0081
1803.50,0.0082
1803.25,0.0082
1803.00,0.0081
1802.75,0.0081
1802.50,0.0081
1802.25,0.0082
1802.00,0.0083
1801.75,0.0083
1801.50,0.0082
1801.25,0.0081
1801.00,0.0081
1800.75,0.0080
1800.50,0.0080
1800.25,0.0080
1800.00,0.0080
1799.75,0.0080
1799.50,0.0080
1799.25,0.0080
1799.00,0.0080
1798.75,0.0080
1798.50,0.0080
1798.25,0.0080
1798.00,0.0081
1797.75,0.0082
1797.50,0.0081
1797.25,0.0080
1797.00,0.0079
1796.75,0.0078
1796.50,0.0077
1796.25,0.0077
1796.00,0.0077
1795.75,0.0078
1795.50,0.0079
1795.25,0.0080
1795.00,0.0080
1794.75,0.0080
1794.50,0.0080
1794.25,0.0079
1794.00,0.0078
1793.75,0.0077
1793.50,0.0076
1793.25,0.0074
1793.00,0.0072
1792.75,0.0071
1792.50,0.0072
1792.25,0.0076
1792.00,0.0079
1791.75,0.0081
1791.50,0.0081
1791.25,0.0081
1791.00,0.0082
1790.75,0.0082
1790.50,0.0084
1790.25,0.0084
1790.00,0.0084
1789.75,0.0084
1789.50,0.0084
1789.25,0.0084
1789.00,0.0083
1788.75,0.0082
1788.50,0.0081
1788.25,0.0080
1788.00,0.0079
1787.75,0.0079
1787.50,0.0080
1787.25,0.0080
1787.00,0.0080
1786.75,0.0081
1786.50,0.0081
1786.25,0.0082
1786.00,0.0082
1785.75,0.0082
1785.50,0.0082
1785.25,0.0082
1785.00,0.0081
1784.75,0.0080
1784.50,0.0079
1784.25,0.0080
1784.00,0.0081
1783.75,0.0083
1783.50,0.0084
1783.25,0.0084
1783.00,0.0084
1782.75,0.0083
1782.50,0.0082
1782.25,0.0081
1782.00,0.0079
1781.75,0.0078
1781.50,0.0077
1781.25,0.0077
1781.00,0.0077
1780.75,0.0080
1780.50,0.0083
1780.25,0.0085
1780.00,0.0085
1779.75,0.0084
1779.50,0.0083
1779.25,0.0083
1779.00,0.0083
1778.75,0.0084
1778.50,0.0084
1778.25,0.0084
1778.00,0.0083
1777.75,0.0082
1777.50,0.0081
1777.25,0.0080
1777.00,0.0079
1776.75,0.0079
1776.50,0.0079
1776.25,0.0080
1776.00,0.0081
1775.75,0.0081
1775.50,0.0082
1775.25,0.0082
1775.00,0.0081
1774.75,0.0079
1774.50,0.0078
1774.25,0.0078
1774.00,0.0079
1773.75,0.0080
1773.50,0.0080
1773.25,0.0079
1773.00,0.0078
1772.75,0.0079
1772.50,0.0082
1772.25,0.0084
1772.00,0.0085
1771.75,0.0083
1771.50,0.0081
1771.25,0.0081
1771.00,0.0082
1770.75,0.0083
1770.50,0.0084
1770.25,0.0083
1770.00,0.0082
1769.75,0.0080
1769.50,0.0079
1769.25,0.0079
1769.00,0.0079
1768.75,0.0079
1768.50,0.0079
1768.25,0.0078
1768.00,0.0079
1767.75,0.0081
1767.50,0.0083
1767.25,0.0084
1767.00,0.0085
1766.75,0.0084
1766.50,0.0084
1766.25,0.0084
1766.00,0.0083
1765.75,0.0083
1765.50,0.0083
1765.25,0.0083
1765.00,0.0084
1764.75,0.0084
1764.50,0.0084
1764.25,0.0084
1764.00,0.0083
1763.75,0.0083
1763.50,0.0083
1763.25,0.0084
1763.00,0.0084
1762.75,0.0084
1762.50,0.0082
1762.25,0.0080
1762.00,0.0077
1761.75,0.0077
1761.50,0.0078
1761.25,0.0081
1761.00,0.0082
1760.75,0.0081
1760.50,0.0081
1760.25,0.0081
1760.00,0.0081
1759.75,0.0081
1759.50,0.0082
1759.25,0.0083
1759.00,0.0084
1758.75,0.0084
1758.50,0.0084
1758.25,0.0084
1758.00,0.0085
1757.75,0.0086
1757.50,0.0086
1757.25,0.0087
1757.00,0.0088
1756.75,0.0088
1756.50,0.0088
1756.25,0.0087
1756.00,0.0086
1755.75,0.0085
1755.50,0.0085
1755.25,0.0085
1755.00,0.0086
1754.75,0.0085
1754.50,0.0085
1754.25,0.0083
1754.00,0.0083
1753.75,0.0082
1753.50,0.0082
1753.25,0.0083
1753.00,0.0083
1752.75,0.0083
1752.50,0.0084
1752.25,0.0084
1752.00,0.0084
1751.75,0.0083
1751.50,0.0081
1751.25,0.0079
1751.00,0.0078
1750.75,0.0079
1750.50,0.0081
1750.25,0.0082
1750.00,0.0082
1749.75,0.0081
1749.50,0.0081
1749.25,0.0080
1749.00,0.0080
1748.75,0.0080
1748.50,0.0082
1748.25,0.0083
1748.00,0.0085
1747.75,0.0086
1747.50,0.0086
1747.25,0.0086
1747.00,0.0087
1746.75,0.0087
1746.50,0.0088
1746.25,0.0089
1746.00,0.0088
1745.75,0.0088
1745.50,0.0086
1745.25,0.0085
1745.00,0.0085
1744.75,0.0084
1744.50,0.0084
1744.25,0.0083
1744.00,0.0083
1743.75,0.0082
1743.50,0.0082
1743.25,0.0083
1743.00,0.0083
1742.75,0.0083
1742.50,0.0083
1742.25,0.0083
1742.00,0.0084
1741.75,0.0085
1741.50,0.0087
1741.25,0.0088
1741.00,0.0088
1740.75,0.0087
1740.50,0.0086
1740.25,0.0084
1740.00,0.0083
1739.75,0.0085
1739.50,0.0087
1739.25,0.0090
1739.00,0.0090
1738.75,0.0089
1738.50,0.0087
1738.25,0.0086
1738.00,0.0085
1737.75,0.0085
1737.50,0.0086
1737.25,0.0087
1737.00,0.0087
1736.75,0.0087
1736.50,0.0087
1736.25,0.0088
1736.00,0.0089
1735.75,0.0090
1735.50,0.0090
1735.25,0.0090
1735.00,0.0088
1734.75,0.0086
1734.50,0.0084
1734.25,0.0084
1734.00,0.0085
1733.75,0.0085
1733.50,0.0085
1733.25,0.0086
1733.00,0.0087
1732.75,0.0087
1732.50,0.0086
1732.25,0.0085
1732.00,0.0085
1731.75,0.0085
1731.50,0.0086
1731.25,0.0087
1731.00,0.0089
1730.75,0.0091
1730.50,0.0092
1730.25,0.0094
1730.00,0.0093
1729.75,0.0092
1729.50,0.0091
1729.25,0.0090
1729.00,0.0090
1728.75,0.0091
1728.50,0.0091
1728.25,0.0090
1728.00,0.0089
1727.75,0.0088
1727.50,0.0088
1727.25,0.0088
1727.00,0.0089
1726.75,0.0089
1726.50,0.0089
1726.25,0.0088
1726.00,0.0088
1725.75,0.0089
1725.50,0.0089
1725.25,0.0090
1725.00,0.0089
1724.75,0.0089
1724.50,0.0088
1724.25,0.0087
1724.00,0.0087
1723.75,0.0088
1723.50,0.0089
1723.25,0.0090
1723.00,0.0091
1722.75,0.0091
1722.50,0.0091
1722.25,0.0090
1722.00,0.0090
1721.75,0.0091
1721.50,0.0091
1721.25,0.0091
1721.00,0.0091
1720.75,0.0090
1720.50,0.0088
1720.25,0.0088
1720.00,0.0087
1719.75,0.0087
1719.50,0.0087
1719.25,0.0088
1719.00,0.0089
1718.75,0.0090
1718.50,0.0091
1718.25,0.0090
1718.00,0.0086
1717.75,0.0079
1717.50,0.0072
1717.25,0.0071
1717.00,0.0077
1716.75,0.0083
1716.50,0.0087
1716.25,0.0088
1716.00,0.0088
1715.75,0.0088
1715.50,0.0088
1715.25,0.0088
1715.00,0.0088
1714.75,0.0087
1714.50,0.0087
1714.25,0.0088
1714.00,0.0089
1713.75,0.0091
1713.50,0.0093
1713.25,0.0093
1713.00,0.0093
1712.75,0.0092
1712.50,0.0090
1712.25,0.0088
1712.00,0.0086
1711.75,0.0086
1711.50,0.0087
1711.25,0.0089
1711.00,0.0090
1710.75,0.0089
1710.50,0.0088
1710.25,0.0087
1710.00,0.0086
1709.75,0.0086
1709.50,0.0087
1709.25,0.0088
1709.00,0.0089
1708.75,0.0089
1708.50,0.0089
1708.25,0.0088
1708.00,0.0088
1707.75,0.0088
1707.50,0.0089
1707.25,0.0090
1707.00,0.0090
1706.75,0.0088
1706.50,0.0087
1706.25,0.0086
1706.00,0.0087
1705.75,0.0089
1705.50,0.0090
1705.25,0.0089
1705.00,0.0088
1704.75,0.0087
1704.50,0.0086
1704.25,0.0086
1704.00,0.0085
1703.75,0.0085
1703.50,0.0085
1703.25,0.0086
1703.00,0.0087
1702.75,0.0088
1702.50,0.0089
1702.25,0.0088
1702.00,0.0087
1701.75,0.0086
1701.50,0.0087
1701.25,0.0090
1701.00,0.0095
1700.75,0.0100
1700.50,0.0105
1700.25,0.0107
1700.00,0.0096
1699.75,0.0092
1699.50,0.0090
1699.25,0.0088
1699.00,0.0085
1698.75,0.0084
1698.50,0.0084
1698.25,0.0085
1698.00,0.0086
1697.75,0.0087
1697.50,0.0087
1697.25,0.0087
1697.00,0.0087
1696.75,0.0088
1696.50,0.0088
1696.25,0.0089
1696.00,0.0089
1695.75,0.0087
1695.50,0.0086
1695.25,0.0087
1695.00,0.0087
1694.75,0.0087
1694.50,0.0087
1694.25,0.0087
1694.00,0.0087
1693.75,0.0087
1693.50,0.0086
1693.25,0.0086
1693.00,0.0087
1692.75,0.0088
1692.50,0.0090
1692.25,0.0092
1692.00,0.0093
1691.75,0.0092
1691.50,0.0091
1691.25,0.0089
1691.00,0.0088
1690.75,0.0086
1690.50,0.0086
1690.25,0.0087
1690.00,0.0089
1689.75,0.0090
1689.50,0.0091
1689.25,0.0091
1689.00,0.0091
1688.75,0.0090
1688.50,0.0090
1688.25,0.0091
1688.00,0.0091
1687.75,0.0091
1687.50,0.0091
1687.25,0.0091
1687.00,0.0090
1686.75,0.0089
1686.50,0.0088
1686.25,0.0087
1686.00,0.0086
1685.75,0.0085
1685.50,0.0085
1685.25,0.0087
1685.00,0.0092
1684.75,0.0102
1684.50,0.0111
1684.25,0.0110
1684.00,0.0103
1683.75,0.0097
1683.50,0.0092
1683.25,0.0089
1683.00,0.0088
1682.75,0.0088
1682.50,0.0088
1682.25,0.0087
1682.00,0.0087
1681.75,0.0087
1681.50,0.0089
1681.25,0.0090
1681.00,0.0091
1680.75,0.0092
1680.50,0.0092
1680.25,0.0091
1680.00,0.0091
1679.75,0.0090
1679.50,0.0090
1679.25,0.0090
1679.00,0.0091
1678.75,0.0091
1678.50,0.0092
1678.25,0.0092
1678.00,0.0092
1677.75,0.0093
1677.50,0.0093
1677.25,0.0094
1677.00,0.0094
1676.75,0.0093
1676.50,0.0093
1676.25,0.0092
1676.00,0.0092
1675.75,0.0093
1675.50,0.0094
1675.25,0.0096
1675.00,0.0098
1674.75,0.0097
1674.50,0.0095
1674.25,0.0092
1674.00,0.0090
1673.75,0.0090
1673.50,0.0091
1673.25,0.0092
1673.00,0.0094
1672.75,0.0096
1672.50,0.0097
1672.25,0.0097
1672.00,0.0097
1671.75,0.0096
1671.50,0.0095
1671.25,0.0095
1671.00,0.0095
1670.75,0.0095
1670.50,0.0095
1670.25,0.0095
1670.00,0.0095
1669.75,0.0095
1669.50,0.0095
1669.25,0.0096
1669.00,0.0096
1668.75,0.0096
1668.50,0.0096
1668.25,0.0096
1668.00,0.0096
1667.75,0.0096
1667.50,0.0097
1667.25,0.0097
1667.00,0.0097
1666.75,0.0097
1666.50,0.0097
1666.25,0.0097
1666.00,0.0098
1665.75,0.0098
1665.50,0.0098
1665.25,0.0097
1665.00,0.0097
1664.75,0.0096
1664.50,0.0095
1664.25,0.0095
1664.00,0.0095
1663.75,0.0095
1663.50,0.0095
1663.25,0.0094
1663.00,0.0094
1662.75,0.0095
1662.50,0.0096
1662.25,0.0098
1662.00,0.0099
1661.75,0.0099
1661.50,0.0099
1661.25,0.0099
1661.00,0.0098
1660.75,0.0098
1660.50,0.0098
1660.25,0.0098
1660.00,0.0099
1659.75,0.0099
1659.50,0.0099
1659.25,0.0099
1659.00,0.0100
1658.75,0.0101
1658.50,0.0101
1658.25,0.0102
1658.00,0.0102
1657.75,0.0100
1657.50,0.0099
1657.25,0.0097
1657.00,0.0096
1656.75,0.0096
1656.50,0.0097
1656.25,0.0097
1656.00,0.0097
1655.75,0.0097
1655.50,0.0096
1655.25,0.0096
1655.00,0.0094
1654.75,0.0093
1654.50,0.0092
1654.25,0.0091
1654.00,0.0089
1653.75,0.0087
1653.50,0.0085
1653.25,0.0085
1653.00,0.0090
1652.75,0.0096
1652.50,0.0093
1652.25,0.0094
1652.00,0.0094
1651.75,0.0095
1651.50,0.0094
1651.25,0.0095
1651.00,0.0096
1650.75,0.0098
1650.50,0.0101
1650.25,0.0102
1650.00,0.0103
1649.75,0.0103
1649.50,0.0102
1649.25,0.0101
1649.00,0.0100
1648.75,0.0100
1648.50,0.0100
1648.25,0.0100
1648.00,0.0101
1647.75,0.0101
1647.50,0.0101
1647.25,0.0100
1647.00,0.0100
1646.75,0.0099
1646.50,0.0097
1646.25,0.0097
1646.00,0.0100
1645.75,0.0104
1645.50,0.0105
1645.25,0.0104
1645.00,0.0102
1644.75,0.0100
1644.50,0.0100
1644.25,0.0101
1644.00,0.0102
1643.75,0.0104
1643.50,0.0105
1643.25,0.0106
1643.00,0.0106
1642.75,0.0106
1642.50,0.0106
1642.25,0.0105
1642.00,0.0105
1641.75,0.0105
1641.50,0.0105
1641.25,0.0105
1641.00,0.0105
1640.75,0.0105
1640.50,0.0105
1640.25,0.0105
1640.00,0.0105
1639.75,0.0104
1639.50,0.0104
1639.25,0.0104
1639.00,0.0104
1638.75,0.0105
1638.50,0.0105
1638.25,0.0104
1638.00,0.0105
1637.75,0.0105
1637.50,0.0106
1637.25,0.0106
1637.00,0.0105
1636.75,0.0104
1636.50,0.0104
1636.25,0.0104
1636.00,0.0105
1635.75,0.0105
1635.50,0.0103
1635.25,0.0100
1635.00,0.0099
1634.75,0.0101
1634.50,0.0103
1634.25,0.0104
1634.00,0.0104
1633.75,0.0104
1633.50,0.0104
1633.25,0.0105
1633.00,0.0106
1632.75,0.0108
1632.50,0.0109
1632.25,0.0110
1632.00,0.0111
1631.75,0.0111
1631.50,0.0110
1631.25,0.0109
1631.00,0.0109
1630.75,0.0108
1630.50,0.0108
1630.25,0.0109
1630.00,0.0110
1629.75,0.0110
1629.50,0.0110
1629.25,0.0110
1629.00,0.0108
1628.75,0.0107
1628.50,0.0107
1628.25,0.0106
1628.00,0.0106
1627.75,0.0107
1627.50,0.0108
1627.25,0.0109
1627.00,0.0110
1626.75,0.0110
1626.50,0.0110
1626.25,0.0110
1626.00,0.0109
1625.75,0.0109
1625.50,0.0109
1625.25,0.0109
1625.00,0.0109
1624.75,0.0109
1624.50,0.0108
1624.25,0.0108
1624.00,0.0108
1623.75,0.0108
1623.50,0.0108
1623.25,0.0108
1623.00,0.0108
1622.75,0.0107
1622.50,0.0106
1622.25,0.0105
1622.00,0.0106
1621.75,0.0107
1621.50,0.0108
1621.25,0.0109
1621.00,0.0109
1620.75,0.0109
1620.50,0.0108
1620.25,0.0108
1620.00,0.0108
1619.75,0.0108
1619.50,0.0109
1619.25,0.0110
1619.00,0.0110
1618.75,0.0110
1618.50,0.0110
1618.25,0.0110
1618.00,0.0110
1617.75,0.0109
1617.50,0.0107
1617.25,0.0106
1617.00,0.0106
1616.75,0.0107
1616.50,0.0106
1616.25,0.0106
1616.00,0.0106
1615.75,0.0106
1615.50,0.0106
1615.25,0.0106
1615.00,0.0107
1614.75,0.0107
1614.50,0.0107
1614.25,0.0107
1614.00,0.0107
1613.75,0.0107
1613.50,0.0107
1613.25,0.0107
1613.00,0.0107
1612.75,0.0106
1612.50,0.0106
1612.25,0.0105
1612.00,0.0105
1611.75,0.0106
1611.50,0.0105
1611.25,0.0105
1611.00,0.0105
1610.75,0.0106
1610.50,0.0106
1610.25,0.0107
1610.00,0.0107
1609.75,0.0106
1609.50,0.0105
1609.25,0.0104
1609.00,0.0103
1608.75,0.0102
1608.50,0.0102
1608.25,0.0101
1608.00,0.0101
1607.75,0.0101
1607.50,0.0102
1607.25,0.0104
1607.00,0.0106
1606.75,0.0108
1606.50,0.0108
1606.25,0.0108
1606.00,0.0106
1605.75,0.0105
1605.50,0.0103
1605.25,0.0101
1605.00,0.0100
1604.75,0.0099
1604.50,0.0098
1604.25,0.0098
1604.00,0.0097
1603.75,0.0097
1603.50,0.0098
1603.25,0.0099
1603.00,0.0100
1602.75,0.0101
1602.50,0.0101
1602.25,0.0101
1602.00,0.0100
1601.75,0.0100
1601.50,0.0100
1601.25,0.0099
1601.00,0.0099
1600.75,0.0098
1600.50,0.0098
1600.25,0.0098
1600.00,0.0098
1599.75,0.0098
1599.50,0.0098
1599.25,0.0098
1599.00,0.0098
1598.75,0.0098
1598.50,0.0098
1598.25,0.0098
1598.00,0.0098
1597.75,0.0098
1597.50,0.0098
1597.25,0.0099
1597.00,0.0099
1596.75,0.0100
1596.50,0.0099
1596.25,0.0099
1596.00,0.0099
1595.75,0.0098
1595.50,0.0099
1595.25,0.0099
1595.00,0.0100
1594.75,0.0100
1594.50,0.0100
1594.25,0.0099
1594.00,0.0099
1593.75,0.0099
1593.50,0.0100
1593.25,0.0100
1593.00,0.0100
1592.75,0.0100
1592.50,0.0099
1592.25,0.0097
1592.00,0.0096
1591.75,0.0095
1591.50,0.0095
1591.25,0.0096
1591.00,0.0098
1590.75,0.0099
1590.50,0.0100
1590.25,0.0100
1590.00,0.0098
1589.75,0.0097
1589.50,0.0095
1589.25,0.0096
1589.00,0.0097
1588.75,0.0098
1588.50,0.0099
1588.25,0.0100
1588.00,0.0100
1587.75,0.0099
1587.50,0.0098
1587.25,0.0097
1587.00,0.0096
1586.75,0.0096
1586.50,0.0096
1586.25,0.0097
1586.00,0.0098
1585.75,0.0099
1585.50,0.0100
1585.25,0.0100
1585.00,0.0100
1584.75,0.0100
1584.50,0.0099
1584.25,0.0099
1584.00,0.0098
1583.75,0.0097
1583.50,0.0096
1583.25,0.0096
1583.00,0.0096
1582.75,0.0097
1582.50,0.0098
1582.25,0.0098
1582.00,0.0099
1581.75,0.0099
1581.50,0.0098
1581.25,0.0098
1581.00,0.0097
1580.75,0.0097
1580.50,0.0098
1580.25,0.0098
1580.00,0.0098
1579.75,0.0097
1579.50,0.0097
1579.25,0.0096
1579.00,0.0094
1578.75,0.0093
1578.50,0.0092
1578.25,0.0092
1578.00,0.0093
1577.75,0.0094
1577.50,0.0095
1577.25,0.0095
1577.00,0.0095
1576.75,0.0094
1576.50,0.0091
1576.25,0.0087
1576.00,0.0084
1575.75,0.0085
1575.50,0.0087
1575.25,0.0089
1575.00,0.0091
1574.75,0.0092
1574.50,0.0093
1574.25,0.0094
1574.00,0.0095
1573.75,0.0095
1573.50,0.0095
1573.25,0.0095
1573.00,0.0095
1572.75,0.0094
1572.50,0.0095
1572.25,0.0095
1572.00,0.0095
1571.75,0.0095
1571.50,0.0095
1571.25,0.0094
1571.00,0.0094
1570.75,0.0094
1570.50,0.0094
1570.25,0.0093
1570.00,0.0090
1569.75,0.0087
1569.50,0.0084
1569.25,0.0084
1569.00,0.0084
1568.75,0.0086
1568.50,0.0087
1568.25,0.0089
1568.00,0.0090
1567.75,0.0092
1567.50,0.0094
1567.25,0.0095
1567.00,0.0095
1566.75,0.0096
1566.50,0.0096
1566.25,0.0096
1566.00,0.0096
1565.75,0.0096
1565.50,0.0095
1565.25,0.0095
1565.00,0.0095
1564.75,0.0095
1564.50,0.0094
1564.25,0.0093
1564.00,0.0093
1563.75,0.0093
1563.50,0.0093
1563.25,0.0093
1563.00,0.0093
1562.75,0.0094
1562.50,0.0094
1562.25,0.0094
1562.00,0.0094
1561.75,0.0094
1561.50,0.0094
1561.25,0.0094
1561.00,0.0094
1560.75,0.0094
1560.50,0.0095
1560.25,0.0094
1560.00,0.0091
1559.75,0.0088
1559.50,0.0089
1559.25,0.0092
1559.00,0.0097
1558.75,0.0102
1558.50,0.0106
1558.25,0.0102
1558.00,0.0094
1557.75,0.0088
1557.50,0.0088
1557.25,0.0090
1557.00,0.0091
1556.75,0.0091
1556.50,0.0090
1556.25,0.0090
1556.00,0.0090
1555.75,0.0091
1555.50,0.0093
1555.25,0.0095
1555.00,0.0096
1554.75,0.0096
1554.50,0.0095
1554.25,0.0095
1554.00,0.0094
1553.75,0.0094
1553.50,0.0093
1553.25,0.0092
1553.00,0.0091
1552.75,0.0091
1552.50,0.0091
1552.25,0.0092
1552.00,0.0094
1551.75,0.0096
1551.50,0.0097
1551.25,0.0099
1551.00,0.0099
1550.75,0.0099
1550.50,0.0097
1550.25,0.0095
1550.00,0.0093
1549.75,0.0091
1549.50,0.0092
1549.25,0.0093
1549.00,0.0094
1548.75,0.0094
1548.50,0.0094
1548.25,0.0093
1548.00,0.0091
1547.75,0.0091
1547.50,0.0091
1547.25,0.0091
1547.00,0.0092
1546.75,0.0092
1546.50,0.0093
1546.25,0.0094
1546.00,0.0094
1545.75,0.0095
1545.50,0.0096
1545.25,0.0096
1545.00,0.0094
1544.75,0.0092
1544.50,0.0090
1544.25,0.0089
1544.00,0.0088
1543.75,0.0087
1543.50,0.0086
1543.25,0.0085
1543.00,0.0086
1542.75,0.0088
1542.50,0.0092
1542.25,0.0096
1542.00,0.0099
1541.75,0.0097
1541.50,0.0094
1541.25,0.0091
1541.00,0.0089
1540.75,0.0089
1540.50,0.0092
1540.25,0.0096
1540.00,0.0100
1539.75,0.0099
1539.50,0.0095
1539.25,0.0091
1539.00,0.0090
1538.75,0.0091
1538.50,0.0092
1538.25,0.0091
1538.00,0.0090
1537.75,0.0088
1537.50,0.0088
1537.25,0.0088
1537.00,0.0089
1536.75,0.0089
1536.50,0.0090
1536.25,0.0092
1536.00,0.0093
1535.75,0.0094
1535.50,0.0094
1535.25,0.0094
1535.00,0.0094
1534.75,0.0094
1534.50,0.0093
1534.25,0.0093
1534.00,0.0092
1533.75,0.0090
1533.50,0.0088
1533.25,0.0086
1533.00,0.0086
1532.75,0.0087
1532.50,0.0088
1532.25,0.0089
1532.00,0.0090
1531.75,0.0090
1531.50,0.0090
1531.25,0.0090
1531.00,0.0090
1530.75,0.0091
1530.50,0.0093
1530.25,0.0094
1530.00,0.0095
1529.75,0.0095
1529.50,0.0095
1529.25,0.0094
1529.00,0.0092
1528.75,0.0091
1528.50,0.0089
1528.25,0.0089
1528.00,0.0089
1527.75,0.0090
1527.50,0.0090
1527.25,0.0090
1527.00,0.0090
1526.75,0.0090
1526.50,0.0090
1526.25,0.0090
1526.00,0.0090
1525.75,0.0090
1525.50,0.0090
1525.25,0.0091
1525.00,0.0091
1524.75,0.0091
1524.50,0.0090
1524.25,0.0088
1524.00,0.0087
1523.75,0.0087
1523.50,0.0087
1523.25,0.0088
1523.00,0.0089
1522.75,0.0090
1522.50,0.0091
1522.25,0.0091
1522.00,0.0091
1521.75,0.0090
1521.50,0.0089
1521.25,0.0088
1521.00,0.0088
1520.75,0.0090
1520.50,0.0091
1520.25,0.0092
1520.00,0.0091
1519.75,0.0090
1519.50,0.0089
1519.25,0.0087
1519.00,0.0086
1518.75,0.0086
1518.50,0.0086
1518.25,0.0087
1518.00,0.0088
1517.75,0.0090
1517.50,0.0091
1517.25,0.0090
1517.00,0.0089
1516.75,0.0088
1516.50,0.0088
1516.25,0.0089
1516.00,0.0089
1515.75,0.0089
1515.50,0.0089
1515.25,0.0089
1515.00,0.0089
1514.75,0.0089
1514.50,0.0089
1514.25,0.0089
1514.00,0.0088
1513.75,0.0088
1513.50,0.0089
1513.25,0.0089
1513.00,0.0089
1512.75,0.0089
1512.50,0.0089
1512.25,0.0088
1512.00,0.0087
1511.75,0.0086
1511.50,0.0086
1511.25,0.0087
1511.00,0.0087
1510.75,0.0088
1510.50,0.0089
1510.25,0.0088
1510.00,0.0086
1509.75,0.0084
1509.50,0.0083
1509.25,0.0082
1509.00,0.0082
1508.75,0.0081
1508.50,0.0080
1508.25,0.0078
1508.00,0.0077
1507.75,0.0077
1507.50,0.0078
1507.25,0.0081
1507.00,0.0086
1506.75,0.0086
1506.50,0.0082
1506.25,0.0077
1506.00,0.0072
1505.75,0.0070
1505.50,0.0071
1505.25,0.0076
1505.00,0.0080
1504.75,0.0081
1504.50,0.0082
1504.25,0.0082
1504.00,0.0082
1503.75,0.0082
1503.50,0.0083
1503.25,0.0084
1503.00,0.0085
1502.75,0.0085
1502.50,0.0084
1502.25,0.0083
1502.00,0.0083
1501.75,0.0084
1501.50,0.0086
1501.25,0.0088
1501.00,0.0089
1500.75,0.0090
1500.50,0.0089
1500.25,0.0089
1500.00,0.0088
1499.75,0.0088
1499.50,0.0089
1499.25,0.0090
1499.00,0.0091
1498.75,0.0092
1498.50,0.0091
1498.25,0.0088
1498.00,0.0086
1497.75,0.0084
1497.50,0.0083
1497.25,0.0083
1497.00,0.0083
1496.75,0.0082
1496.50,0.0082
1496.25,0.0083
1496.00,0.0085
1495.75,0.0086
1495.50,0.0086
1495.25,0.0086
1495.00,0.0085
1494.75,0.0084
1494.50,0.0084
1494.25,0.0085
1494.00,0.0086
1493.75,0.0087
1493.50,0.0089
1493.25,0.0091
1493.00,0.0092
1492.75,0.0092
1492.50,0.0091
1492.25,0.0090
1492.00,0.0089
1491.75,0.0088
1491.50,0.0088
1491.25,0.0088
1491.00,0.0086
1490.75,0.0084
1490.50,0.0080
1490.25,0.0077
1490.00,0.0076
1489.75,0.0076
1489.50,0.0079
1489.25,0.0081
1489.00,0.0083
1488.75,0.0083
1488.50,0.0084
1488.25,0.0085
1488.00,0.0086
1487.75,0.0087
1487.50,0.0087
1487.25,0.0087
1487.00,0.0086
1486.75,0.0086
1486.50,0.0085
1486.25,0.0085
1486.00,0.0085
1485.75,0.0085
1485.50,0.0086
1485.25,0.0087
1485.00,0.0087
1484.75,0.0087
1484.50,0.0088
1484.25,0.0089
1484.00,0.0089
1483.75,0.0090
1483.50,0.0090
1483.25,0.0090
1483.00,0.0091
1482.75,0.0091
1482.50,0.0091
1482.25,0.0090
1482.00,0.0089
1481.75,0.0089
1481.50,0.0089
1481.25,0.0090
1481.00,0.0091
1480.75,0.0091
1480.50,0.0090
1480.25,0.0090
1480.00,0.0089
1479.75,0.0089
1479.50,0.0089
1479.25,0.0089
1479.00,0.0090
1478.75,0.0090
1478.50,0.0091
1478.25,0.0091
1478.00,0.0091
1477.75,0.0090
1477.50,0.0090
1477.25,0.0090
1477.00,0.0090
1476.75,0.0090
1476.50,0.0089
1476.25,0.0089
1476.00,0.0088
1475.75,0.0088
1475.50,0.0089
1475.25,0.0089
1475.00,0.0089
1474.75,0.0089
1474.50,0.0090
1474.25,0.0090
1474.00,0.0091
1473.75,0.0090
1473.50,0.0089
1473.25,0.0088
1473.00,0.0088
1472.75,0.0088
1472.50,0.0089
1472.25,0.0089
1472.00,0.0088
1471.75,0.0088
1471.50,0.0088
1471.25,0.0088
1471.00,0.0087
1470.75,0.0086
1470.50,0.0087
1470.25,0.0088
1470.00,0.0090
1469.75,0.0092
1469.50,0.0093
1469.25,0.0093
1469.00,0.0092
1468.75,0.0092
1468.50,0.0092
1468.25,0.0092
1468.00,0.0092
1467.75,0.0091
1467.50,0.0091
1467.25,0.0091
1467.00,0.0091
1466.75,0.0091
1466.50,0.0092
1466.25,0.0092
1466.00,0.0092
1465.75,0.0093
1465.50,0.0094
1465.25,0.0094
1465.00,0.0095
1464.75,0.0096
1464.50,0.0097
1464.25,0.0097
1464.00,0.0095
1463.75,0.0094
1463.50,0.0093
1463.25,0.0093
1463.00,0.0094
1462.75,0.0095
1462.50,0.0096
1462.25,0.0096
1462.00,0.0095
1461.75,0.0095
1461.50,0.0094
1461.25,0.0093
1461.00,0.0093
1460.75,0.0093
1460.50,0.0093
1460.25,0.0093
1460.00,0.0092
1459.75,0.0091
1459.50,0.0090
1459.25,0.0089
1459.00,0.0089
1458.75,0.0089
1458.50,0.0089
1458.25,0.0089
1458.00,0.0090
1457.75,0.0091
1457.50,0.0093
1457.25,0.0095
1457.00,0.0096
1456.75,0.0097
1456.50,0.0096
1456.25,0.0096
1456.00,0.0094
1455.75,0.0092
1455.50,0.0090
1455.25,0.0090
1455.00,0.0091
1454.75,0.0094
1454.50,0.0097
1454.25,0.0100
1454.00,0.0102
1453.75,0.0102
1453.50,0.0101
1453.25,0.0100
1453.00,0.0100
1452.75,0.0099
1452.50,0.0099
1452.25,0.0099
1452.00,0.0099
1451.75,0.0099
1451.50,0.0099
1451.25,0.0099
1451.00,0.0099
1450.75,0.0098
1450.50,0.0097
1450.25,0.0095
1450.00,0.0094
1449.75,0.0093
1449.50,0.0093
1449.25,0.0094
1449.00,0.0094
1448.75,0.0095
1448.50,0.0094
1448.25,0.0093
1448.00,0.0092
1447.75,0.0093
1447.50,0.0094
1447.25,0.0096
1447.00,0.0097
1446.75,0.0098
1446.50,0.0099
1446.25,0.0100
1446.00,0.0101
1445.75,0.0101
1445.50,0.0102
1445.25,0.0102
1445.00,0.0101
1444.75,0.0101
1444.50,0.0100
1444.25,0.0100
1444.00,0.0100
1443.75,0.0101
1443.50,0.0101
1443.25,0.0102
1443.00,0.0102
1442.75,0.0101
1442.50,0.0100
1442.25,0.0100
1442.00,0.0099
1441.75,0.0098
1441.50,0.0097
1441.25,0.0096
1441.00,0.0096
1440.75,0.0097
1440.50,0.0099
1440.25,0.0100
1440.00,0.0101
1439.75,0.0101
1439.50,0.0100
1439.25,0.0099
1439.00,0.0098
1438.75,0.0096
1438.50,0.0096
1438.25,0.0096
1438.00,0.0098
1437.75,0.0100
1437.50,0.0102
1437.25,0.0105
1437.00,0.0107
1436.75,0.0106
1436.50,0.0104
1436.25,0.0102
1436.00,0.0100
1435.75,0.0098
1435.50,0.0097
1435.25,0.0097
1435.00,0.0096
1434.75,0.0096
1434.50,0.0096
1434.25,0.0097
1434.00,0.0098
1433.75,0.0100
1433.50,0.0101
1433.25,0.0101
1433.00,0.0101
1432.75,0.0101
1432.50,0.0101
1432.25,0.0101
1432.00,0.0101
1431.75,0.0101
1431.50,0.0101
1431.25,0.0101
1431.00,0.0101
1430.75,0.0100
1430.50,0.0100
1430.25,0.0100
1430.00,0.0100
1429.75,0.0102
1429.50,0.0102
1429.25,0.0102
1429.00,0.0101
1428.75,0.0101
1428.50,0.0102
1428.25,0.0103
1428.00,0.0105
1427.75,0.0107
1427.50,0.0108
1427.25,0.0108
1427.00,0.0108
1426.75,0.0107
1426.50,0.0107
1426.25,0.0108
1426.00,0.0108
1425.75,0.0109
1425.50,0.0109
1425.25,0.0108
1425.00,0.0107
1424.75,0.0106
1424.50,0.0106
1424.25,0.0106
1424.00,0.0107
1423.75,0.0108
1423.50,0.0109
1423.25,0.0109
1423.00,0.0110
1422.75,0.0110
1422.50,0.0111
1422.25,0.0112
1422.00,0.0113
1421.75,0.0115
1421.50,0.0116
1421.25,0.0118
1421.00,0.0118
1420.75,0.0118
1420.50,0.0118
1420.25,0.0118
1420.00,0.0118
1419.75,0.0117
1419.50,0.0117
1419.25,0.0119
1419.00,0.0123
1418.75,0.0125
1418.50,0.0126
1418.25,0.0126
1418.00,0.0126
1417.75,0.0126
1417.50,0.0127
1417.25,0.0128
1417.00,0.0129
1416.75,0.0129
1416.50,0.0128
1416.25,0.0128
1416.00,0.0128
1415.75,0.0128
1415.50,0.0129
1415.25,0.0130
1415.00,0.0132
1414.75,0.0133
1414.50,0.0135
1414.25,0.0136
1414.00,0.0137
1413.75,0.0137
1413.50,0.0138
1413.25,0.0139
1413.00,0.0140
1412.75,0.0139
1412.50,0.0139
1412.25,0.0138
1412.00,0.0139
1411.75,0.0139
1411.50,0.0140
1411.25,0.0140
1411.00,0.0139
1410.75,0.0137
1410.50,0.0136
1410.25,0.0134
1410.00,0.0134
1409.75,0.0135
1409.50,0.0136
1409.25,0.0137
1409.00,0.0137
1408.75,0.0138
1408.50,0.0138
1408.25,0.0138
1408.00,0.0139
1407.75,0.0138
1407.50,0.0138
1407.25,0.0137
1407.00,0.0136
1406.75,0.0135
1406.50,0.0134
1406.25,0.0134
1406.00,0.0135
1405.75,0.0136
1405.50,0.0136
1405.25,0.0135
1405.00,0.0133
1404.75,0.0131
1404.50,0.0131
1404.25,0.0131
1404.00,0.0132
1403.75,0.0133
1403.50,0.0134
1403.25,0.0134
1403.00,0.0133
1402.75,0.0132
1402.50,0.0131
1402.25,0.0129
1402.00,0.0128
1401.75,0.0128
1401.50,0.0128
1401.25,0.0128
1401.00,0.0128
1400.75,0.0128
1400.50,0.0127
1400.25,0.0125
1400.00,0.0124
1399.75,0.0122
1399.50,0.0120
1399.25,0.0118
1399.00,0.0118
1398.75,0.0119
1398.50,0.0120
1398.25,0.0120
1398.00,0.0120
1397.75,0.0119
1397.50,0.0118
1397.25,0.0117
1397.00,0.0115
1396.75,0.0114
1396.50,0.0113
1396.25,0.0112
1396.00,0.0112
1395.75,0.0112
1395.50,0.0113
1395.25,0.0113
1395.00,0.0114
1394.75,0.0115
1394.50,0.0115
1394.25,0.0114
1394.00,0.0113
1393.75,0.0111
1393.50,0.0110
1393.25,0.0110
1393.00,0.0111
1392.75,0.0112
1392.50,0.0112
1392.25,0.0111
1392.00,0.0110
1391.75,0.0109
1391.50,0.0108
1391.25,0.0107
1391.00,0.0106
1390.75,0.0106
1390.50,0.0105
1390.25,0.0106
1390.00,0.0106
1389.75,0.0106
1389.50,0.0106
1389.25,0.0105
1389.00,0.0105
1388.75,0.0105
1388.50,0.0104
1388.25,0.0104
1388.00,0.0104
1387.75,0.0104
1387.50,0.0104
1387.25,0.0105
1387.00,0.0106
1386.75,0.0106
1386.50,0.0105
1386.25,0.0104
1386.00,0.0103
1385.75,0.0103
1385.50,0.0104
1385.25,0.0105
1385.00,0.0105
1384.75,0.0105
1384.50,0.0103
1384.25,0.0102
1384.00,0.0101
1383.75,0.0101
1383.50,0.0101
1383.25,0.0102
1383.00,0.0103
1382.75,0.0104
1382.50,0.0104
1382.25,0.0105
1382.00,0.0104
1381.75,0.0104
1381.50,0.0103
1381.25,0.0103
1381.00,0.0103
1380.75,0.0103
1380.50,0.0103
1380.25,0.0103
1380.00,0.0104
1379.75,0.0104
1379.50,0.0103
1379.25,0.0102
1379.00,0.0102
1378.75,0.0101
1378.50,0.0101
1378.25,0.0101
1378.00,0.0101
1377.75,0.0102
1377.50,0.0103
1377.25,0.0103
1377.00,0.0103
1376.75,0.0103
1376.50,0.0102
1376.25,0.0101
1376.00,0.0100
1375.75,0.0100
1375.50,0.0100
1375.25,0.0100
1375.00,0.0101
1374.75,0.0101
1374.50,0.0102
1374.25,0.0103
1374.00,0.0103
1373.75,0.0103
1373.50,0.0103
1373.25,0.0103
1373.00,0.0103
1372.75,0.0104
1372.50,0.0104
1372.25,0.0104
1372.00,0.0105
1371.75,0.0105
1371.50,0.0105
1371.25,0.0106
1371.00,0.0107
1370.75,0.0107
1370.50,0.0107
1370.25,0.0107
1370.00,0.0106
1369.75,0.0106
1369.50,0.0106
1369.25,0.0107
1369.00,0.0107
1368.75,0.0108
1368.50,0.0108
1368.25,0.0107
1368.00,0.0106
1367.75,0.0106
1367.50,0.0105
1367.25,0.0106
1367.00,0.0106
1366.75,0.0107
1366.50,0.0108
1366.25,0.0108
1366.00,0.0109
1365.75,0.0109
1365.50,0.0109
1365.25,0.0109
1365.00,0.0109
1364.75,0.0108
1364.50,0.0108
1364.25,0.0109
1364.00,0.0109
1363.75,0.0108
1363.50,0.0108
1363.25,0.0109
1363.00,0.0110
1362.75,0.0112
1362.50,0.0113
1362.25,0.0114
1362.00,0.0113
1361.75,0.0113
1361.50,0.0112
1361.25,0.0112
1361.00,0.0112
1360.75,0.0113
1360.50,0.0115
1360.25,0.0115
1360.00,0.0116
1359.75,0.0116
1359.50,0.0115
1359.25,0.0115
1359.00,0.0115
1358.75,0.0115
1358.50,0.0114
1358.25,0.0114
1358.00,0.0114
1357.75,0.0114
1357.50,0.0113
1357.25,0.0113
1357.00,0.0112
1356.75,0.0112
1356.50,0.0113
1356.25,0.0113
1356.00,0.0113
1355.75,0.0113
1355.50,0.0113
1355.25,0.0113
1355.00,0.0113
1354.75,0.0113
1354.50,0.0112
1354.25,0.0111
1354.00,0.0111
1353.75,0.0110
1353.50,0.0110
1353.25,0.0110
1353.00,0.0110
1352.75,0.0111
1352.50,0.0111
1352.25,0.0111
1352.00,0.0111
1351.75,0.0110
1351.50,0.0109
1351.25,0.0107
1351.00,0.0105
1350.75,0.0103
1350.50,0.0102
1350.25,0.0102
1350.00,0.0103
1349.75,0.0104
1349.50,0.0105
1349.25,0.0106
1349.00,0.0106
1348.75,0.0107
1348.50,0.0107
1348.25,0.0107
1348.00,0.0107
1347.75,0.0106
1347.50,0.0105
1347.25,0.0105
1347.00,0.0105
1346.75,0.0104
1346.50,0.0104
1346.25,0.0103
1346.00,0.0104
1345.75,0.0104
1345.50,0.0105
1345.25,0.0105
1345.00,0.0104
1344.75,0.0104
1344.50,0.0104
1344.25,0.0104
1344.00,0.0105
1343.75,0.0105
1343.50,0.0104
1343.25,0.0104
1343.00,0.0103
1342.75,0.0103
1342.50,0.0103
1342.25,0.0104
1342.00,0.0104
1341.75,0.0103
1341.50,0.0103
1341.25,0.0102
1341.00,0.0101
1340.75,0.0100
1340.50,0.0100
1340.25,0.0101
1340.00,0.0102
1339.75,0.0103
1339.50,0.0103
1339.25,0.0104
1339.00,0.0104
1338.75,0.0103
1338.50,0.0102
1338.25,0.0100
1338.00,0.0099
1337.75,0.0099
1337.50,0.0099
1337.25,0.0100
1337.00,0.0101
1336.75,0.0102
1336.50,0.0103
1336.25,0.0103
1336.00,0.0103
1335.75,0.0103
1335.50,0.0103
1335.25,0.0104
1335.00,0.0104
1334.75,0.0104
1334.50,0.0105
1334.25,0.0105
1334.00,0.0106
1333.75,0.0106
1333.50,0.0107
1333.25,0.0107
1333.00,0.0106
1332.75,0.0105
1332.50,0.0103
1332.25,0.0103
1332.00,0.0103
1331.75,0.0103
1331.50,0.0103
1331.25,0.0103
1331.00,0.0102
1330.75,0.0103
1330.50,0.0103
1330.25,0.0105
1330.00,0.0106
1329.75,0.0105
1329.50,0.0105
1329.25,0.0104
1329.00,0.0104
1328.75,0.0104
1328.50,0.0104
1328.25,0.0104
1328.00,0.0104
1327.75,0.0105
1327.50,0.0106
1327.25,0.0107
1327.00,0.0108
1326.75,0.0108
1326.50,0.0108
1326.25,0.0107
1326.00,0.0106
1325.75,0.0106
1325.50,0.0107
1325.25,0.0107
1325.00,0.0107
1324.75,0.0107
1324.50,0.0106
1324.25,0.0106
1324.00,0.0105
1323.75,0.0105
1323.50,0.0105
1323.25,0.0106
1323.00,0.0106
1322.75,0.0107
1322.50,0.0107
1322.25,0.0108
1322.00,0.0108
1321.75,0.0109
1321.50,0.0109
1321.25,0.0109
1321.00,0.0109
1320.75,0.0109
1320.50,0.0109
1320.25,0.0108
1320.00,0.0108
1319.75,0.0108
1319.50,0.0108
1319.25,0.0108
1319.00,0.0108
1318.75,0.0108
1318.50,0.0108
1318.25,0.0109
1318.00,0.0110
1317.75,0.0111
1317.50,0.0111
1317.25,0.0111
1317.00,0.0110
1316.75,0.0109
1316.50,0.0109
1316.25,0.0109
1316.00,0.0109
1315.75,0.0110
1315.50,0.0110
1315.25,0.0110
1315.00,0.0110
1314.75,0.0109
1314.50,0.0109
1314.25,0.0109
1314.00,0.0108
1313.75,0.0108
1313.50,0.0108
1313.25,0.0108
1313.00,0.0109
1312.75,0.0109
1312.50,0.0110
1312.25,0.0110
1312.00,0.0109
1311.75,0.0109
1311.50,0.0109
1311.25,0.0110
1311.00,0.0111
1310.75,0.0112
1310.50,0.0112
1310.25,0.0113
1310.00,0.0115
1309.75,0.0116
1309.50,0.0117
1309.25,0.0117
1309.00,0.0116
1308.75,0.0115
1308.50,0.0115
1308.25,0.0116
1308.00,0.0116
1307.75,0.0116
1307.50,0.0116
1307.25,0.0116
1307.00,0.0116
1306.75,0.0115
1306.50,0.0115
1306.25,0.0115
1306.00,0.0115
1305.75,0.0116
1305.50,0.0117
1305.25,0.0117
1305.00,0.0117
1304.75,0.0116
1304.50,0.0115
1304.25,0.0115
1304.00,0.0116
1303.75,0.0117
1303.50,0.0118
1303.25,0.0119
1303.00,0.0119
1302.75,0.0119
1302.50,0.0118
1302.25,0.0118
1302.00,0.0118
1301.75,0.0120
1301.50,0.0121
1301.25,0.0122
1301.00,0.0122
1300.75,0.0121
1300.50,0.0120
1300.25,0.0120
1300.00,0.0120
1299.75,0.0121
1299.50,0.0122
1299.25,0.0123
1299.00,0.0123
1298.75,0.0123
1298.50,0.0123
1298.25,0.0124
1298.00,0.0125
1297.75,0.0126
1297.50,0.0127
1297.25,0.0127
1297.00,0.0127
1296.75,0.0128
1296.50,0.0127
1296.25,0.0127
1296.00,0.0127
1295.75,0.0126
1295.50,0.0126
1295.25,0.0126
1295.00,0.0126
1294.75,0.0127
1294.50,0.0129
1294.25,0.0130
1294.00,0.0131
1293.75,0.0132
1293.50,0.0132
1293.25,0.0133
1293.00,0.0133
1292.75,0.0133
1292.50,0.0134
1292.25,0.0134
1292.00,0.0135
1291.75,0.0136
1291.50,0.0137
1291.25,0.0138
1291.00,0.0139
1290.75,0.0140
1290.50,0.0140
1290.25,0.0141
1290.00,0.0141
1289.75,0.0142
1289.50,0.0142
1289.25,0.0143
1289.00,0.0145
1288.75,0.0147
1288.50,0.0149
1288.25,0.0151
1288.00,0.0152
1287.75,0.0153
1287.50,0.0154
1287.25,0.0154
1287.00,0.0155
1286.75,0.0156
1286.50,0.0158
1286.25,0.0160
1286.00,0.0163
1285.75,0.0167
1285.50,0.0171
1285.25,0.0175
1285.00,0.0180
1284.75,0.0184
1284.50,0.0187
1284.25,0.0191
1284.00,0.0194
1283.75,0.0196
1283.50,0.0199
1283.25,0.0202
1283.00,0.0206
1282.75,0.0210
1282.50,0.0215
1282.25,0.0221
1282.00,0.0228
1281.75,0.0235
1281.50,0.0244
1281.25,0.0253
1281.00,0.0262
1280.75,0.0271
1280.50,0.0280
1280.25,0.0288
1280.00,0.0296
1279.75,0.0304
1279.50,0.0314
1279.25,0.0324
1279.00,0.0335
1278.75,0.0348
1278.50,0.0360
1278.25,0.0372
1278.00,0.0383
1277.75,0.0395
1277.50,0.0406
1277.25,0.0418
1277.00,0.0431
1276.75,0.0444
1276.50,0.0457
1276.25,0.0469
1276.00,0.0480
1275.75,0.0491
1275.50,0.0502
1275.25,0.0513
1275.00,0.0525
1274.75,0.0536
1274.50,0.0546
1274.25,0.0555
1274.00,0.0563
1273.75,0.0571
1273.50,0.0578
1273.25,0.0585
1273.00,0.0591
1272.75,0.0596
1272.50,0.0601
1272.25,0.0606
1272.00,0.0610
1271.75,0.0613
1271.50,0.0616
1271.25,0.0618
1271.00,0.0619
1270.75,0.0620
1270.50,0.0621
1270.25,0.0621
1270.00,0.0620
1269.75,0.0618
1269.50,0.0616
1269.25,0.0614
1269.00,0.0612
1268.75,0.0612
1268.50,0.0612
1268.25,0.0612
1268.00,0.0611
1267.75,0.0611
1267.50,0.0610
1267.25,0.0609
1267.00,0.0610
1266.75,0.0611
1266.50,0.0612
1266.25,0.0615
1266.00,0.0617
1265.75,0.0620
1265.50,0.0623
1265.25,0.0625
1265.00,0.0627
1264.75,0.0629
1264.50,0.0632
1264.25,0.0634
1264.00,0.0637
1263.75,0.0640
1263.50,0.0643
1263.25,0.0646
1263.00,0.0649
1262.75,0.0652
1262.50,0.0653
1262.25,0.0654
1262.00,0.0653
1261.75,0.0651
1261.50,0.0650
1261.25,0.0647
1261.00,0.0645
1260.75,0.0642
1260.50,0.0637
1260.25,0.0631
1260.00,0.0625
1259.75,0.0617
1259.50,0.0610
1259.25,0.0602
1259.00,0.0594
1258.75,0.0586
1258.50,0.0577
1258.25,0.0568
1258.00,0.0558
1257.75,0.0547
1257.50,0.0536
1257.25,0.0524
1257.00,0.0511
1256.75,0.0499
1256.50,0.0487
1256.25,0.0476
1256.00,0.0466
1255.75,0.0456
1255.50,0.0446
1255.25,0.0436
1255.00,0.0426
1254.75,0.0416
1254.50,0.0407
1254.25,0.0398
1254.00,0.0389
1253.75,0.0381
1253.50,0.0372
1253.25,0.0363
1253.00,0.0355
1252.75,0.0347
1252.50,0.0339
1252.25,0.0331
1252.00,0.0322
1251.75,0.0314
1251.50,0.0306
1251.25,0.0299
1251.00,0.0293
1250.75,0.0287
1250.50,0.0282
1250.25,0.0277
1250.00,0.0273
1249.75,0.0268
1249.50,0.0263
1249.25,0.0257
1249.00,0.0251
1248.75,0.0246
1248.50,0.0243
1248.25,0.0240
1248.00,0.0237
1247.75,0.0234
1247.50,0.0231
1247.25,0.0228
1247.00,0.0225
1246.75,0.0223
1246.50,0.0221
1246.25,0.0220
1246.00,0.0218
1245.75,0.0216
1245.50,0.0214
1245.25,0.0212
1245.00,0.0210
1244.75,0.0208
1244.50,0.0206
1244.25,0.0205
1244.00,0.0203
1243.75,0.0203
1243.50,0.0203
1243.25,0.0203
1243.00,0.0203
1242.75,0.0203
1242.50,0.0203
1242.25,0.0203
1242.00,0.0203
1241.75,0.0203
1241.50,0.0202
1241.25,0.0202
1241.00,0.0203
1240.75,0.0203
1240.50,0.0204
1240.25,0.0204
1240.00,0.0204
1239.75,0.0204
1239.50,0.0204
1239.25,0.0204
1239.00,0.0205
1238.75,0.0205
1238.50,0.0205
1238.25,0.0206
1238.00,0.0206
1237.75,0.0206
1237.50,0.0207
1237.25,0.0209
1237.00,0.0210
1236.75,0.0211
1236.50,0.0211
1236.25,0.0210
1236.00,0.0210
1235.75,0.0211
1235.50,0.0212
1235.25,0.0213
1235.00,0.0214
1234.75,0.0214
1234.50,0.0214
1234.25,0.0214
1234.00,0.0214
1233.75,0.0215
1233.50,0.0215
1233.25,0.0215
1233.00,0.0216
1232.75,0.0218
1232.50,0.0220
1232.25,0.0223
1232.00,0.0225
1231.75,0.0228
1231.50,0.0230
1231.25,0.0231
1231.00,0.0232
1230.75,0.0231
1230.50,0.0231
1230.25,0.0231
1230.00,0.0232
1229.75,0.0234
1229.50,0.0237
1229.25,0.0239
1229.00,0.0241
1228.75,0.0242
1228.50,0.0243
1228.25,0.0244
1228.00,0.0246
1227.75,0.0248
1227.50,0.0250
1227.25,0.0251
1227.00,0.0251
1226.75,0.0250
1226.50,0.0250
1226.25,0.0251
1226.00,0.0252
1225.75,0.0254
1225.50,0.0256
1225.25,0.0258
1225.00,0.0261
1224.75,0.0263
1224.50,0.0264
1224.25,0.0264
1224.00,0.0264
1223.75,0.0265
1223.50,0.0267
1223.25,0.0269
1223.00,0.0271
1222.75,0.0272
1222.50,0.0274
1222.25,0.0276
1222.00,0.0278
1221.75,0.0280
1221.50,0.0282
1221.25,0.0283
1221.00,0.0284
1220.75,0.0284
1220.50,0.0284
1220.25,0.0285
1220.00,0.0285
1219.75,0.0286
1219.50,0.0288
1219.25,0.0291
1219.00,0.0294
1218.75,0.0298
1218.50,0.0302
1218.25,0.0305
1218.00,0.0307
1217.75,0.0308
1217.50,0.0309
1217.25,0.0309
1217.00,0.0310
1216.75,0.0310
1216.50,0.0310
1216.25,0.0311
1216.00,0.0312
1215.75,0.0313
1215.50,0.0315
1215.25,0.0318
1215.00,0.0320
1214.75,0.0322
1214.50,0.0325
1214.25,0.0327
1214.00,0.0329
1213.75,0.0330
1213.50,0.0331
1213.25,0.0331
1213.00,0.0332
1212.75,0.0333
1212.50,0.0334
1212.25,0.0336
1212.00,0.0339
1211.75,0.0340
1211.50,0.0342
1211.25,0.0343
1211.00,0.0344
1210.75,0.0346
1210.50,0.0347
1210.25,0.0348
1210.00,0.0349
1209.75,0.0350
1209.50,0.0352
1209.25,0.0354
1209.00,0.0357
1208.75,0.0359
1208.50,0.0360
1208.25,0.0360
1208.00,0.0360
1207.75,0.0359
1207.50,0.0358
1207.25,0.0359
1207.00,0.0361
1206.75,0.0364
1206.50,0.0367
1206.25,0.0369
1206.00,0.0369
1205.75,0.0370
1205.50,0.0371
1205.25,0.0372
1205.00,0.0375
1204.75,0.0377
1204.50,0.0379
1204.25,0.0381
1204.00,0.0383
1203.75,0.0385
1203.50,0.0388
1203.25,0.0390
1203.00,0.0392
1202.75,0.0392
1202.50,0.0392
1202.25,0.0391
1202.00,0.0392
1201.75,0.0393
1201.50,0.0394
1201.25,0.0397
1201.00,0.0398
1200.75,0.0400
1200.50,0.0400
1200.25,0.0401
1200.00,0.0402
1199.75,0.0404
1199.50,0.0406
1199.25,0.0408
1199.00,0.0410
1198.75,0.0412
1198.50,0.0414
1198.25,0.0417
1198.00,0.0420
1197.75,0.0422
1197.50,0.0422
1197.25,0.0422
1197.00,0.0423
1196.75,0.0424
1196.50,0.0427
1196.25,0.0429
1196.00,0.0431
1195.75,0.0431
1195.50,0.0430
1195.25,0.0430
1195.00,0.0431
1194.75,0.0432
1194.50,0.0433
1194.25,0.0435
1194.00,0.0436
1193.75,0.0437
1193.50,0.0438
1193.25,0.0440
1193.00,0.0441
1192.75,0.0443
1192.50,0.0445
1192.25,0.0447
1192.00,0.0449
1191.75,0.0451
1191.50,0.0452
1191.25,0.0454
1191.00,0.0456
1190.75,0.0457
1190.50,0.0459
1190.25,0.0461
1190.00,0.0463
1189.75,0.0464
1189.50,0.0464
1189.25,0.0465
1189.00,0.0466
1188.75,0.0467
1188.50,0.0469
1188.25,0.0471
1188.00,0.0473
1187.75,0.0475
1187.50,0.0478
1187.25,0.0480
1187.00,0.0482
1186.75,0.0483
1186.50,0.0484
1186.25,0.0484
1186.00,0.0485
1185.75,0.0487
1185.50,0.0489
1185.25,0.0491
1185.00,0.0493
1184.75,0.0495
1184.50,0.0498
1184.25,0.0501
1184.00,0.0504
1183.75,0.0505
1183.50,0.0507
1183.25,0.0507
1183.00,0.0507
1182.75,0.0507
1182.50,0.0508
1182.25,0.0508
1182.00,0.0510
1181.75,0.0512
1181.50,0.0515
1181.25,0.0518
1181.00,0.0521
1180.75,0.0523
1180.50,0.0525
1180.25,0.0527
1180.00,0.0530
1179.75,0.0533
1179.50,0.0537
1179.25,0.0540
1179.00,0.0542
1178.75,0.0543
1178.50,0.0543
1178.25,0.0543
1178.00,0.0544
1177.75,0.0545
1177.50,0.0546
1177.25,0.0548
1177.00,0.0551
1176.75,0.0553
1176.50,0.0556
1176.25,0.0558
1176.00,0.0559
1175.75,0.0561
1175.50,0.0562
1175.25,0.0564
1175.00,0.0566
1174.75,0.0569
1174.50,0.0572
1174.25,0.0575
1174.00,0.0577
1173.75,0.0578
1173.50,0.0578
1173.25,0.0580
1173.00,0.0583
1172.75,0.0586
1172.50,0.0590
1172.25,0.0594
1172.00,0.0597
1171.75,0.0599
1171.50,0.0601
1171.25,0.0603
1171.00,0.0605
1170.75,0.0607
1170.50,0.0609
1170.25,0.0612
1170.00,0.0615
1169.75,0.0618
1169.50,0.0621
1169.25,0.0624
1169.00,0.0627
1168.75,0.0628
1168.50,0.0629
1168.25,0.0630
1168.00,0.0630
1167.75,0.0631
1167.50,0.0633
1167.25,0.0635
1167.00,0.0638
1166.75,0.0642
1166.50,0.0645
1166.25,0.0648
1166.00,0.0652
1165.75,0.0655
1165.50,0.0659
1165.25,0.0662
1165.00,0.0664
1164.75,0.0665
1164.50,0.0665
1164.25,0.0666
1164.00,0.0667
1163.75,0.0668
1163.50,0.0671
1163.25,0.0674
1163.00,0.0678
1162.75,0.0681
1162.50,0.0685
1162.25,0.0688
1162.00,0.0690
1161.75,0.0692
1161.50,0.0694
1161.25,0.0696
1161.00,0.0698
1160.75,0.0701
1160.50,0.0704
1160.25,0.0707
1160.00,0.0710
1159.75,0.0712
1159.50,0.0713
1159.25,0.0716
1159.00,0.0719
1158.75,0.0722
1158.50,0.0726
1158.25,0.0730
1158.00,0.0734
1157.75,0.0736
1157.50,0.0739
1157.25,0.0741
1157.00,0.0743
1156.75,0.0744
1156.50,0.0746
1156.25,0.0748
1156.00,0.0751
1155.75,0.0754
1155.50,0.0756
1155.25,0.0758
1155.00,0.0760
1154.75,0.0762
1154.50,0.0766
1154.25,0.0771
1154.00,0.0775
1153.75,0.0779
1153.50,0.0782
1153.25,0.0785
1153.00,0.0787
1152.75,0.0790
1152.50,0.0792
1152.25,0.0795
1152.00,0.0797
1151.75,0.0799
1151.50,0.0802
1151.25,0.0805
1151.00,0.0809
1150.75,0.0813
1150.50,0.0817
1150.25,0.0820
1150.00,0.0822
1149.75,0.0823
1149.50,0.0825
1149.25,0.0828
1149.00,0.0831
1148.75,0.0835
1148.50,0.0838
1148.25,0.0841
1148.00,0.0843
1147.75,0.0846
1147.50,0.0849
1147.25,0.0852
1147.00,0.0855
1146.75,0.0858
1146.50,0.0861
1146.25,0.0863
1146.00,0.0865
1145.75,0.0868
1145.50,0.0872
1145.25,0.0876
1145.00,0.0879
1144.75,0.0882
1144.50,0.0885
1144.25,0.0887
1144.00,0.0891
1143.75,0.0895
1143.50,0.0899
1143.25,0.0902
1143.00,0.0905
1142.75,0.0908
1142.50,0.0911
1142.25,0.0914
1142.00,0.0916
1141.75,0.0918
1141.50,0.0920
1141.25,0.0923
1141.00,0.0926
1140.75,0.0930
1140.50,0.0933
1140.25,0.0937
1140.00,0.0940
1139.75,0.0943
1139.50,0.0947
1139.25,0.0951
1139.00,0.0954
1138.75,0.0957
1138.50,0.0958
1138.25,0.0959
1138.00,0.0960
1137.75,0.0963
1137.50,0.0967
1137.25,0.0972
1137.00,0.0976
1136.75,0.0979
1136.50,0.0981
1136.25,0.0982
1136.00,0.0983
1135.75,0.0985
1135.50,0.0988
1135.25,0.0991
1135.00,0.0994
1134.75,0.0998
1134.50,0.1000
1134.25,0.1001
1134.00,0.1002
1133.75,0.1003
1133.50,0.1005
1133.25,0.1008
1133.00,0.1013
1132.75,0.1016
1132.50,0.1019
1132.25,0.1021
1132.00,0.1022
1131.75,0.1024
1131.50,0.1029
1131.25,0.1035
1131.00,0.1041
1130.75,0.1047
1130.50,0.1051
1130.25,0.1054
1130.00,0.1055
1129.75,0.1054
1129.50,0.1054
1129.25,0.1054
1129.00,0.1056
1128.75,0.1060
1128.50,0.1063
1128.25,0.1067
1128.00,0.1070
1127.75,0.1072
1127.50,0.1075
1127.25,0.1077
1127.00,0.1079
1126.75,0.1081
1126.50,0.1083
1126.25,0.1085
1126.00,0.1088
1125.75,0.1090
1125.50,0.1094
1125.25,0.1097
1125.00,0.1100
1124.75,0.1103
1124.50,0.1106
1124.25,0.1110
1124.00,0.1114
1123.75,0.1118
1123.50,0.1122
1123.25,0.1126
1123.00,0.1130
1122.75,0.1132
1122.50,0.1134
1122.25,0.1136
1122.00,0.1139
1121.75,0.1143
1121.50,0.1145
1121.25,0.1147
1121.00,0.1149
1120.75,0.1152
1120.50,0.1155
1120.25,0.1160
1120.00,0.1163
1119.75,0.1166
1119.50,0.1168
1119.25,0.1170
1119.00,0.1172
1118.75,0.1175
1118.50,0.1178
1118.25,0.1182
1118.00,0.1186
1117.75,0.1192
1117.50,0.1196
1117.25,0.1199
1117.00,0.1201
1116.75,0.1202
1116.50,0.1205
1116.25,0.1208
1116.00,0.1212
1115.75,0.1217
1115.50,0.1222
1115.25,0.1225
1115.00,0.1228
1114.75,0.1229
1114.50,0.1231
1114.25,0.1233
1114.00,0.1237
1113.75,0.1242
1113.50,0.1248
1113.25,0.1253
1113.00,0.1258
1112.75,0.1262
1112.50,0.1266
1112.25,0.1270
1112.00,0.1273
1111.75,0.1275
1111.50,0.1278
1111.25,0.1282
1111.00,0.1287
1110.75,0.1292
1110.50,0.1298
1110.25,0.1302
1110.00,0.1304
1109.75,0.1307
1109.50,0.1309
1109.25,0.1312
1109.00,0.1316
1108.75,0.1319
1108.50,0.1323
1108.25,0.1328
1108.00,0.1333
1107.75,0.1337
1107.50,0.1341
1107.25,0.1345
1107.00,0.1349
1106.75,0.1353
1106.50,0.1357
1106.25,0.1361
1106.00,0.1366
1105.75,0.1372
1105.50,0.1378
1105.25,0.1383
1105.00,0.1387
1104.75,0.1390
1104.50,0.1393
1104.25,0.1396
1104.00,0.1401
1103.75,0.1406
1103.50,0.1410
1103.25,0.1414
1103.00,0.1417
1102.75,0.1421
1102.50,0.1425
1102.25,0.1430
1102.00,0.1435
1101.75,0.1440
1101.50,0.1445
1101.25,0.1450
1101.00,0.1454
1100.75,0.1458
1100.50,0.1462
1100.25,0.1466
1100.00,0.1470
1099.75,0.1475
1099.50,0.1479
1099.25,0.1483
1099.00,0.1487
1098.75,0.1493
1098.50,0.1500
1098.25,0.1508
1098.00,0.1514
1097.75,0.1519
1097.50,0.1522
1097.25,0.1525
1097.00,0.1527
1096.75,0.1528
1096.50,0.1530
1096.25,0.1534
1096.00,0.1539
1095.75,0.1545
1095.50,0.1552
1095.25,0.1557
1095.00,0.1562
1094.75,0.1567
1094.50,0.1573
1094.25,0.1580
1094.00,0.1586
1093.75,0.1592
1093.50,0.1596
1093.25,0.1599
1093.00,0.1602
1092.75,0.1606
1092.50,0.1610
1092.25,0.1616
1092.00,0.1624
1091.75,0.1632
1091.50,0.1640
1091.25,0.1647
1091.00,0.1652
1090.75,0.1656
1090.50,0.1660
1090.25,0.1665
1090.00,0.1669
1089.75,0.1674
1089.50,0.1679
1089.25,0.1683
1089.00,0.1688
1088.75,0.1693
1088.50,0.1698
1088.25,0.1703
1088.00,0.1708
1087.75,0.1713
1087.50,0.1718
1087.25,0.1723
1087.00,0.1730
1086.75,0.1737
1086.50,0.1745
1086.25,0.1753
1086.00,0.1760
1085.75,0.1768
1085.50,0.1774
1085.25,0.1781
1085.00,0.1786
1084.75,0.1791
1084.50,0.1794
1084.25,0.1795
1084.00,0.1795
1083.75,0.1796
1083.50,0.1799
1083.25,0.1804
1083.00,0.1811
1082.75,0.1817
1082.50,0.1823
1082.25,0.1829
1082.00,0.1835
1081.75,0.1842
1081.50,0.1848
1081.25,0.1852
1081.00,0.1856
1080.75,0.1860
1080.50,0.1864
1080.25,0.1869
1080.00,0.1874
1079.75,0.1879
1079.50,0.1882
1079.25,0.1886
1079.00,0.1889
1078.75,0.1892
1078.50,0.1896
1078.25,0.1900
1078.00,0.1904
1077.75,0.1908
1077.50,0.1913
1077.25,0.1917
1077.00,0.1921
1076.75,0.1926
1076.50,0.1931
1076.25,0.1938
1076.00,0.1945
1075.75,0.1952
1075.50,0.1957
1075.25,0.1961
1075.00,0.1965
1074.75,0.1969
1074.50,0.1972
1074.25,0.1975
1074.00,0.1976
1073.75,0.1978
1073.50,0.1982
1073.25,0.1987
1073.00,0.1994
1072.75,0.2001
1072.50,0.2006
1072.25,0.2008
1072.00,0.2009
1071.75,0.2010
1071.50,0.2010
1071.25,0.2012
1071.00,0.2014
1070.75,0.2016
1070.50,0.2021
1070.25,0.2026
1070.00,0.2033
1069.75,0.2041
1069.50,0.2048
1069.25,0.2055
1069.00,0.2060
1068.75,0.2064
1068.50,0.2068
1068.25,0.2072
1068.00,0.2076
1067.75,0.2080
1067.50,0.2083
1067.25,0.2087
1067.00,0.2090
1066.75,0.2096
1066.50,0.2103
1066.25,0.2110
1066.00,0.2116
1065.75,0.2121
1065.50,0.2126
1065.25,0.2129
1065.00,0.2132
1064.75,0.2134
1064.50,0.2138
1064.25,0.2142
1064.00,0.2147
1063.75,0.2152
1063.50,0.2158
1063.25,0.2164
1063.00,0.2169
1062.75,0.2175
1062.50,0.2179
1062.25,0.2182
1062.00,0.2185
1061.75,0.2189
1061.50,0.2196
1061.25,0.2204
1061.00,0.2212
1060.75,0.2218
1060.50,0.2222
1060.25,0.2224
1060.00,0.2226
1059.75,0.2230
1059.50,0.2235
1059.25,0.2241
1059.00,0.2248
1058.75,0.2255
1058.50,0.2263
1058.25,0.2271
1058.00,0.2278
1057.75,0.2284
1057.50,0.2288
1057.25,0.2292
1057.00,0.2296
1056.75,0.2302
1056.50,0.2309
1056.25,0.2317
1056.00,0.2324
1055.75,0.2329
1055.50,0.2332
1055.25,0.2336
1055.00,0.2340
1054.75,0.2345
1054.50,0.2352
1054.25,0.2360
1054.00,0.2368
1053.75,0.2375
1053.50,0.2382
1053.25,0.2388
1053.00,0.2393
1052.75,0.2396
1052.50,0.2397
1052.25,0.2399
1052.00,0.2401
1051.75,0.2406
1051.50,0.2413
1051.25,0.2421
1051.00,0.2429
1050.75,0.2436
1050.50,0.2444
1050.25,0.2450
1050.00,0.2455
1049.75,0.2459
1049.50,0.2462
1049.25,0.2466
1049.00,0.2471
1048.75,0.2478
1048.50,0.2485
1048.25,0.2491
1048.00,0.2498
1047.75,0.2506
1047.50,0.2515
1047.25,0.2523
1047.00,0.2530
1046.75,0.2536
1046.50,0.2542
1046.25,0.2549
1046.00,0.2555
1045.75,0.2562
1045.50,0.2569
1045.25,0.2577
1045.00,0.2585
1044.75,0.2593
1044.50,0.2601
1044.25,0.2607
1044.00,0.2612
1043.75,0.2618
1043.50,0.2625
1043.25,0.2632
1043.00,0.2640
1042.75,0.2648
1042.50,0.2655
1042.25,0.2662
1042.00,0.2670
1041.75,0.2679
1041.50,0.2688
1041.25,0.2696
1041.00,0.2703
1040.75,0.2708
1040.50,0.2714
1040.25,0.2721
1040.00,0.2730
1039.75,0.2738
1039.50,0.2745
1039.25,0.2753
1039.00,0.2761
1038.75,0.2769
1038.50,0.2777
1038.25,0.2784
1038.00,0.2790
1037.75,0.2796
1037.50,0.2803
1037.25,0.2811
1037.00,0.2819
1036.75,0.2828
1036.50,0.2839
1036.25,0.2851
1036.00,0.2864
1035.75,0.2875
1035.50,0.2884
1035.25,0.2893
1035.00,0.2901
1034.75,0.2908
1034.50,0.2915
1034.25,0.2921
1034.00,0.2930
1033.75,0.2941
1033.50,0.2955
1033.25,0.2968
1033.00,0.2979
1032.75,0.2988
1032.50,0.2995
1032.25,0.3002
1032.00,0.3010
1031.75,0.3018
1031.50,0.3027
1031.25,0.3034
1031.00,0.3041
1030.75,0.3049
1030.50,0.3057
1030.25,0.3067
1030.00,0.3079
1029.75,0.3092
1029.50,0.3106
1029.25,0.3118
1029.00,0.3130
1028.75,0.3140
1028.50,0.3150
1028.25,0.3160
1028.00,0.3168
1027.75,0.3175
1027.50,0.3180
1027.25,0.3187
1027.00,0.3196
1026.75,0.3206
1026.50,0.3216
1026.25,0.3224
1026.00,0.3232
1025.75,0.3241
1025.50,0.3251
1025.25,0.3263
1025.00,0.3276
1024.75,0.3288
1024.50,0.3299
1024.25,0.3307
1024.00,0.3315
1023.75,0.3322
1023.50,0.3330
1023.25,0.3337
1023.00,0.3346
1022.75,0.3354
1022.50,0.3363
1022.25,0.3372
1022.00,0.3380
1021.75,0.3388
1021.50,0.3397
1021.25,0.3407
1021.00,0.3417
1020.75,0.3428
1020.50,0.3438
1020.25,0.3445
1020.00,0.3452
1019.75,0.3458
1019.50,0.3466
1019.25,0.3476
1019.00,0.3488
1018.75,0.3499
1018.50,0.3509
1018.25,0.3519
1018.00,0.3530
1017.75,0.3540
1017.50,0.3549
1017.25,0.3557
1017.00,0.3564
1016.75,0.3570
1016.50,0.3577
1016.25,0.3585
1016.00,0.3596
1015.75,0.3607
1015.50,0.3619
1015.25,0.3630
1015.00,0.3639
1014.75,0.3645
1014.50,0.3651
1014.25,0.3657
1014.00,0.3664
1013.75,0.3673
1013.50,0.3684
1013.25,0.3696
1013.00,0.3709
1012.75,0.3720
1012.50,0.3729
1012.25,0.3736
1012.00,0.3743
1011.75,0.3751
1011.50,0.3761
1011.25,0.3772
1011.00,0.3784
1010.75,0.3796
1010.50,0.3808
1010.25,0.3819
1010.00,0.3829
1009.75,0.3838
1009.50,0.3845
1009.25,0.3850
1009.00,0.3855
1008.75,0.3860
1008.50,0.3866
1008.25,0.3874
1008.00,0.3883
1007.75,0.3890
1007.50,0.3896
1007.25,0.3902
1007.00,0.3910
1006.75,0.3918
1006.50,0.3928
1006.25,0.3936
1006.00,0.3942
1005.75,0.3945
1005.50,0.3947
1005.25,0.3948
1005.00,0.3950
1004.75,0.3954
1004.50,0.3960
1004.25,0.3968
1004.00,0.3976
1003.75,0.3984
1003.50,0.3988
1003.25,0.3991
1003.00,0.3993
1002.75,0.3996
1002.50,0.3998
1002.25,0.3999
1002.00,0.3998
1001.75,0.3996
1001.50,0.3995
1001.25,0.3995
1001.00,0.3997
1000.75,0.3998
1000.50,0.3998
1000.25,0.3995
1000.00,0.3991
999.75,0.3985
999.50,0.3980
999.25,0.3976
999.00,0.3973
998.75,0.3969
998.50,0.3965
998.25,0.3961
998.00,0.3958
997.75,0.3956
997.50,0.3952
997.25,0.3947
997.00,0.3940
996.75,0.3932
996.50,0.3924
996.25,0.3916
996.00,0.3906
995.75,0.3895
995.50,0.3883
995.25,0.3870
995.00,0.3858
994.75,0.3844
994.50,0.3831
994.25,0.3817
994.00,0.3803
993.75,0.3790
993.50,0.3777
993.25,0.3764
993.00,0.3750
992.75,0.3733
992.50,0.3714
992.25,0.3692
992.00,0.3669
991.75,0.3646
991.50,0.3623
991.25,0.3601
991.00,0.3579
990.75,0.3557
990.50,0.3534
990.25,0.3508
990.00,0.3482
989.75,0.3455
989.50,0.3428
989.25,0.3401
989.00,0.3373
988.75,0.3345
988.50,0.3317
988.25,0.3289
988.00,0.3260
987.75,0.3229
987.50,0.3197
987.25,0.3165
987.00,0.3133
986.75,0.3102
986.50,0.3071
986.25,0.3040
986.00,0.3008
985.75,0.2974
985.50,0.2939
985.25,0.2903
985.00,0.2868
984.75,0.2834
984.50,0.2802
984.25,0.2772
984.00,0.2741
983.75,0.2710
983.50,0.2679
983.25,0.2646
983.00,0.2612
982.75,0.2577
982.50,0.2542
982.25,0.2508
982.00,0.2475
981.75,0.2444
981.50,0.2412
981.25,0.2381
981.00,0.2350
980.75,0.2320
980.50,0.2290
980.25,0.2260
980.00,0.2230
979.75,0.2199
979.50,0.2170
979.25,0.2143
979.00,0.2118
978.75,0.2093
978.50,0.2066
978.25,0.2038
978.00,0.2009
977.75,0.1979
977.50,0.1950
977.25,0.1922
977.00,0.1894
976.75,0.1868
976.50,0.1844
976.25,0.1822
976.00,0.1801
975.75,0.1779
975.50,0.1756
975.25,0.1732
975.00,0.1709
974.75,0.1687
974.50,0.1665
974.25,0.1644
974.00,0.1624
973.75,0.1604
973.50,0.1583
973.25,0.1562
973.00,0.1541
972.75,0.1519
972.50,0.1499
972.25,0.1480
972.00,0.1463
971.75,0.1447
971.50,0.1431
971.25,0.1416
971.00,0.1400
970.75,0.1383
970.50,0.1366
970.25,0.1349
970.00,0.1333
969.75,0.1319
969.50,0.1306
969.25,0.1292
969.00,0.1275
968.75,0.1256
968.50,0.1238
968.25,0.1223
968.00,0.1210
967.75,0.1201
967.50,0.1192
967.25,0.1183
967.00,0.1172
966.75,0.1159
966.50,0.1145
966.25,0.1132
966.00,0.1119
965.75,0.1107
965.50,0.1095
965.25,0.1084
965.00,0.1073
964.75,0.1061
964.50,0.1049
964.25,0.1038
964.00,0.1028
963.75,0.1019
963.50,0.1011
963.25,0.1004
963.00,0.0995
962.75,0.0986
962.50,0.0977
962.25,0.0968
962.00,0.0960
961.75,0.0952
961.50,0.0944
961.25,0.0935
961.00,0.0926
960.75,0.0918
960.50,0.0911
960.25,0.0904
960.00,0.0898
959.75,0.0892
959.50,0.0886
959.25,0.0879
959.00,0.0873
958.75,0.0865
958.50,0.0858
958.25,0.0851
958.00,0.0845
957.75,0.0841
957.50,0.0836
957.25,0.0830
957.00,0.0825
956.75,0.0820
956.50,0.0817
956.25,0.0815
956.00,0.0812
955.75,0.0807
955.50,0.0801
955.25,0.0794
955.00,0.0787
954.75,0.0781
954.50,0.0775
954.25,0.0771
954.00,0.0767
953.75,0.0764
953.50,0.0762
953.25,0.0760
953.00,0.0758
952.75,0.0755
952.50,0.0749
952.25,0.0743
952.00,0.0736
951.75,0.0731
951.50,0.0726
951.25,0.0723
951.00,0.0719
950.75,0.0716
950.50,0.0713
950.25,0.0712
950.00,0.0712
949.75,0.0712
949.50,0.0711
949.25,0.0708
949.00,0.0704
948.75,0.0701
948.50,0.0699
948.25,0.0697
948.00,0.0695
947.75,0.0692
947.50,0.0688
947.25,0.0684
947.00,0.0681
946.75,0.0679
946.50,0.0677
946.25,0.0675
946.00,0.0672
945.75,0.0669
945.50,0.0666
945.25,0.0663
945.00,0.0661
944.75,0.0659
944.50,0.0657
944.25,0.0656
944.00,0.0655
943.75,0.0653
943.50,0.0651
943.25,0.0649
943.00,0.0649
942.75,0.0649
942.50,0.0650
942.25,0.0651
942.00,0.0651
941.75,0.0650
941.50,0.0648
941.25,0.0644
941.00,0.0641
940.75,0.0637
940.50,0.0634
940.25,0.0632
940.00,0.0631
939.75,0.0630
939.50,0.0629
939.25,0.0627
939.00,0.0625
938.75,0.0623
938.50,0.0622
938.25,0.0621
938.00,0.0620
937.75,0.0619
937.50,0.0617
937.25,0.0615
937.00,0.0614
936.75,0.0612
936.50,0.0611
936.25,0.0611
936.00,0.0612
935.75,0.0613
935.50,0.0613
935.25,0.0613
935.00,0.0613
934.75,0.0614
934.50,0.0615
934.25,0.0616
934.00,0.0616
933.75,0.0616
933.50,0.0615
933.25,0.0614
933.00,0.0613
932.75,0.0613
932.50,0.0613
932.25,0.0614
932.00,0.0614
931.75,0.0615
931.50,0.0615
931.25,0.0615
931.00,0.0614
930.75,0.0614
930.50,0.0614
930.25,0.0614
930.00,0.0613
929.75,0.0613
929.50,0.0614
929.25,0.0614
929.00,0.0614
928.75,0.0613
928.50,0.0612
928.25,0.0611
928.00,0.0611
927.75,0.0612
927.50,0.0612
927.25,0.0614
927.00,0.0615
926.75,0.0617
926.50,0.0618
926.25,0.0618
926.00,0.0618
925.75,0.0617
925.50,0.0616
925.25,0.0616
925.00,0.0616
924.75,0.0617
924.50,0.0618
924.25,0.0619
924.00,0.0619
923.75,0.0618
923.50,0.0618
923.25,0.0618
923.00,0.0619
922.75,0.0620
922.50,0.0622
922.25,0.0625
922.00,0.0627
921.75,0.0630
921.50,0.0633
921.25,0.0637
921.00,0.0640
920.75,0.0643
920.50,0.0644
920.25,0.0644
920.00,0.0644
919.75,0.0645
919.50,0.0646
919.25,0.0648
919.00,0.0649
918.75,0.0651
918.50,0.0654
918.25,0.0657
918.00,0.0661
917.75,0.0664
917.50,0.0668
917.25,0.0671
917.00,0.0674
916.75,0.0675
916.50,0.0677
916.25,0.0680
916.00,0.0682
915.75,0.0684
915.50,0.0684
915.25,0.0684
915.00,0.0684
914.75,0.0685
914.50,0.0685
914.25,0.0685
914.00,0.0684
913.75,0.0684
913.50,0.0685
913.25,0.0686
913.00,0.0686
912.75,0.0685
912.50,0.0684
912.25,0.0681
912.00,0.0678
911.75,0.0676
911.50,0.0674
911.25,0.0672
911.00,0.0671
910.75,0.0668
910.50,0.0666
910.25,0.0663
910.00,0.0661
909.75,0.0660
909.50,0.0659
909.25,0.0656
909.00,0.0653
908.75,0.0649
908.50,0.0646
908.25,0.0643
908.00,0.0641
907.75,0.0638
907.50,0.0636
907.25,0.0633
907.00,0.0629
906.75,0.0624
906.50,0.0619
906.25,0.0613
906.00,0.0609
905.75,0.0605
905.50,0.0602
905.25,0.0599
905.00,0.0596
904.75,0.0593
904.50,0.0588
904.25,0.0584
904.00,0.0579
903.75,0.0576
903.50,0.0575
903.25,0.0576
903.00,0.0577
902.75,0.0577
902.50,0.0576
902.25,0.0574
902.00,0.0572
901.75,0.0569
901.50,0.0568
901.25,0.0567
901.00,0.0566
900.75,0.0564
900.50,0.0562
900.25,0.0560
900.00,0.0560
899.75,0.0560
899.50,0.0560
899.25,0.0559
899.00,0.0556
898.75,0.0553
898.50,0.0551
898.25,0.0552
898.00,0.0555
897.75,0.0558
897.50,0.0559
897.25,0.0557
897.00,0.0553
896.75,0.0550
896.50,0.0549
896.25,0.0550
896.00,0.0553
895.75,0.0555
895.50,0.0556
895.25,0.0557
895.00,0.0558
894.75,0.0559
894.50,0.0560
894.25,0.0560
894.00,0.0559
893.75,0.0558
893.50,0.0557
893.25,0.0556
893.00,0.0556
892.75,0.0556
892.50,0.0556
892.25,0.0556
892.00,0.0555
891.75,0.0555
891.50,0.0557
891.25,0.0559
891.00,0.0561
890.75,0.0562
890.50,0.0561
890.25,0.0558
890.00,0.0555
889.75,0.0552
889.50,0.0551
889.25,0.0553
889.00,0.0556
888.75,0.0561
888.50,0.0566
888.25,0.0569
888.00,0.0570
887.75,0.0571
887.50,0.0571
887.25,0.0571
887.00,0.0572
886.75,0.0571
886.50,0.0569
886.25,0.0568
886.00,0.0568
885.75,0.0571
885.50,0.0576
885.25,0.0581
885.00,0.0586
884.75,0.0590
884.50,0.0593
884.25,0.0595
884.00,0.0595
883.75,0.0594
883.50,0.0594
883.25,0.0594
883.00,0.0595
882.75,0.0595
882.50,0.0596
882.25,0.0598
882.00,0.0600
881.75,0.0602
881.50,0.0603
881.25,0.0603
881.00,0.0604
880.75,0.0606
880.50,0.0608
880.25,0.0610
880.00,0.0611
879.75,0.0612
879.50,0.0613
879.25,0.0615
879.00,0.0618
878.75,0.0620
878.50,0.0621
878.25,0.0622
878.00,0.0623
877.75,0.0625
877.50,0.0629
877.25,0.0633
877.00,0.0636
876.75,0.0639
876.50,0.0639
876.25,0.0637
876.00,0.0635
875.75,0.0635
875.50,0.0638
875.25,0.0642
875.00,0.0646
874.75,0.0648
874.50,0.0649
874.25,0.0650
874.00,0.0654
873.75,0.0660
873.50,0.0668
873.25,0.0676
873.00,0.0682
872.75,0.0686
872.50,0.0688
872.25,0.0689
872.00,0.0691
871.75,0.0695
871.50,0.0701
871.25,0.0708
871.00,0.0715
870.75,0.0722
870.50,0.0729
870.25,0.0735
870.00,0.0740
869.75,0.0745
869.50,0.0751
869.25,0.0756
869.00,0.0761
868.75,0.0764
868.50,0.0768
868.25,0.0773
868.00,0.0780
867.75,0.0788
867.50,0.0795
867.25,0.0799
867.00,0.0802
866.75,0.0805
866.50,0.0809
866.25,0.0815
866.00,0.0822
865.75,0.0830
865.50,0.0839
865.25,0.0848
865.00,0.0857
864.75,0.0863
864.50,0.0868
864.25,0.0872
864.00,0.0875
863.75,0.0879
863.50,0.0883
863.25,0.0888
863.00,0.0892
862.75,0.0897
862.50,0.0903
862.25,0.0910
862.00,0.0919
861.75,0.0926
861.50,0.0932
861.25,0.0936
861.00,0.0939
860.75,0.0944
860.50,0.0952
860.25,0.0963
860.00,0.0973
859.75,0.0982
859.50,0.0989
859.25,0.0994
859.00,0.1001
858.75,0.1010
858.50,0.1022
858.25,0.1034
858.00,0.1045
857.75,0.1052
857.50,0.1057
857.25,0.1059
857.00,0.1062
856.75,0.1067
856.50,0.1074
856.25,0.1083
856.00,0.1092
855.75,0.1103
855.50,0.1113
855.25,0.1123
855.00,0.1132
854.75,0.1140
854.50,0.1148
854.25,0.1157
854.00,0.1167
853.75,0.1178
853.50,0.1188
853.25,0.1196
853.00,0.1203
852.75,0.1209
852.50,0.1215
852.25,0.1222
852.00,0.1230
851.75,0.1239
851.50,0.1251
851.25,0.1263
851.00,0.1276
850.75,0.1288
850.50,0.1298
850.25,0.1307
850.00,0.1316
849.75,0.1323
849.50,0.1328
849.25,0.1333
849.00,0.1339
848.75,0.1351
848.50,0.1369
848.25,0.1390
848.00,0.1410
847.75,0.1423
847.50,0.1430
847.25,0.1432
847.00,0.1434
846.75,0.1437
846.50,0.1443
846.25,0.1451
846.00,0.1461
845.75,0.1470
845.50,0.1478
845.25,0.1481
845.00,0.1482
844.75,0.1481
844.50,0.1482
844.25,0.1487
844.00,0.1496
843.75,0.1506
843.50,0.1513
843.25,0.1518
843.00,0.1521
842.75,0.1523
842.50,0.1524
842.25,0.1525
842.00,0.1526
841.75,0.1527
841.50,0.1528
841.25,0.1529
841.00,0.1529
840.75,0.1530
840.50,0.1532
840.25,0.1535
840.00,0.1538
839.75,0.1539
839.50,0.1536
839.25,0.1532
839.00,0.1526
838.75,0.1522
838.50,0.1520
838.25,0.1519
838.00,0.1519
837.75,0.1517
837.50,0.1513
837.25,0.1507
837.00,0.1500
836.75,0.1496
836.50,0.1495
836.25,0.1498
836.00,0.1500
835.75,0.1498
835.50,0.1489
835.25,0.1476
835.00,0.1464
834.75,0.1456
834.50,0.1455
834.25,0.1457
834.00,0.1459
833.75,0.1458
833.50,0.1455
833.25,0.1450
833.00,0.1446
832.75,0.1446
832.50,0.1449
832.25,0.1453
832.00,0.1455
831.75,0.1455
831.50,0.1453
831.25,0.1449
831.00,0.1445
830.75,0.1441
830.50,0.1438
830.25,0.1436
830.00,0.1437
829.75,0.1441
829.50,0.1445
829.25,0.1447
829.00,0.1447
828.75,0.1443
828.50,0.1439
828.25,0.1434
828.00,0.1431
827.75,0.1431
827.50,0.1434
827.25,0.1437
827.00,0.1438
826.75,0.1438
826.50,0.1437
826.25,0.1439
826.00,0.1441
825.75,0.1441
825.50,0.1437
825.25,0.1432
825.00,0.1430
824.75,0.1434
824.50,0.1442
824.25,0.1450
824.00,0.1455
823.75,0.1455
823.50,0.1450
823.25,0.1445
823.00,0.1443
822.75,0.1446
822.50,0.1454
822.25,0.1463
822.00,0.1471
821.75,0.1474
821.50,0.1473
821.25,0.1471
821.00,0.1470
820.75,0.1473
820.50,0.1479
820.25,0.1484
820.00,0.1487
819.75,0.1488
819.50,0.1488
819.25,0.1490
819.00,0.1497
818.75,0.1508
818.50,0.1518
818.25,0.1525
818.00,0.1528
817.75,0.1529
817.50,0.1531
817.25,0.1536
817.00,0.1544
816.75,0.1555
816.50,0.1566
816.25,0.1576
816.00,0.1584
815.75,0.1590
815.50,0.1594
815.25,0.1598
815.00,0.1602
814.75,0.1607
814.50,0.1614
814.25,0.1622
814.00,0.1630
813.75,0.1638
813.50,0.1645
813.25,0.1653
813.00,0.1660
812.75,0.1666
812.50,0.1671
812.25,0.1677
812.00,0.1685
811.75,0.1694
811.50,0.1706
811.25,0.1720
811.00,0.1736
810.75,0.1753
810.50,0.1768
810.25,0.1782
810.00,0.1795
809.75,0.1806
809.50,0.1816
809.25,0.1825
809.00,0.1834
808.75,0.1841
808.50,0.1846
808.25,0.1851
808.00,0.1859
807.75,0.1871
807.50,0.1886
807.25,0.1904
807.00,0.1923
806.75,0.1940
806.50,0.1955
806.25,0.1966
806.00,0.1977
805.75,0.1987
805.50,0.1998
805.25,0.2012
805.00,0.2027
804.75,0.2046
804.50,0.2067
804.25,0.2089
804.00,0.2107
803.75,0.2119
803.50,0.2126
803.25,0.2131
803.00,0.2138
802.75,0.2146
802.50,0.2158
802.25,0.2170
802.00,0.2183
801.75,0.2196
801.50,0.2208
801.25,0.2219
801.00,0.2231
800.75,0.2243
800.50,0.2254
800.25,0.2265
800.00,0.2274
