Created as New Dataset,Sample 036 By irlear Date Thursday, January 01 2009
cm-1,A
4000.00,0.0065
3999.75,0.0066
3999.50,0.0065
3999.25,0.0065
3999.00,0.0063
3998.75,0.0062
3998.50,0.0061
3998.25,0.0060
3998.00,0.0060
3997.75,0.0060
3997.50,0.0060
3997.25,0.0062
3997.00,0.0063
3996.75,0.0064
3996.50,0.0065
3996.25,0.0066
3996.00,0.0066
3995.75,0.0066
3995.50,0.0066
3995.25,0.0065
3995.00,0.0064
3994.75,0.0064
3994.50,0.0065
3994.25,0.0066
3994.00,0.0066
3993.75,0.0065
3993.50,0.0064
3993.25,0.0063
3993.00,0.0062
3992.75,0.0062
3992.50,0.0062
3992.25,0.0063
3992.00,0.0064
3991.75,0.0064
3991.50,0.0064
3991.25,0.0064
3991.00,0.0064
3990.75,0.0063
3990.50,0.0064
3990.25,0.0064
3990.00,0.0065
3989.75,0.0065
3989.50,0.0066
3989.25,0.0066
3989.00,0.0065
3988.75,0.0064
3988.50,0.0062
3988.25,0.0060
3988.00,0.0059
3987.75,0.0059
3987.50,0.0061
3987.25,0.0063
3987.00,0.0065
3986.75,0.0066
3986.50,0.0066
3986.25,0.0066
3986.00,0.0067
3985.75,0.0067
3985.50,0.0067
3985.25,0.0067
3985.00,0.0066
3984.75,0.0066
3984.50,0.0065
3984.25,0.0064
3984.00,0.0063
3983.75,0.0064
3983.50,0.0065
3983.25,0.0066
3983.00,0.0067
3982.75,0.0068
3982.50,0.0067
3982.25,0.0066
3982.00,0.0064
3981.75,0.0063
3981.50,0.0062
3981.25,0.0061
3981.00,0.0060
3980.75,0.0060
3980.50,0.0061
3980.25,0.0062
3980.00,0.0063
3979.75,0.0064
3979.50,0.0065
3979.25,0.0064
3979.00,0.0064
3978.75,0.0063
3978.50,0.0063
3978.25,0.0063
3978.00,0.0063
3977.75,0.0062
3977.50,0.0061
3977.25,0.0061
3977.00,0.0061
3976.75,0.0061
3976.50,0.0063
3976.25,0.0063
3976.00,0.0064
3975.75,0.0064
3975.50,0.0063
3975.25,0.0063
3975.00,0.0062
3974.75,0.0061
3974.50,0.0060
3974.25,0.0060
3974.00,0.0061
3973.75,0.0061
3973.50,0.0062
3973.25,0.0063
3973.00,0.0064
3972.75,0.0066
3972.50,0.0067
3972.25,0.0067
3972.00,0.0066
3971.75,0.0064
3971.50,0.0063
3971.25,0.0062
3971.00,0.0062
3970.75,0.0063
3970.50,0.0065
3970.25,0.0066
3970.00,0.0066
3969.75,0.0066
3969.50,0.0065
3969.25,0.0064
3969.00,0.0063
3968.75,0.0062
3968.50,0.0062
3968.25,0.0061
3968.00,0.0062
3967.75,0.0062
3967.50,0.0063
3967.25,0.0064
3967.00,0.0064
3966.75,0.0065
3966.50,0.0065
3966.25,0.0066
3966.00,0.0066
3965.75,0.0066
3965.50,0.0065
3965.25,0.0064
3965.00,0.0063
3964.75,0.0062
3964.50,0.0061
3964.25,0.0061
3964.00,0.0062
3963.75,0.0062
3963.50,0.0062
3963.25,0.0061
3963.00,0.0061
3962.75,0.0062
3962.50,0.0063
3962.25,0.0064
3962.00,0.0064
3961.75,0.0064
3961.50,0.0063
3961.25,0.0061
3961.00,0.0060
3960.75,0.0060
3960.50,0.0061
3960.25,0.0062
3960.00,0.0062
3959.75,0.0063
3959.50,0.0064
3959.25,0.0064
3959.00,0.0064
3958.75,0.0064
3958.50,0.0065
3958.25,0.0065
3958.00,0.0065
3957.75,0.0065
3957.50,0.0064
3957.25,0.0063
3957.00,0.0062
3956.75,0.0061
3956.50,0.0060
3956.25,0.0060
3956.00,0.0059
3955.75,0.0059
3955.50,0.0059
3955.25,0.0059
3955.00,0.0059
3954.75,0.0059
3954.50,0.0059
3954.25,0.0060
3954.00,0.0061
3953.75,0.0062
3953.50,0.0064
3953.25,0.0064
3953.00,0.0065
3952.75,0.0065
3952.50,0.0064
3952.25,0.0063
3952.00,0.0063
3951.75,0.0062
3951.50,0.0062
3951.25,0.0063
3951.00,0.0063
3950.75,0.0063
3950.50,0.0062
3950.25,0.0061
3950.00,0.0060
3949.75,0.0060
3949.50,0.0060
3949.25,0.0060
3949.00,0.0061
3948.75,0.0062
3948.50,0.0063
3948.25,0.0062
3948.00,0.0061
3947.75,0.0060
3947.50,0.0058
3947.25,0.0058
3947.00,0.0058
3946.75,0.0059
3946.50,0.0060
3946.25,0.0060
3946.00,0.0061
3945.75,0.0062
3945.50,0.0063
3945.25,0.0065
3945.00,0.0066
3944.75,0.0067
3944.50,0.0068
3944.25,0.0067
3944.00,0.0065
3943.75,0.0062
3943.50,0.0059
3943.25,0.0057
3943.00,0.0057
3942.75,0.0058
3942.50,0.0060
3942.25,0.0061
3942.00,0.0062
3941.75,0.0063
3941.50,0.0064
3941.25,0.0064
3941.00,0.0064
3940.75,0.0064
3940.50,0.0064
3940.25,0.0063
3940.00,0.0063
3939.75,0.0063
3939.50,0.0063
3939.25,0.0063
3939.00,0.0063
3938.75,0.0062
3938.50,0.0062
3938.25,0.0061
3938.00,0.0061
3937.75,0.0061
3937.50,0.0061
3937.25,0.0061
3937.00,0.0061
3936.75,0.0060
3936.50,0.0060
3936.25,0.0060
3936.00,0.0059
3935.75,0.0059
3935.50,0.0059
3935.25,0.0059
3935.00,0.0060
3934.75,0.0061
3934.50,0.0062
3934.25,0.0063
3934.00,0.0064
3933.75,0.0064
3933.50,0.0064
3933.25,0.0063
3933.00,0.0063
3932.75,0.0062
3932.50,0.0062
3932.25,0.0061
3932.00,0.0060
3931.75,0.0060
3931.50,0.0060
3931.25,0.0060
3931.00,0.0061
3930.75,0.0061
3930.50,0.0060
3930.25,0.0060
3930.00,0.0059
3929.75,0.0059
3929.50,0.0059
3929.25,0.0060
3929.00,0.0060
3928.75,0.0061
3928.50,0.0061
3928.25,0.0061
3928.00,0.0061
3927.75,0.0062
3927.50,0.0063
3927.25,0.0063
3927.00,0.0062
3926.75,0.0061
3926.50,0.0059
3926.25,0.0059
3926.00,0.0059
3925.75,0.0060
3925.50,0.0061
3925.25,0.0062
3925.00,0.0062
3924.75,0.0061
3924.50,0.0060
3924.25,0.0059
3924.00,0.0058
3923.75,0.0058
3923.50,0.0059
3923.25,0.0060
3923.00,0.0062
3922.75,0.0062
3922.50,0.0063
3922.25,0.0063
3922.00,0.0063
3921.75,0.0064
3921.50,0.0064
3921.25,0.0064
3921.00,0.0063
3920.75,0.0062
3920.50,0.0061
3920.25,0.0061
3920.00,0.0060
3919.75,0.0060
3919.50,0.0059
3919.25,0.0058
3919.00,0.0058
3918.75,0.0059
3918.50,0.0060
3918.25,0.0061
3918.00,0.0062
3917.75,0.0062
3917.50,0.0061
3917.25,0.0060
3917.00,0.0059
3916.75,0.0058
3916.50,0.0058
3916.25,0.0058
3916.00,0.0059
3915.75,0.0060
3915.50,0.0061
3915.25,0.0062
3915.00,0.0063
3914.75,0.0065
3914.50,0.0066
3914.25,0.0066
3914.00,0.0066
3913.75,0.0065
3913.50,0.0065
3913.25,0.0064
3913.00,0.0063
3912.75,0.0063
3912.50,0.0062
3912.25,0.0062
3912.00,0.0061
3911.75,0.0061
3911.50,0.0061
3911.25,0.0061
3911.00,0.0061
3910.75,0.0061
3910.50,0.0062
3910.25,0.0062
3910.00,0.0063
3909.75,0.0064
3909.50,0.0064
3909.25,0.0064
3909.00,0.0064
3908.75,0.0064
3908.50,0.0064
3908.25,0.0064
3908.00,0.0064
3907.75,0.0064
3907.50,0.0064
3907.25,0.0063
3907.00,0.0062
3906.75,0.0061
3906.50,0.0060
3906.25,0.0061
3906.00,0.0062
3905.75,0.0064
3905.50,0.0064
3905.25,0.0063
3905.00,0.0061
3904.75,0.0059
3904.50,0.0057
3904.25,0.0056
3904.00,0.0056
3903.75,0.0056
3903.50,0.0056
3903.25,0.0056
3903.00,0.0057
3902.75,0.0059
3902.50,0.0059
3902.25,0.0059
3902.00,0.0058
3901.75,0.0056
3901.50,0.0055
3901.25,0.0054
3901.00,0.0055
3900.75,0.0057
3900.50,0.0059
3900.25,0.0061
3900.00,0.0063
3899.75,0.0064
3899.50,0.0064
3899.25,0.0062
3899.00,0.0059
3898.75,0.0056
3898.50,0.0056
3898.25,0.0057
3898.00,0.0059
3897.75,0.0060
3897.50,0.0062
3897.25,0.0063
3897.00,0.0062
3896.75,0.0062
3896.50,0.0061
3896.25,0.0061
3896.00,0.0062
3895.75,0.0063
3895.50,0.0064
3895.25,0.0065
3895.00,0.0066
3894.75,0.0065
3894.50,0.0064
3894.25,0.0062
3894.00,0.0060
3893.75,0.0058
3893.50,0.0057
3893.25,0.0057
3893.00,0.0058
3892.75,0.0059
3892.50,0.0061
3892.25,0.0063
3892.00,0.0064
3891.75,0.0064
3891.50,0.0063
3891.25,0.0061
3891.00,0.0059
3890.75,0.0057
3890.50,0.0056
3890.25,0.0056
3890.00,0.0057
3889.75,0.0058
3889.50,0.0060
3889.25,0.0062
3889.00,0.0063
3888.75,0.0063
3888.50,0.0063
3888.25,0.0062
3888.00,0.0062
3887.75,0.0062
3887.50,0.0061
3887.25,0.0061
3887.00,0.0061
3886.75,0.0061
3886.50,0.0060
3886.25,0.0060
3886.00,0.0059
3885.75,0.0059
3885.50,0.0059
3885.25,0.0058
3885.00,0.0059
3884.75,0.0060
3884.50,0.0062
3884.25,0.0063
3884.00,0.0064
3883.75,0.0064
3883.50,0.0064
3883.25,0.0063
3883.00,0.0061
3882.75,0.0061
3882.50,0.0060
3882.25,0.0060
3882.00,0.0061
3881.75,0.0061
3881.50,0.0061
3881.25,0.0061
3881.00,0.0060
3880.75,0.0059
3880.50,0.0057
3880.25,0.0057
3880.00,0.0056
3879.75,0.0055
3879.50,0.0053
3879.25,0.0053
3879.00,0.0053
3878.75,0.0054
3878.50,0.0057
3878.25,0.0059
3878.00,0.0062
3877.75,0.0063
3877.50,0.0063
3877.25,0.0063
3877.00,0.0061
3876.75,0.0060
3876.50,0.0059
3876.25,0.0059
3876.00,0.0060
3875.75,0.0061
3875.50,0.0061
3875.25,0.0060
3875.00,0.0058
3874.75,0.0055
3874.50,0.0053
3874.25,0.0053
3874.00,0.0053
3873.75,0.0054
3873.50,0.0054
3873.25,0.0055
3873.00,0.0056
3872.75,0.0058
3872.50,0.0059
3872.25,0.0059
3872.00,0.0060
3871.75,0.0059
3871.50,0.0059
3871.25,0.0057
3871.00,0.0055
3870.75,0.0051
3870.50,0.0047
3870.25,0.0044
3870.00,0.0045
3869.75,0.0050
3869.50,0.0055
3869.25,0.0057
3869.00,0.0057
3868.75,0.0056
3868.50,0.0056
3868.25,0.0056
3868.00,0.0057
3867.75,0.0059
3867.50,0.0060
3867.25,0.0060
3867.00,0.0059
3866.75,0.0058
3866.50,0.0057
3866.25,0.0056
3866.00,0.0055
3865.75,0.0054
3865.50,0.0052
3865.25,0.0049
3865.00,0.0048
3864.75,0.0048
3864.50,0.0050
3864.25,0.0053
3864.00,0.0055
3863.75,0.0056
3863.50,0.0058
3863.25,0.0059
3863.00,0.0060
3862.75,0.0060
3862.50,0.0060
3862.25,0.0059
3862.00,0.0058
3861.75,0.0057
3861.50,0.0058
3861.25,0.0059
3861.00,0.0059
3860.75,0.0059
3860.50,0.0058
3860.25,0.0058
3860.00,0.0059
3859.75,0.0059
3859.50,0.0060
3859.25,0.0059
3859.00,0.0059
3858.75,0.0059
3858.50,0.0060
3858.25,0.0061
3858.00,0.0062
3857.75,0.0061
3857.50,0.0060
3857.25,0.0059
3857.00,0.0059
3856.75,0.0059
3856.50,0.0060
3856.25,0.0059
3856.00,0.0059
3855.75,0.0058
3855.50,0.0058
3855.25,0.0058
3855.00,0.0057
3854.75,0.0055
3854.50,0.0053
3854.25,0.0054
3854.00,0.0061
3853.75,0.0059
3853.50,0.0052
3853.25,0.0049
3853.00,0.0047
3852.75,0.0045
3852.50,0.0043
3852.25,0.0042
3852.00,0.0044
3851.75,0.0047
3851.50,0.0050
3851.25,0.0052
3851.00,0.0053
3850.75,0.0054
3850.50,0.0055
3850.25,0.0056
3850.00,0.0057
3849.75,0.0058
3849.50,0.0059
3849.25,0.0059
3849.00,0.0060
3848.75,0.0060
3848.50,0.0061
3848.25,0.0062
3848.00,0.0063
3847.75,0.0064
3847.50,0.0065
3847.25,0.0065
3847.00,0.0064
3846.75,0.0062
3846.50,0.0061
3846.25,0.0061
3846.00,0.0062
3845.75,0.0062
3845.50,0.0062
3845.25,0.0061
3845.00,0.0060
3844.75,0.0060
3844.50,0.0060
3844.25,0.0061
3844.00,0.0061
3843.75,0.0061
3843.50,0.0061
3843.25,0.0061
3843.00,0.0060
3842.75,0.0060
3842.50,0.0059
3842.25,0.0060
3842.00,0.0060
3841.75,0.0059
3841.50,0.0058
3841.25,0.0055
3841.00,0.0053
3840.75,0.0052
3840.50,0.0052
3840.25,0.0053
3840.00,0.0055
3839.75,0.0056
3839.50,0.0056
3839.25,0.0056
3839.00,0.0054
3838.75,0.0052
3838.50,0.0048
3838.25,0.0044
3838.00,0.0042
3837.75,0.0044
3837.50,0.0048
3837.25,0.0051
3837.00,0.0054
3836.75,0.0056
3836.50,0.0057
3836.25,0.0057
3836.00,0.0057
3835.75,0.0056
3835.50,0.0055
3835.25,0.0053
3835.00,0.0053
3834.75,0.0056
3834.50,0.0058
3834.25,0.0059
3834.00,0.0058
3833.75,0.0056
3833.50,0.0055
3833.25,0.0055
3833.00,0.0056
3832.75,0.0058
3832.50,0.0059
3832.25,0.0059
3832.00,0.0058
3831.75,0.0058
3831.50,0.0060
3831.25,0.0062
3831.00,0.0062
3830.75,0.0061
3830.50,0.0060
3830.25,0.0059
3830.00,0.0060
3829.75,0.0061
3829.50,0.0063
3829.25,0.0064
3829.00,0.0064
3828.75,0.0064
3828.50,0.0064
3828.25,0.0064
3828.00,0.0064
3827.75,0.0063
3827.50,0.0063
3827.25,0.0063
3827.00,0.0064
3826.75,0.0065
3826.50,0.0066
3826.25,0.0065
3826.00,0.0063
3825.75,0.0061
3825.50,0.0060
3825.25,0.0060
3825.00,0.0061
3824.75,0.0062
3824.50,0.0064
3824.25,0.0065
3824.00,0.0066
3823.75,0.0066
3823.50,0.0065
3823.25,0.0063
3823.00,0.0061
3822.75,0.0059
3822.50,0.0057
3822.25,0.0054
3822.00,0.0051
3821.75,0.0050
3821.50,0.0049
3821.25,0.0048
3821.00,0.0047
3820.75,0.0048
3820.50,0.0051
3820.25,0.0056
3820.00,0.0058
3819.75,0.0059
3819.50,0.0059
3819.25,0.0059
3819.00,0.0059
3818.75,0.0061
3818.50,0.0063
3818.25,0.0065
3818.00,0.0064
3817.75,0.0063
3817.50,0.0061
3817.25,0.0061
3817.00,0.0060
3816.75,0.0060
3816.50,0.0060
3816.25,0.0060
3816.00,0.0061
3815.75,0.0060
3815.50,0.0057
3815.25,0.0055
3815.00,0.0055
3814.75,0.0055
3814.50,0.0057
3814.25,0.0059
3814.00,0.0061
3813.75,0.0063
3813.50,0.0064
3813.25,0.0065
3813.00,0.0065
3812.75,0.0067
3812.50,0.0067
3812.25,0.0068
3812.00,0.0067
3811.75,0.0066
3811.50,0.0065
3811.25,0.0065
3811.00,0.0064
3810.75,0.0064
3810.50,0.0065
3810.25,0.0065
3810.00,0.0064
3809.75,0.0063
3809.50,0.0061
3809.25,0.0060
3809.00,0.0058
3808.75,0.0058
3808.50,0.0058
3808.25,0.0059
3808.00,0.0060
3807.75,0.0060
3807.50,0.0060
3807.25,0.0060
3807.00,0.0061
3806.75,0.0062
3806.50,0.0060
3806.25,0.0058
3806.00,0.0057
3805.75,0.0057
3805.50,0.0058
3805.25,0.0059
3805.00,0.0061
3804.75,0.0062
3804.50,0.0063
3804.25,0.0063
3804.00,0.0062
3803.75,0.0061
3803.50,0.0059
3803.25,0.0057
3803.00,0.0055
3802.75,0.0055
3802.50,0.0054
3802.25,0.0052
3802.00,0.0048
3801.75,0.0044
3801.50,0.0042
3801.25,0.0046
3801.00,0.0052
3800.75,0.0057
3800.50,0.0058
3800.25,0.0058
3800.00,0.0057
3799.75,0.0055
3799.50,0.0055
3799.25,0.0055
3799.00,0.0057
3798.75,0.0060
3798.50,0.0063
3798.25,0.0064
3798.00,0.0064
3797.75,0.0063
3797.50,0.0062
3797.25,0.0061
3797.00,0.0060
3796.75,0.0059
3796.50,0.0059
3796.25,0.0060
3796.00,0.0060
3795.75,0.0060
3795.50,0.0060
3795.25,0.0061
3795.00,0.0062
3794.75,0.0063
3794.50,0.0065
3794.25,0.0067
3794.00,0.0067
3793.75,0.0067
3793.50,0.0066
3793.25,0.0064
3793.00,0.0063
3792.75,0.0063
3792.50,0.0063
3792.25,0.0063
3792.00,0.0063
3791.75,0.0063
3791.50,0.0063
3791.25,0.0062
3791.00,0.0062
3790.75,0.0062
3790.50,0.0062
3790.25,0.0062
3790.00,0.0061
3789.75,0.0061
3789.50,0.0061
3789.25,0.0061
3789.00,0.0061
3788.75,0.0062
3788.50,0.0063
3788.25,0.0064
3788.00,0.0065
3787.75,0.0066
3787.50,0.0067
3787.25,0.0067
3787.00,0.0066
3786.75,0.0066
3786.50,0.0066
3786.25,0.0066
3786.00,0.0066
3785.75,0.0066
3785.50,0.0066
3785.25,0.0065
3785.00,0.0065
3784.75,0.0065
3784.50,0.0065
3784.25,0.0065
3784.00,0.0064
3783.75,0.0064
3783.50,0.0064
3783.25,0.0064
3783.00,0.0066
3782.75,0.0067
3782.50,0.0069
3782.25,0.0069
3782.00,0.0069
3781.75,0.0069
3781.50,0.0068
3781.25,0.0067
3781.00,0.0066
3780.75,0.0066
3780.50,0.0065
3780.25,0.0065
3780.00,0.0063
3779.75,0.0061
3779.50,0.0059
3779.25,0.0057
3779.00,0.0057
3778.75,0.0058
3778.50,0.0059
3778.25,0.0061
3778.00,0.0062
3777.75,0.0064
3777.50,0.0065
3777.25,0.0065
3777.00,0.0065
3776.75,0.0065
3776.50,0.0065
3776.25,0.0065
3776.00,0.0065
3775.75,0.0064
3775.50,0.0065
3775.25,0.0065
3775.00,0.0064
3774.75,0.0064
3774.50,0.0063
3774.25,0.0062
3774.00,0.0062
3773.75,0.0062
3773.50,0.0062
3773.25,0.0062
3773.00,0.0062
3772.75,0.0062
3772.50,0.0062
3772.25,0.0062
3772.00,0.0062
3771.75,0.0063
3771.50,0.0063
3771.25,0.0064
3771.00,0.0065
3770.75,0.0064
3770.50,0.0064
3770.25,0.0062
3770.00,0.0062
3769.75,0.0062
3769.50,0.0062
3769.25,0.0063
3769.00,0.0063
3768.75,0.0063
3768.50,0.0063
3768.25,0.0063
3768.00,0.0063
3767.75,0.0063
3767.50,0.0063
3767.25,0.0064
3767.00,0.0064
3766.75,0.0064
3766.50,0.0064
3766.25,0.0064
3766.00,0.0063
3765.75,0.0062
3765.50,0.0061
3765.25,0.0060
3765.00,0.0060
3764.75,0.0062
3764.50,0.0064
3764.25,0.0067
3764.00,0.0069
3763.75,0.0070
3763.50,0.0071
3763.25,0.0071
3763.00,0.0071
3762.75,0.0069
3762.50,0.0067
3762.25,0.0064
3762.00,0.0062
3761.75,0.0061
3761.50,0.0060
3761.25,0.0060
3761.00,0.0059
3760.75,0.0058
3760.50,0.0057
3760.25,0.0056
3760.00,0.0055
3759.75,0.0056
3759.50,0.0059
3759.25,0.0061
3759.00,0.0062
3758.75,0.0062
3758.50,0.0062
3758.25,0.0063
3758.00,0.0064
3757.75,0.0066
3757.50,0.0067
3757.25,0.0067
3757.00,0.0066
3756.75,0.0064
3756.50,0.0063
3756.25,0.0061
3756.00,0.0060
3755.75,0.0060
3755.50,0.0062
3755.25,0.0064
3755.00,0.0066
3754.75,0.0067
3754.50,0.0067
3754.25,0.0066
3754.00,0.0065
3753.75,0.0065
3753.50,0.0064
3753.25,0.0064
3753.00,0.0063
3752.75,0.0061
3752.50,0.0059
3752.25,0.0059
3752.00,0.0059
3751.75,0.0058
3751.50,0.0057
3751.25,0.0057
3751.00,0.0057
3750.75,0.0058
3750.50,0.0059
3750.25,0.0060
3750.00,0.0060
3749.75,0.0059
3749.50,0.0059
3749.25,0.0058
3749.00,0.0055
3748.75,0.0053
3748.50,0.0053
3748.25,0.0055
3748.00,0.0056
3747.75,0.0058
3747.50,0.0061
3747.25,0.0062
3747.00,0.0063
3746.75,0.0062
3746.50,0.0060
3746.25,0.0058
3746.00,0.0057
3745.75,0.0056
3745.50,0.0054
3745.25,0.0052
3745.00,0.0048
3744.75,0.0044
3744.50,0.0048
3744.25,0.0050
3744.00,0.0046
3743.75,0.0046
3743.50,0.0049
3743.25,0.0052
3743.00,0.0055
3742.75,0.0058
3742.50,0.0060
3742.25,0.0062
3742.00,0.0063
3741.75,0.0062
3741.50,0.0062
3741.25,0.0063
3741.00,0.0067
3740.75,0.0069
3740.50,0.0070
3740.25,0.0068
3740.00,0.0066
3739.75,0.0063
3739.50,0.0062
3739.25,0.0061
3739.00,0.0060
3738.75,0.0060
3738.50,0.0061
3738.25,0.0063
3738.00,0.0065
3737.75,0.0066
3737.50,0.0065
3737.25,0.0062
3737.00,0.0059
3736.75,0.0057
3736.50,0.0057
3736.25,0.0057
3736.00,0.0057
3735.75,0.0055
3735.50,0.0053
3735.25,0.0052
3735.00,0.0054
3734.75,0.0058
3734.50,0.0060
3734.25,0.0059
3734.00,0.0057
3733.75,0.0056
3733.50,0.0056
3733.25,0.0057
3733.00,0.0058
3732.75,0.0061
3732.50,0.0063
3732.25,0.0067
3732.00,0.0069
3731.75,0.0068
3731.50,0.0065
3731.25,0.0063
3731.00,0.0061
3730.75,0.0059
3730.50,0.0058
3730.25,0.0057
3730.00,0.0057
3729.75,0.0058
3729.50,0.0059
3729.25,0.0061
3729.00,0.0062
3728.75,0.0063
3728.50,0.0062
3728.25,0.0062
3728.00,0.0062
3727.75,0.0062
3727.50,0.0062
3727.25,0.0061
3727.00,0.0061
3726.75,0.0061
3726.50,0.0062
3726.25,0.0061
3726.00,0.0061
3725.75,0.0061
3725.50,0.0062
3725.25,0.0063
3725.00,0.0065
3724.75,0.0067
3724.50,0.0068
3724.25,0.0067
3724.00,0.0067
3723.75,0.0066
3723.50,0.0066
3723.25,0.0067
3723.00,0.0068
3722.75,0.0069
3722.50,0.0069
3722.25,0.0068
3722.00,0.0064
3721.75,0.0061
3721.50,0.0058
3721.25,0.0058
3721.00,0.0058
3720.75,0.0060
3720.50,0.0062
3720.25,0.0064
3720.00,0.0065
3719.75,0.0065
3719.50,0.0063
3719.25,0.0061
3719.00,0.0059
3718.75,0.0058
3718.50,0.0058
3718.25,0.0059
3718.00,0.0060
3717.75,0.0062
3717.50,0.0064
3717.25,0.0066
3717.00,0.0066
3716.75,0.0066
3716.50,0.0066
3716.25,0.0066
3716.00,0.0066
3715.75,0.0066
3715.50,0.0066
3715.25,0.0066
3715.00,0.0066
3714.75,0.0065
3714.50,0.0065
3714.25,0.0063
3714.00,0.0062
3713.75,0.0061
3713.50,0.0062
3713.25,0.0063
3713.00,0.0064
3712.75,0.0064
3712.50,0.0063
3712.25,0.0062
3712.00,0.0062
3711.75,0.0059
3711.50,0.0057
3711.25,0.0055
3711.00,0.0056
3710.75,0.0056
3710.50,0.0058
3710.25,0.0058
3710.00,0.0058
3709.75,0.0056
3709.50,0.0056
3709.25,0.0057
3709.00,0.0059
3708.75,0.0062
3708.50,0.0063
3708.25,0.0065
3708.00,0.0067
3707.75,0.0068
3707.50,0.0069
3707.25,0.0069
3707.00,0.0068
3706.75,0.0067
3706.50,0.0067
3706.25,0.0067
3706.00,0.0067
3705.75,0.0068
3705.50,0.0068
3705.25,0.0069
3705.00,0.0069
3704.75,0.0069
3704.50,0.0068
3704.25,0.0066
3704.00,0.0064
3703.75,0.0063
3703.50,0.0063
3703.25,0.0064
3703.00,0.0066
3702.75,0.0067
3702.50,0.0067
3702.25,0.0065
3702.00,0.0062
3701.75,0.0060
3701.50,0.0058
3701.25,0.0058
3701.00,0.0060
3700.75,0.0062
3700.50,0.0064
3700.25,0.0066
3700.00,0.0068
3699.75,0.0069
3699.50,0.0070
3699.25,0.0070
3699.00,0.0070
3698.75,0.0070
3698.50,0.0069
3698.25,0.0068
3698.00,0.0068
3697.75,0.0067
3697.50,0.0067
3697.25,0.0067
3697.00,0.0067
3696.75,0.0066
3696.50,0.0065
3696.25,0.0064
3696.00,0.0063
3695.75,0.0062
3695.50,0.0062
3695.25,0.0063
3695.00,0.0064
3694.75,0.0064
3694.50,0.0064
3694.25,0.0065
3694.00,0.0065
3693.75,0.0066
3693.50,0.0066
3693.25,0.0066
3693.00,0.0064
3692.75,0.0063
3692.50,0.0062
3692.25,0.0061
3692.00,0.0061
3691.75,0.0061
3691.50,0.0060
3691.25,0.0061
3691.00,0.0062
3690.75,0.0062
3690.50,0.0060
3690.25,0.0058
3690.00,0.0056
3689.75,0.0055
3689.50,0.0054
3689.25,0.0052
3689.00,0.0050
3688.75,0.0048
3688.50,0.0051
3688.25,0.0059
3688.00,0.0063
3687.75,0.0064
3687.50,0.0063
3687.25,0.0061
3687.00,0.0061
3686.75,0.0063
3686.50,0.0064
3686.25,0.0066
3686.00,0.0066
3685.75,0.0064
3685.50,0.0063
3685.25,0.0061
3685.00,0.0061
3684.75,0.0062
3684.50,0.0063
3684.25,0.0063
3684.00,0.0064
3683.75,0.0065
3683.50,0.0067
3683.25,0.0069
3683.00,0.0071
3682.75,0.0071
3682.50,0.0070
3682.25,0.0069
3682.00,0.0067
3681.75,0.0065
3681.50,0.0063
3681.25,0.0062
3681.00,0.0062
3680.75,0.0062
3680.50,0.0063
3680.25,0.0064
3680.00,0.0064
3679.75,0.0063
3679.50,0.0061
3679.25,0.0060
3679.00,0.0060
3678.75,0.0061
3678.50,0.0062
3678.25,0.0062
3678.00,0.0061
3677.75,0.0060
3677.50,0.0058
3677.25,0.0058
3677.00,0.0057
3676.75,0.0057
3676.50,0.0054
3676.25,0.0051
3676.00,0.0050
3675.75,0.0050
3675.50,0.0049
3675.25,0.0045
3675.00,0.0041
3674.75,0.0039
3674.50,0.0041
3674.25,0.0046
3674.00,0.0052
3673.75,0.0057
3673.50,0.0060
3673.25,0.0062
3673.00,0.0063
3672.75,0.0062
3672.50,0.0061
3672.25,0.0061
3672.00,0.0061
3671.75,0.0061
3671.50,0.0061
3671.25,0.0058
3671.00,0.0055
3670.75,0.0053
3670.50,0.0054
3670.25,0.0057
3670.00,0.0059
3669.75,0.0061
3669.50,0.0061
3669.25,0.0060
3669.00,0.0059
3668.75,0.0058
3668.50,0.0057
3668.25,0.0057
3668.00,0.0057
3667.75,0.0059
3667.50,0.0060
3667.25,0.0061
3667.00,0.0062
3666.75,0.0063
3666.50,0.0064
3666.25,0.0065
3666.00,0.0068
3665.75,0.0070
3665.50,0.0072
3665.25,0.0074
3665.00,0.0074
3664.75,0.0073
3664.50,0.0071
3664.25,0.0070
3664.00,0.0069
3663.75,0.0069
3663.50,0.0069
3663.25,0.0069
3663.00,0.0068
3662.75,0.0066
3662.50,0.0064
3662.25,0.0062
3662.00,0.0062
3661.75,0.0062
3661.50,0.0063
3661.25,0.0064
3661.00,0.0065
3660.75,0.0065
3660.50,0.0065
3660.25,0.0065
3660.00,0.0065
3659.75,0.0066
3659.50,0.0066
3659.25,0.0067
3659.00,0.0067
3658.75,0.0067
3658.50,0.0067
3658.25,0.0066
3658.00,0.0065
3657.75,0.0064
3657.50,0.0064
3657.25,0.0065
3657.00,0.0067
3656.75,0.0067
3656.50,0.0065
3656.25,0.0063
3656.00,0.0060
3655.75,0.0059
3655.50,0.0061
3655.25,0.0063
3655.00,0.0064
3654.75,0.0065
3654.50,0.0064
3654.25,0.0063
3654.00,0.0061
3653.75,0.0060
3653.50,0.0060
3653.25,0.0062
3653.00,0.0064
3652.75,0.0065
3652.50,0.0066
3652.25,0.0066
3652.00,0.0064
3651.75,0.0062
3651.50,0.0061
3651.25,0.0060
3651.00,0.0059
3650.75,0.0058
3650.50,0.0056
3650.25,0.0057
3650.00,0.0057
3649.75,0.0056
3649.50,0.0053
3649.25,0.0051
3649.00,0.0051
3648.75,0.0054
3648.50,0.0056
3648.25,0.0058
3648.00,0.0058
3647.75,0.0059
3647.50,0.0060
3647.25,0.0062
3647.00,0.0062
3646.75,0.0061
3646.50,0.0062
3646.25,0.0064
3646.00,0.0065
3645.75,0.0067
3645.50,0.0067
3645.25,0.0068
3645.00,0.0068
3644.75,0.0069
3644.50,0.0070
3644.25,0.0071
3644.00,0.0071
3643.75,0.0069
3643.50,0.0068
3643.25,0.0067
3643.00,0.0066
3642.75,0.0066
3642.50,0.0066
3642.25,0.0066
3642.00,0.0066
3641.75,0.0066
3641.50,0.0065
3641.25,0.0064
3641.00,0.0064
3640.75,0.0064
3640.50,0.0064
3640.25,0.0064
3640.00,0.0064
3639.75,0.0064
3639.50,0.0063
3639.25,0.0063
3639.00,0.0063
3638.75,0.0064
3638.50,0.0064
3638.25,0.0065
3638.00,0.0066
3637.75,0.0067
3637.50,0.0066
3637.25,0.0065
3637.00,0.0064
3636.75,0.0064
3636.50,0.0065
3636.25,0.0067
3636.00,0.0068
3635.75,0.0069
3635.50,0.0068
3635.25,0.0067
3635.00,0.0067
3634.75,0.0066
3634.50,0.0065
3634.25,0.0066
3634.00,0.0067
3633.75,0.0070
3633.50,0.0071
3633.25,0.0070
3633.00,0.0067
3632.75,0.0065
3632.50,0.0064
3632.25,0.0064
3632.00,0.0066
3631.75,0.0068
3631.50,0.0070
3631.25,0.0070
3631.00,0.0070
3630.75,0.0068
3630.50,0.0066
3630.25,0.0063
3630.00,0.0060
3629.75,0.0056
3629.50,0.0053
3629.25,0.0052
3629.00,0.0050
3628.75,0.0047
3628.50,0.0045
3628.25,0.0046
3628.00,0.0050
3627.75,0.0057
3627.50,0.0062
3627.25,0.0066
3627.00,0.0067
3626.75,0.0068
3626.50,0.0068
3626.25,0.0068
3626.00,0.0068
3625.75,0.0067
3625.50,0.0065
3625.25,0.0063
3625.00,0.0061
3624.75,0.0060
3624.50,0.0061
3624.25,0.0063
3624.00,0.0066
3623.75,0.0068
3623.50,0.0071
3623.25,0.0072
3623.00,0.0071
3622.75,0.0069
3622.50,0.0067
3622.25,0.0065
3622.00,0.0064
3621.75,0.0065
3621.50,0.0066
3621.25,0.0068
3621.00,0.0069
3620.75,0.0069
3620.50,0.0069
3620.25,0.0068
3620.00,0.0066
3619.75,0.0064
3619.50,0.0065
3619.25,0.0066
3619.00,0.0069
3618.75,0.0071
3618.50,0.0072
3618.25,0.0072
3618.00,0.0071
3617.75,0.0071
3617.50,0.0070
3617.25,0.0067
3617.00,0.0065
3616.75,0.0063
3616.50,0.0062
3616.25,0.0062
3616.00,0.0063
3615.75,0.0066
3615.50,0.0070
3615.25,0.0073
3615.00,0.0074
3614.75,0.0072
3614.50,0.0069
3614.25,0.0065
3614.00,0.0064
3613.75,0.0064
3613.50,0.0064
3613.25,0.0065
3613.00,0.0066
3612.75,0.0066
3612.50,0.0065
3612.25,0.0064
3612.00,0.0061
3611.75,0.0060
3611.50,0.0060
3611.25,0.0060
3611.00,0.0060
3610.75,0.0062
3610.50,0.0063
3610.25,0.0064
3610.00,0.0063
3609.75,0.0062
3609.50,0.0061
3609.25,0.0061
3609.00,0.0063
3608.75,0.0065
3608.50,0.0067
3608.25,0.0068
3608.00,0.0068
3607.75,0.0068
3607.50,0.0067
3607.25,0.0067
3607.00,0.0067
3606.75,0.0067
3606.50,0.0065
3606.25,0.0062
3606.00,0.0061
3605.75,0.0060
3605.50,0.0061
3605.25,0.0062
3605.00,0.0064
3604.75,0.0067
3604.50,0.0069
3604.25,0.0070
3604.00,0.0071
3603.75,0.0071
3603.50,0.0070
3603.25,0.0069
3603.00,0.0068
3602.75,0.0067
3602.50,0.0066
3602.25,0.0065
3602.00,0.0065
3601.75,0.0065
3601.50,0.0065
3601.25,0.0065
3601.00,0.0066
3600.75,0.0067
3600.50,0.0068
3600.25,0.0068
3600.00,0.0068
3599.75,0.0069
3599.50,0.0070
3599.25,0.0071
3599.00,0.0071
3598.75,0.0071
3598.50,0.0070
3598.25,0.0068
3598.00,0.0066
3597.75,0.0065
3597.50,0.0065
3597.25,0.0066
3597.00,0.0066
3596.75,0.0067
3596.50,0.0066
3596.25,0.0066
3596.00,0.0065
3595.75,0.0064
3595.50,0.0064
3595.25,0.0065
3595.00,0.0065
3594.75,0.0066
3594.50,0.0065
3594.25,0.0064
3594.00,0.0063
3593.75,0.0063
3593.50,0.0064
3593.25,0.0065
3593.00,0.0067
3592.75,0.0069
3592.50,0.0069
3592.25,0.0069
3592.00,0.0069
3591.75,0.0068
3591.50,0.0068
3591.25,0.0069
3591.00,0.0071
3590.75,0.0073
3590.50,0.0075
3590.25,0.0077
3590.00,0.0076
3589.75,0.0075
3589.50,0.0074
3589.25,0.0072
3589.00,0.0070
3588.75,0.0069
3588.50,0.0068
3588.25,0.0066
3588.00,0.0064
3587.75,0.0063
3587.50,0.0063
3587.25,0.0063
3587.00,0.0064
3586.75,0.0064
3586.50,0.0063
3586.25,0.0061
3586.00,0.0061
3585.75,0.0062
3585.50,0.0064
3585.25,0.0065
3585.00,0.0065
3584.75,0.0065
3584.50,0.0066
3584.25,0.0067
3584.00,0.0069
3583.75,0.0071
3583.50,0.0071
3583.25,0.0070
3583.00,0.0068
3582.75,0.0067
3582.50,0.0068
3582.25,0.0069
3582.00,0.0071
3581.75,0.0071
3581.50,0.0071
3581.25,0.0069
3581.00,0.0068
3580.75,0.0067
3580.50,0.0067
3580.25,0.0067
3580.00,0.0067
3579.75,0.0067
3579.50,0.0068
3579.25,0.0069
3579.00,0.0070
3578.75,0.0070
3578.50,0.0069
3578.25,0.0068
3578.00,0.0067
3577.75,0.0067
3577.50,0.0069
3577.25,0.0071
3577.00,0.0071
3576.75,0.0070
3576.50,0.0068
3576.25,0.0066
3576.00,0.0065
3575.75,0.0065
3575.50,0.0066
3575.25,0.0067
3575.00,0.0067
3574.75,0.0068
3574.50,0.0068
3574.25,0.0069
3574.00,0.0070
3573.75,0.0070
3573.50,0.0070
3573.25,0.0069
3573.00,0.0069
3572.75,0.0069
3572.50,0.0069
3572.25,0.0070
3572.00,0.0070
3571.75,0.0070
3571.50,0.0070
3571.25,0.0070
3571.00,0.0070
3570.75,0.0070
3570.50,0.0070
3570.25,0.0070
3570.00,0.0069
3569.75,0.0069
3569.50,0.0069
3569.25,0.0068
3569.00,0.0067
3568.75,0.0066
3568.50,0.0066
3568.25,0.0066
3568.00,0.0067
3567.75,0.0067
3567.50,0.0066
3567.25,0.0067
3567.00,0.0067
3566.75,0.0069
3566.50,0.0071
3566.25,0.0071
3566.00,0.0070
3565.75,0.0068
3565.50,0.0067
3565.25,0.0066
3565.00,0.0066
3564.75,0.0067
3564.50,0.0068
3564.25,0.0070
3564.00,0.0071
3563.75,0.0071
3563.50,0.0071
3563.25,0.0071
3563.00,0.0071
3562.75,0.0072
3562.50,0.0071
3562.25,0.0071
3562.00,0.0070
3561.75,0.0069
3561.50,0.0068
3561.25,0.0068
3561.00,0.0068
3560.75,0.0069
3560.50,0.0070
3560.25,0.0070
3560.00,0.0070
3559.75,0.0068
3559.50,0.0067
3559.25,0.0067
3559.00,0.0068
3558.75,0.0070
3558.50,0.0072
3558.25,0.0073
3558.00,0.0072
3557.75,0.0071
3557.50,0.0070
3557.25,0.0069
3557.00,0.0068
3556.75,0.0069
3556.50,0.0070
3556.25,0.0071
3556.00,0.0072
3555.75,0.0072
3555.50,0.0072
3555.25,0.0071
3555.00,0.0069
3554.75,0.0066
3554.50,0.0065
3554.25,0.0064
3554.00,0.0064
3553.75,0.0064
3553.50,0.0064
3553.25,0.0065
3553.00,0.0065
3552.75,0.0066
3552.50,0.0067
3552.25,0.0068
3552.00,0.0068
3551.75,0.0067
3551.50,0.0066
3551.25,0.0065
3551.00,0.0065
3550.75,0.0065
3550.50,0.0066
3550.25,0.0067
3550.00,0.0068
3549.75,0.0068
3549.50,0.0068
3549.25,0.0068
3549.00,0.0068
3548.75,0.0068
3548.50,0.0068
3548.25,0.0069
3548.00,0.0070
3547.75,0.0070
3547.50,0.0069
3547.25,0.0067
3547.00,0.0064
3546.75,0.0062
3546.50,0.0061
3546.25,0.0063
3546.00,0.0066
3545.75,0.0069
3545.50,0.0071
3545.25,0.0072
3545.00,0.0071
3544.75,0.0069
3544.50,0.0068
3544.25,0.0069
3544.00,0.0070
3543.75,0.0070
3543.50,0.0070
3543.25,0.0069
3543.00,0.0069
3542.75,0.0069
3542.50,0.0069
3542.25,0.0070
3542.00,0.0069
3541.75,0.0068
3541.50,0.0067
3541.25,0.0067
3541.00,0.0067
3540.75,0.0068
3540.50,0.0070
3540.25,0.0070
3540.00,0.0070
3539.75,0.0069
3539.50,0.0068
3539.25,0.0067
3539.00,0.0067
3538.75,0.0066
3538.50,0.0066
3538.25,0.0067
3538.00,0.0067
3537.75,0.0068
3537.50,0.0069
3537.25,0.0070
3537.00,0.0071
3536.75,0.0071
3536.50,0.0069
3536.25,0.0067
3536.00,0.0064
3535.75,0.0063
3535.50,0.0063
3535.25,0.0063
3535.00,0.0064
3534.75,0.0065
3534.50,0.0067
3534.25,0.0069
3534.00,0.0071
3533.75,0.0073
3533.50,0.0074
3533.25,0.0075
3533.00,0.0075
3532.75,0.0074
3532.50,0.0074
3532.25,0.0073
3532.00,0.0073
3531.75,0.0073
3531.50,0.0074
3531.25,0.0074
3531.00,0.0074
3530.75,0.0073
3530.50,0.0071
3530.25,0.0069
3530.00,0.0068
3529.75,0.0067
3529.50,0.0067
3529.25,0.0067
3529.00,0.0067
3528.75,0.0066
3528.50,0.0065
3528.25,0.0064
3528.00,0.0064
3527.75,0.0065
3527.50,0.0067
3527.25,0.0068
3527.00,0.0070
3526.75,0.0070
3526.50,0.0070
3526.25,0.0070
3526.00,0.0069
3525.75,0.0068
3525.50,0.0067
3525.25,0.0067
3525.00,0.0068
3524.75,0.0070
3524.50,0.0072
3524.25,0.0074
3524.00,0.0076
3523.75,0.0076
3523.50,0.0076
3523.25,0.0074
3523.00,0.0071
3522.75,0.0068
3522.50,0.0066
3522.25,0.0066
3522.00,0.0067
3521.75,0.0068
3521.50,0.0070
3521.25,0.0071
3521.00,0.0072
3520.75,0.0071
3520.50,0.0071
3520.25,0.0069
3520.00,0.0068
3519.75,0.0066
3519.50,0.0065
3519.25,0.0064
3519.00,0.0064
3518.75,0.0065
3518.50,0.0066
3518.25,0.0068
3518.00,0.0069
3517.75,0.0070
3517.50,0.0070
3517.25,0.0069
3517.00,0.0069
3516.75,0.0069
3516.50,0.0069
3516.25,0.0070
3516.00,0.0070
3515.75,0.0069
3515.50,0.0068
3515.25,0.0067
3515.00,0.0066
3514.75,0.0066
3514.50,0.0067
3514.25,0.0068
3514.00,0.0069
3513.75,0.0069
3513.50,0.0068
3513.25,0.0067
3513.00,0.0067
3512.75,0.0067
3512.50,0.0068
3512.25,0.0069
3512.00,0.0071
3511.75,0.0072
3511.50,0.0072
3511.25,0.0072
3511.00,0.0072
3510.75,0.0070
3510.50,0.0068
3510.25,0.0067
3510.00,0.0066
3509.75,0.0066
3509.50,0.0067
3509.25,0.0068
3509.00,0.0069
3508.75,0.0070
3508.50,0.0071
3508.25,0.0072
3508.00,0.0074
3507.75,0.0076
3507.50,0.0077
3507.25,0.0077
3507.00,0.0076
3506.75,0.0073
3506.50,0.0071
3506.25,0.0068
3506.00,0.0067
3505.75,0.0066
3505.50,0.0066
3505.25,0.0067
3505.00,0.0068
3504.75,0.0069
3504.50,0.0070
3504.25,0.0071
3504.00,0.0071
3503.75,0.0071
3503.50,0.0070
3503.25,0.0070
3503.00,0.0070
3502.75,0.0070
3502.50,0.0070
3502.25,0.0070
3502.00,0.0069
3501.75,0.0069
3501.50,0.0069
3501.25,0.0068
3501.00,0.0068
3500.75,0.0068
3500.50,0.0068
3500.25,0.0068
3500.00,0.0069
3499.75,0.0069
3499.50,0.0070
3499.25,0.0072
3499.00,0.0073
3498.75,0.0073
3498.50,0.0072
3498.25,0.0071
3498.00,0.0069
3497.75,0.0068
3497.50,0.0067
3497.25,0.0066
3497.00,0.0065
3496.75,0.0065
3496.50,0.0066
3496.25,0.0067
3496.00,0.0069
3495.75,0.0071
3495.50,0.0072
3495.25,0.0072
3495.00,0.0072
3494.75,0.0072
3494.50,0.0070
3494.25,0.0069
3494.00,0.0068
3493.75,0.0067
3493.50,0.0068
3493.25,0.0069
3493.00,0.0070
3492.75,0.0071
3492.50,0.0072
3492.25,0.0072
3492.00,0.0073
3491.75,0.0072
3491.50,0.0072
3491.25,0.0072
3491.00,0.0071
3490.75,0.0071
3490.50,0.0070
3490.25,0.0069
3490.00,0.0068
3489.75,0.0068
3489.50,0.0068
3489.25,0.0068
3489.00,0.0069
3488.75,0.0069
3488.50,0.0069
3488.25,0.0069
3488.00,0.0069
3487.75,0.0070
3487.50,0.0070
3487.25,0.0071
3487.00,0.0072
3486.75,0.0071
3486.50,0.0070
3486.25,0.0069
3486.00,0.0068
3485.75,0.0068
3485.50,0.0069
3485.25,0.0069
3485.00,0.0070
3484.75,0.0072
3484.50,0.0073
3484.25,0.0073
3484.00,0.0071
3483.75,0.0069
3483.50,0.0068
3483.25,0.0067
3483.00,0.0067
3482.75,0.0068
3482.50,0.0068
3482.25,0.0068
3482.00,0.0068
3481.75,0.0068
3481.50,0.0068
3481.25,0.0068
3481.00,0.0068
3480.75,0.0069
3480.50,0.0070
3480.25,0.0070
3480.00,0.0071
3479.75,0.0071
3479.50,0.0070
3479.25,0.0069
3479.00,0.0068
3478.75,0.0068
3478.50,0.0068
3478.25,0.0068
3478.00,0.0069
3477.75,0.0069
3477.50,0.0069
3477.25,0.0070
3477.00,0.0071
3476.75,0.0072
3476.50,0.0072
3476.25,0.0072
3476.00,0.0072
3475.75,0.0071
3475.50,0.0070
3475.25,0.0069
3475.00,0.0069
3474.75,0.0068
3474.50,0.0067
3474.25,0.0067
3474.00,0.0067
3473.75,0.0067
3473.50,0.0068
3473.25,0.0070
3473.00,0.0070
3472.75,0.0071
3472.50,0.0071
3472.25,0.0072
3472.00,0.0073
3471.75,0.0073
3471.50,0.0073
3471.25,0.0073
3471.00,0.0072
3470.75,0.0072
3470.50,0.0072
3470.25,0.0073
3470.00,0.0072
3469.75,0.0072
3469.50,0.0071
3469.25,0.0070
3469.00,0.0069
3468.75,0.0069
3468.50,0.0069
3468.25,0.0070
3468.00,0.0071
3467.75,0.0073
3467.50,0.0074
3467.25,0.0075
3467.00,0.0076
3466.75,0.0077
3466.50,0.0076
3466.25,0.0075
3466.00,0.0074
3465.75,0.0073
3465.50,0.0072
3465.25,0.0072
3465.00,0.0071
3464.75,0.0071
3464.50,0.0071
3464.25,0.0071
3464.00,0.0071
3463.75,0.0071
3463.50,0.0070
3463.25,0.0070
3463.00,0.0070
3462.75,0.0071
3462.50,0.0071
3462.25,0.0071
3462.00,0.0071
3461.75,0.0070
3461.50,0.0070
3461.25,0.0070
3461.00,0.0069
3460.75,0.0068
3460.50,0.0066
3460.25,0.0066
3460.00,0.0066
3459.75,0.0067
3459.50,0.0069
3459.25,0.0071
3459.00,0.0072
3458.75,0.0072
3458.50,0.0070
3458.25,0.0068
3458.00,0.0066
3457.75,0.0066
3457.50,0.0067
3457.25,0.0069
3457.00,0.0072
3456.75,0.0074
3456.50,0.0074
3456.25,0.0074
3456.00,0.0073
3455.75,0.0072
3455.50,0.0070
3455.25,0.0069
3455.00,0.0069
3454.75,0.0068
3454.50,0.0067
3454.25,0.0067
3454.00,0.0067
3453.75,0.0067
3453.50,0.0067
3453.25,0.0067
3453.00,0.0067
3452.75,0.0067
3452.50,0.0066
3452.25,0.0065
3452.00,0.0066
3451.75,0.0066
3451.50,0.0067
3451.25,0.0068
3451.00,0.0068
3450.75,0.0069
3450.50,0.0069
3450.25,0.0070
3450.00,0.0070
3449.75,0.0070
3449.50,0.0071
3449.25,0.0071
3449.00,0.0072
3448.75,0.0072
3448.50,0.0071
3448.25,0.0071
3448.00,0.0071
3447.75,0.0072
3447.50,0.0073
3447.25,0.0074
3447.00,0.0075
3446.75,0.0074
3446.50,0.0073
3446.25,0.0071
3446.00,0.0070
3445.75,0.0071
3445.50,0.0072
3445.25,0.0074
3445.00,0.0074
3444.75,0.0074
3444.50,0.0074
3444.25,0.0075
3444.00,0.0075
3443.75,0.0075
3443.50,0.0074
3443.25,0.0073
3443.00,0.0072
3442.75,0.0072
3442.50,0.0072
3442.25,0.0070
3442.00,0.0069
3441.75,0.0067
3441.50,0.0067
3441.25,0.0067
3441.00,0.0067
3440.75,0.0068
3440.50,0.0069
3440.25,0.0069
3440.00,0.0069
3439.75,0.0069
3439.50,0.0070
3439.25,0.0071
3439.00,0.0071
3438.75,0.0072
3438.50,0.0071
3438.25,0.0071
3438.00,0.0071
3437.75,0.0071
3437.50,0.0071
3437.25,0.0071
3437.00,0.0071
3436.75,0.0070
3436.50,0.0071
3436.25,0.0071
3436.00,0.0071
3435.75,0.0070
3435.50,0.0070
3435.25,0.0070
3435.00,0.0070
3434.75,0.0071
3434.50,0.0071
3434.25,0.0071
3434.00,0.0070
3433.75,0.0068
3433.50,0.0067
3433.25,0.0066
3433.00,0.0065
3432.75,0.0065
3432.50,0.0066
3432.25,0.0068
3432.00,0.0069
3431.75,0.0070
3431.50,0.0070
3431.25,0.0070
3431.00,0.0070
3430.75,0.0071
3430.50,0.0071
3430.25,0.0071
3430.00,0.0071
3429.75,0.0070
3429.50,0.0070
3429.25,0.0070
3429.00,0.0070
3428.75,0.0071
3428.50,0.0071
3428.25,0.0070
3428.00,0.0069
3427.75,0.0067
3427.50,0.0067
3427.25,0.0067
3427.00,0.0069
3426.75,0.0071
3426.50,0.0073
3426.25,0.0074
3426.00,0.0074
3425.75,0.0073
3425.50,0.0072
3425.25,0.0071
3425.00,0.0070
3424.75,0.0069
3424.50,0.0069
3424.25,0.0070
3424.00,0.0070
3423.75,0.0070
3423.50,0.0070
3423.25,0.0071
3423.00,0.0071
3422.75,0.0071
3422.50,0.0071
3422.25,0.0071
3422.00,0.0071
3421.75,0.0070
3421.50,0.0070
3421.25,0.0069
3421.00,0.0069
3420.75,0.0069
3420.50,0.0069
3420.25,0.0068
3420.00,0.0067
3419.75,0.0066
3419.50,0.0065
3419.25,0.0065
3419.00,0.0065
3418.75,0.0067
3418.50,0.0068
3418.25,0.0069
3418.00,0.0070
3417.75,0.0070
3417.50,0.0069
3417.25,0.0068
3417.00,0.0067
3416.75,0.0067
3416.50,0.0067
3416.25,0.0068
3416.00,0.0069
3415.75,0.0070
3415.50,0.0071
3415.25,0.0071
3415.00,0.0071
3414.75,0.0072
3414.50,0.0072
3414.25,0.0072
3414.00,0.0071
3413.75,0.0071
3413.50,0.0070
3413.25,0.0070
3413.00,0.0069
3412.75,0.0068
3412.50,0.0068
3412.25,0.0068
3412.00,0.0068
3411.75,0.0069
3411.50,0.0070
3411.25,0.0071
3411.00,0.0072
3410.75,0.0073
3410.50,0.0073
3410.25,0.0073
3410.00,0.0073
3409.75,0.0072
3409.50,0.0072
3409.25,0.0071
3409.00,0.0070
3408.75,0.0070
3408.50,0.0069
3408.25,0.0069
3408.00,0.0068
3407.75,0.0068
3407.50,0.0068
3407.25,0.0069
3407.00,0.0069
3406.75,0.0069
3406.50,0.0070
3406.25,0.0070
3406.00,0.0070
3405.75,0.0070
3405.50,0.0070
3405.25,0.0069
3405.00,0.0069
3404.75,0.0069
3404.50,0.0069
3404.25,0.0070
3404.00,0.0070
3403.75,0.0071
3403.50,0.0072
3403.25,0.0072
3403.00,0.0072
3402.75,0.0070
3402.50,0.0069
3402.25,0.0068
3402.00,0.0068
3401.75,0.0069
3401.50,0.0069
3401.25,0.0069
3401.00,0.0069
3400.75,0.0068
3400.50,0.0067
3400.25,0.0067
3400.00,0.0067
3399.75,0.0066
3399.50,0.0067
3399.25,0.0068
3399.00,0.0069
3398.75,0.0070
3398.50,0.0070
3398.25,0.0071
3398.00,0.0070
3397.75,0.0070
3397.50,0.0070
3397.25,0.0070
3397.00,0.0070
3396.75,0.0071
3396.50,0.0072
3396.25,0.0072
3396.00,0.0073
3395.75,0.0072
3395.50,0.0072
3395.25,0.0071
3395.00,0.0070
3394.75,0.0069
3394.50,0.0068
3394.25,0.0067
3394.00,0.0067
3393.75,0.0067
3393.50,0.0067
3393.25,0.0068
3393.00,0.0069
3392.75,0.0069
3392.50,0.0070
3392.25,0.0071
3392.00,0.0072
3391.75,0.0072
3391.50,0.0072
3391.25,0.0071
3391.00,0.0070
3390.75,0.0069
3390.50,0.0067
3390.25,0.0067
3390.00,0.0069
3389.75,0.0071
3389.50,0.0073
3389.25,0.0074
3389.00,0.0074
3388.75,0.0073
3388.50,0.0071
3388.25,0.0070
3388.00,0.0070
3387.75,0.0071
3387.50,0.0072
3387.25,0.0073
3387.00,0.0073
3386.75,0.0073
3386.50,0.0072
3386.25,0.0071
3386.00,0.0071
3385.75,0.0071
3385.50,0.0072
3385.25,0.0072
3385.00,0.0072
3384.75,0.0072
3384.50,0.0072
3384.25,0.0071
3384.00,0.0070
3383.75,0.0068
3383.50,0.0067
3383.25,0.0066
3383.00,0.0066
3382.75,0.0066
3382.50,0.0067
3382.25,0.0067
3382.00,0.0068
3381.75,0.0069
3381.50,0.0070
3381.25,0.0071
3381.00,0.0072
3380.75,0.0073
3380.50,0.0073
3380.25,0.0072
3380.00,0.0070
3379.75,0.0068
3379.50,0.0066
3379.25,0.0066
3379.00,0.0068
3378.75,0.0070
3378.50,0.0072
3378.25,0.0073
3378.00,0.0074
3377.75,0.0074
3377.50,0.0074
3377.25,0.0074
3377.00,0.0073
3376.75,0.0072
3376.50,0.0072
3376.25,0.0072
3376.00,0.0071
3375.75,0.0071
3375.50,0.0070
3375.25,0.0070
3375.00,0.0069
3374.75,0.0070
3374.50,0.0070
3374.25,0.0070
3374.00,0.0070
3373.75,0.0070
3373.50,0.0069
3373.25,0.0069
3373.00,0.0069
3372.75,0.0069
3372.50,0.0070
3372.25,0.0070
3372.00,0.0070
3371.75,0.0070
3371.50,0.0070
3371.25,0.0070
3371.00,0.0069
3370.75,0.0069
3370.50,0.0069
3370.25,0.0068
3370.00,0.0068
3369.75,0.0068
3369.50,0.0068
3369.25,0.0070
3369.00,0.0071
3368.75,0.0071
3368.50,0.0071
3368.25,0.0070
3368.00,0.0070
3367.75,0.0071
3367.50,0.0072
3367.25,0.0073
3367.00,0.0074
3366.75,0.0074
3366.50,0.0075
3366.25,0.0075
3366.00,0.0074
3365.75,0.0074
3365.50,0.0072
3365.25,0.0071
3365.00,0.0069
3364.75,0.0068
3364.50,0.0068
3364.25,0.0069
3364.00,0.0070
3363.75,0.0071
3363.50,0.0071
3363.25,0.0072
3363.00,0.0072
3362.75,0.0073
3362.50,0.0073
3362.25,0.0073
3362.00,0.0072
3361.75,0.0071
3361.50,0.0071
3361.25,0.0070
3361.00,0.0070
3360.75,0.0069
3360.50,0.0069
3360.25,0.0069
3360.00,0.0070
3359.75,0.0069
3359.50,0.0069
3359.25,0.0068
3359.00,0.0067
3358.75,0.0067
3358.50,0.0068
3358.25,0.0070
3358.00,0.0072
3357.75,0.0073
3357.50,0.0073
3357.25,0.0073
3357.00,0.0072
3356.75,0.0072
3356.50,0.0072
3356.25,0.0072
3356.00,0.0072
3355.75,0.0072
3355.50,0.0072
3355.25,0.0071
3355.00,0.0071
3354.75,0.0070
3354.50,0.0070
3354.25,0.0071
3354.00,0.0071
3353.75,0.0070
3353.50,0.0069
3353.25,0.0068
3353.00,0.0067
3352.75,0.0066
3352.50,0.0067
3352.25,0.0068
3352.00,0.0069
3351.75,0.0069
3351.50,0.0070
3351.25,0.0070
3351.00,0.0070
3350.75,0.0071
3350.50,0.0071
3350.25,0.0070
3350.00,0.0070
3349.75,0.0070
3349.50,0.0070
3349.25,0.0070
3349.00,0.0070
3348.75,0.0070
3348.50,0.0071
3348.25,0.0072
3348.00,0.0072
3347.75,0.0073
3347.50,0.0072
3347.25,0.0071
3347.00,0.0070
3346.75,0.0069
3346.50,0.0069
3346.25,0.0070
3346.00,0.0071
3345.75,0.0072
3345.50,0.0072
3345.25,0.0072
3345.00,0.0071
3344.75,0.0071
3344.50,0.0071
3344.25,0.0071
3344.00,0.0071
3343.75,0.0071
3343.50,0.0070
3343.25,0.0070
3343.00,0.0070
3342.75,0.0071
3342.50,0.0071
3342.25,0.0071
3342.00,0.0070
3341.75,0.0069
3341.50,0.0068
3341.25,0.0067
3341.00,0.0066
3340.75,0.0067
3340.50,0.0067
3340.25,0.0068
3340.00,0.0069
3339.75,0.0069
3339.50,0.0069
3339.25,0.0069
3339.00,0.0069
3338.75,0.0069
3338.50,0.0068
3338.25,0.0067
3338.00,0.0067
3337.75,0.0068
3337.50,0.0070
3337.25,0.0070
3337.00,0.0070
3336.75,0.0069
3336.50,0.0068
3336.25,0.0068
3336.00,0.0069
3335.75,0.0071
3335.50,0.0072
3335.25,0.0072
3335.00,0.0071
3334.75,0.0070
3334.50,0.0070
3334.25,0.0069
3334.00,0.0069
3333.75,0.0069
3333.50,0.0068
3333.25,0.0068
3333.00,0.0068
3332.75,0.0069
3332.50,0.0070
3332.25,0.0072
3332.00,0.0072
3331.75,0.0071
3331.50,0.0069
3331.25,0.0067
3331.00,0.0066
3330.75,0.0065
3330.50,0.0066
3330.25,0.0068
3330.00,0.0070
3329.75,0.0071
3329.50,0.0071
3329.25,0.0071
3329.00,0.0070
3328.75,0.0070
3328.50,0.0070
3328.25,0.0071
3328.00,0.0071
3327.75,0.0071
3327.50,0.0071
3327.25,0.0071
3327.00,0.0071
3326.75,0.0071
3326.50,0.0070
3326.25,0.0069
3326.00,0.0068
3325.75,0.0067
3325.50,0.0066
3325.25,0.0066
3325.00,0.0066
3324.75,0.0067
3324.50,0.0068
3324.25,0.0069
3324.00,0.0071
3323.75,0.0072
3323.50,0.0072
3323.25,0.0072
3323.00,0.0071
3322.75,0.0070
3322.50,0.0068
3322.25,0.0068
3322.00,0.0068
3321.75,0.0069
3321.50,0.0069
3321.25,0.0068
3321.00,0.0066
3320.75,0.0065
3320.50,0.0065
3320.25,0.0067
3320.00,0.0069
3319.75,0.0071
3319.50,0.0073
3319.25,0.0074
3319.00,0.0074
3318.75,0.0073
3318.50,0.0072
3318.25,0.0071
3318.00,0.0070
3317.75,0.0070
3317.50,0.0069
3317.25,0.0069
3317.00,0.0069
3316.75,0.0068
3316.50,0.0068
3316.25,0.0067
3316.00,0.0067
3315.75,0.0066
3315.50,0.0067
3315.25,0.0069
3315.00,0.0071
3314.75,0.0073
3314.50,0.0072
3314.25,0.0071
3314.00,0.0068
3313.75,0.0066
3313.50,0.0065
3313.25,0.0065
3313.00,0.0066
3312.75,0.0067
3312.50,0.0067
3312.25,0.0068
3312.00,0.0068
3311.75,0.0068
3311.50,0.0069
3311.25,0.0069
3311.00,0.0070
3310.75,0.0070
3310.50,0.0070
3310.25,0.0069
3310.00,0.0069
3309.75,0.0069
3309.50,0.0069
3309.25,0.0069
3309.00,0.0069
3308.75,0.0068
3308.50,0.0067
3308.25,0.0067
3308.00,0.0067
3307.75,0.0068
3307.50,0.0069
3307.25,0.0070
3307.00,0.0070
3306.75,0.0071
3306.50,0.0071
3306.25,0.0072
3306.00,0.0072
3305.75,0.0072
3305.50,0.0071
3305.25,0.0070
3305.00,0.0069
3304.75,0.0069
3304.50,0.0070
3304.25,0.0070
3304.00,0.0070
3303.75,0.0071
3303.50,0.0071
3303.25,0.0072
3303.00,0.0073
3302.75,0.0073
3302.50,0.0073
3302.25,0.0073
3302.00,0.0071
3301.75,0.0070
3301.50,0.0069
3301.25,0.0067
3301.00,0.0066
3300.75,0.0066
3300.50,0.0065
3300.25,0.0065
3300.00,0.0065
3299.75,0.0066
3299.50,0.0067
3299.25,0.0069
3299.00,0.0071
3298.75,0.0073
3298.50,0.0074
3298.25,0.0073
3298.00,0.0072
3297.75,0.0071
3297.50,0.0070
3297.25,0.0070
3297.00,0.0069
3296.75,0.0068
3296.50,0.0067
3296.25,0.0066
3296.00,0.0067
3295.75,0.0068
3295.50,0.0069
3295.25,0.0071
3295.00,0.0072
3294.75,0.0072
3294.50,0.0071
3294.25,0.0071
3294.00,0.0070
3293.75,0.0071
3293.50,0.0071
3293.25,0.0071
3293.00,0.0070
3292.75,0.0069
3292.50,0.0067
3292.25,0.0065
3292.00,0.0065
3291.75,0.0065
3291.50,0.0067
3291.25,0.0069
3291.00,0.0071
3290.75,0.0072
3290.50,0.0072
3290.25,0.0072
3290.00,0.0071
3289.75,0.0070
3289.50,0.0070
3289.25,0.0069
3289.00,0.0069
3288.75,0.0068
3288.50,0.0068
3288.25,0.0067
3288.00,0.0067
3287.75,0.0067
3287.50,0.0068
3287.25,0.0068
3287.00,0.0068
3286.75,0.0068
3286.50,0.0068
3286.25,0.0067
3286.00,0.0068
3285.75,0.0068
3285.50,0.0068
3285.25,0.0068
3285.00,0.0068
3284.75,0.0068
3284.50,0.0069
3284.25,0.0069
3284.00,0.0070
3283.75,0.0070
3283.50,0.0071
3283.25,0.0071
3283.00,0.0073
3282.75,0.0074
3282.50,0.0074
3282.25,0.0074
3282.00,0.0074
3281.75,0.0074
3281.50,0.0073
3281.25,0.0072
3281.00,0.0072
3280.75,0.0073
3280.50,0.0073
3280.25,0.0073
3280.00,0.0073
3279.75,0.0071
3279.50,0.0069
3279.25,0.0068
3279.00,0.0068
3278.75,0.0068
3278.50,0.0069
3278.25,0.0071
3278.00,0.0072
3277.75,0.0073
3277.50,0.0072
3277.25,0.0071
3277.00,0.0069
3276.75,0.0067
3276.50,0.0066
3276.25,0.0065
3276.00,0.0066
3275.75,0.0067
3275.50,0.0068
3275.25,0.0069
3275.00,0.0070
3274.75,0.0070
3274.50,0.0070
3274.25,0.0070
3274.00,0.0070
3273.75,0.0069
3273.50,0.0068
3273.25,0.0067
3273.00,0.0066
3272.75,0.0066
3272.50,0.0067
3272.25,0.0069
3272.00,0.0070
3271.75,0.0072
3271.50,0.0072
3271.25,0.0071
3271.00,0.0070
3270.75,0.0068
3270.50,0.0067
3270.25,0.0066
3270.00,0.0066
3269.75,0.0066
3269.50,0.0068
3269.25,0.0070
3269.00,0.0071
3268.75,0.0072
3268.50,0.0072
3268.25,0.0071
3268.00,0.0069
3267.75,0.0068
3267.50,0.0067
3267.25,0.0067
3267.00,0.0069
3266.75,0.0071
3266.50,0.0072
3266.25,0.0072
3266.00,0.0072
3265.75,0.0071
3265.50,0.0069
3265.25,0.0068
3265.00,0.0067
3264.75,0.0066
3264.50,0.0066
3264.25,0.0067
3264.00,0.0068
3263.75,0.0069
3263.50,0.0070
3263.25,0.0069
3263.00,0.0068
3262.75,0.0067
3262.50,0.0066
3262.25,0.0066
3262.00,0.0065
3261.75,0.0065
3261.50,0.0064
3261.25,0.0065
3261.00,0.0067
3260.75,0.0068
3260.50,0.0070
3260.25,0.0071
3260.00,0.0072
3259.75,0.0072
3259.50,0.0071
3259.25,0.0071
3259.00,0.0070
3258.75,0.0070
3258.50,0.0071
3258.25,0.0071
3258.00,0.0072
3257.75,0.0073
3257.50,0.0074
3257.25,0.0074
3257.00,0.0075
3256.75,0.0075
3256.50,0.0075
3256.25,0.0075
3256.00,0.0074
3255.75,0.0074
3255.50,0.0073
3255.25,0.0072
3255.00,0.0070
3254.75,0.0069
3254.50,0.0069
3254.25,0.0070
3254.00,0.0071
3253.75,0.0070
3253.50,0.0069
3253.25,0.0068
3253.00,0.0067
3252.75,0.0067
3252.50,0.0068
3252.25,0.0069
3252.00,0.0071
3251.75,0.0072
3251.50,0.0072
3251.25,0.0072
3251.00,0.0071
3250.75,0.0071
3250.50,0.0071
3250.25,0.0071
3250.00,0.0072
3249.75,0.0072
3249.50,0.0072
3249.25,0.0072
3249.00,0.0071
3248.75,0.0070
3248.50,0.0070
3248.25,0.0069
3248.00,0.0069
3247.75,0.0069
3247.50,0.0069
3247.25,0.0069
3247.00,0.0070
3246.75,0.0070
3246.50,0.0069
3246.25,0.0069
3246.00,0.0068
3245.75,0.0066
3245.50,0.0066
3245.25,0.0065
3245.00,0.0066
3244.75,0.0068
3244.50,0.0069
3244.25,0.0069
3244.00,0.0070
3243.75,0.0070
3243.50,0.0071
3243.25,0.0072
3243.00,0.0071
3242.75,0.0069
3242.50,0.0067
3242.25,0.0065
3242.00,0.0064
3241.75,0.0063
3241.50,0.0064
3241.25,0.0065
3241.00,0.0066
3240.75,0.0068
3240.50,0.0069
3240.25,0.0069
3240.00,0.0069
3239.75,0.0069
3239.50,0.0069
3239.25,0.0068
3239.00,0.0066
3238.75,0.0065
3238.50,0.0065
3238.25,0.0066
3238.00,0.0067
3237.75,0.0069
3237.50,0.0069
3237.25,0.0068
3237.00,0.0067
3236.75,0.0066
3236.50,0.0065
3236.25,0.0064
3236.00,0.0065
3235.75,0.0065
3235.50,0.0066
3235.25,0.0067
3235.00,0.0067
3234.75,0.0068
3234.50,0.0069
3234.25,0.0070
3234.00,0.0071
3233.75,0.0071
3233.50,0.0070
3233.25,0.0069
3233.00,0.0068
3232.75,0.0067
3232.50,0.0067
3232.25,0.0066
3232.00,0.0067
3231.75,0.0067
3231.50,0.0067
3231.25,0.0067
3231.00,0.0067
3230.75,0.0067
3230.50,0.0068
3230.25,0.0068
3230.00,0.0068
3229.75,0.0068
3229.50,0.0067
3229.25,0.0066
3229.00,0.0066
3228.75,0.0067
3228.50,0.0068
3228.25,0.0069
3228.00,0.0070
3227.75,0.0071
3227.50,0.0071
3227.25,0.0071
3227.00,0.0071
3226.75,0.0071
3226.50,0.0071
3226.25,0.0070
3226.00,0.0070
3225.75,0.0069
3225.50,0.0070
3225.25,0.0070
3225.00,0.0071
3224.75,0.0071
3224.50,0.0070
3224.25,0.0070
3224.00,0.0069
3223.75,0.0069
3223.50,0.0068
3223.25,0.0067
3223.00,0.0067
3222.75,0.0067
3222.50,0.0067
3222.25,0.0067
3222.00,0.0066
3221.75,0.0066
3221.50,0.0067
3221.25,0.0068
3221.00,0.0069
3220.75,0.0069
3220.50,0.0068
3220.25,0.0067
3220.00,0.0066
3219.75,0.0067
3219.50,0.0068
3219.25,0.0069
3219.00,0.0069
3218.75,0.0069
3218.50,0.0068
3218.25,0.0067
3218.00,0.0066
3217.75,0.0065
3217.50,0.0066
3217.25,0.0066
3217.00,0.0067
3216.75,0.0068
3216.50,0.0068
3216.25,0.0068
3216.00,0.0068
3215.75,0.0069
3215.50,0.0069
3215.25,0.0070
3215.00,0.0071
3214.75,0.0071
3214.50,0.0071
3214.25,0.0070
3214.00,0.0069
3213.75,0.0069
3213.50,0.0068
3213.25,0.0068
3213.00,0.0068
3212.75,0.0067
3212.50,0.0065
3212.25,0.0064
3212.00,0.0064
3211.75,0.0064
3211.50,0.0066
3211.25,0.0068
3211.00,0.0069
3210.75,0.0070
3210.50,0.0070
3210.25,0.0071
3210.00,0.0071
3209.75,0.0071
3209.50,0.0071
3209.25,0.0071
3209.00,0.0071
3208.75,0.0070
3208.50,0.0068
3208.25,0.0067
3208.00,0.0067
3207.75,0.0067
3207.50,0.0067
3207.25,0.0068
3207.00,0.0069
3206.75,0.0070
3206.50,0.0070
3206.25,0.0070
3206.00,0.0070
3205.75,0.0069
3205.50,0.0068
3205.25,0.0068
3205.00,0.0068
3204.75,0.0069
3204.50,0.0069
3204.25,0.0069
3204.00,0.0068
3203.75,0.0067
3203.50,0.0066
3203.25,0.0066
3203.00,0.0066
3202.75,0.0067
3202.50,0.0068
3202.25,0.0070
3202.00,0.0070
3201.75,0.0071
3201.50,0.0070
3201.25,0.0070
3201.00,0.0070
3200.75,0.0070
3200.50,0.0071
3200.25,0.0070
3200.00,0.0069
3199.75,0.0067
3199.50,0.0064
3199.25,0.0062
3199.00,0.0060
3198.75,0.0059
3198.50,0.0060
3198.25,0.0061
3198.00,0.0064
3197.75,0.0066
3197.50,0.0068
3197.25,0.0069
3197.00,0.0069
3196.75,0.0070
3196.50,0.0070
3196.25,0.0070
3196.00,0.0069
3195.75,0.0069
3195.50,0.0069
3195.25,0.0068
3195.00,0.0068
3194.75,0.0068
3194.50,0.0067
3194.25,0.0067
3194.00,0.0067
3193.75,0.0068
3193.50,0.0069
3193.25,0.0070
3193.00,0.0071
3192.75,0.0072
3192.50,0.0072
3192.25,0.0071
3192.00,0.0070
3191.75,0.0069
3191.50,0.0068
3191.25,0.0067
3191.00,0.0066
3190.75,0.0066
3190.50,0.0067
3190.25,0.0069
3190.00,0.0071
3189.75,0.0073
3189.50,0.0073
3189.25,0.0073
3189.00,0.0072
3188.75,0.0072
3188.50,0.0071
3188.25,0.0071
3188.00,0.0070
3187.75,0.0069
3187.50,0.0068
3187.25,0.0068
3187.00,0.0068
3186.75,0.0068
3186.50,0.0067
3186.25,0.0067
3186.00,0.0066
3185.75,0.0066
3185.50,0.0065
3185.25,0.0064
3185.00,0.0063
3184.75,0.0062
3184.50,0.0063
3184.25,0.0065
3184.00,0.0066
3183.75,0.0068
3183.50,0.0069
3183.25,0.0070
3183.00,0.0070
3182.75,0.0070
3182.50,0.0069
3182.25,0.0067
3182.00,0.0066
3181.75,0.0066
3181.50,0.0066
3181.25,0.0067
3181.00,0.0067
3180.75,0.0067
3180.50,0.0066
3180.25,0.0066
3180.00,0.0066
3179.75,0.0067
3179.50,0.0068
3179.25,0.0068
3179.00,0.0068
3178.75,0.0068
3178.50,0.0069
3178.25,0.0069
3178.00,0.0069
3177.75,0.0069
3177.50,0.0069
3177.25,0.0068
3177.00,0.0067
3176.75,0.0066
3176.50,0.0065
3176.25,0.0065
3176.00,0.0066
3175.75,0.0067
3175.50,0.0068
3175.25,0.0069
3175.00,0.0070
3174.75,0.0071
3174.50,0.0071
3174.25,0.0071
3174.00,0.0072
3173.75,0.0072
3173.50,0.0072
3173.25,0.0070
3173.00,0.0069
3172.75,0.0067
3172.50,0.0067
3172.25,0.0068
3172.00,0.0069
3171.75,0.0069
3171.50,0.0070
3171.25,0.0070
3171.00,0.0070
3170.75,0.0070
3170.50,0.0069
3170.25,0.0067
3170.00,0.0066
3169.75,0.0065
3169.50,0.0066
3169.25,0.0067
3169.00,0.0069
3168.75,0.0070
3168.50,0.0070
3168.25,0.0069
3168.00,0.0068
3167.75,0.0067
3167.50,0.0067
3167.25,0.0067
3167.00,0.0067
3166.75,0.0068
3166.50,0.0069
3166.25,0.0069
3166.00,0.0070
3165.75,0.0071
3165.50,0.0071
3165.25,0.0072
3165.00,0.0072
3164.75,0.0071
3164.50,0.0069
3164.25,0.0067
3164.00,0.0066
3163.75,0.0065
3163.50,0.0065
3163.25,0.0065
3163.00,0.0066
3162.75,0.0067
3162.50,0.0068
3162.25,0.0069
3162.00,0.0070
3161.75,0.0069
3161.50,0.0068
3161.25,0.0067
3161.00,0.0066
3160.75,0.0066
3160.50,0.0066
3160.25,0.0067
3160.00,0.0067
3159.75,0.0068
3159.50,0.0068
3159.25,0.0069
3159.00,0.0068
3158.75,0.0068
3158.50,0.0067
3158.25,0.0067
3158.00,0.0066
3157.75,0.0066
3157.50,0.0066
3157.25,0.0067
3157.00,0.0067
3156.75,0.0068
3156.50,0.0068
3156.25,0.0068
3156.00,0.0068
3155.75,0.0068
3155.50,0.0069
3155.25,0.0070
3155.00,0.0072
3154.75,0.0072
3154.50,0.0073
3154.25,0.0072
3154.00,0.0070
3153.75,0.0068
3153.50,0.0066
3153.25,0.0065
3153.00,0.0065
3152.75,0.0066
3152.50,0.0068
3152.25,0.0069
3152.00,0.0070
3151.75,0.0069
3151.50,0.0068
3151.25,0.0066
3151.00,0.0066
3150.75,0.0067
3150.50,0.0069
3150.25,0.0071
3150.00,0.0073
3149.75,0.0074
3149.50,0.0073
3149.25,0.0072
3149.00,0.0070
3148.75,0.0068
3148.50,0.0067
3148.25,0.0067
3148.00,0.0067
3147.75,0.0068
3147.50,0.0068
3147.25,0.0068
3147.00,0.0068
3146.75,0.0069
3146.50,0.0070
3146.25,0.0071
3146.00,0.0071
3145.75,0.0070
3145.50,0.0068
3145.25,0.0066
3145.00,0.0064
3144.75,0.0064
3144.50,0.0065
3144.25,0.0067
3144.00,0.0068
3143.75,0.0069
3143.50,0.0068
3143.25,0.0068
3143.00,0.0067
3142.75,0.0067
3142.50,0.0067
3142.25,0.0068
3142.00,0.0068
3141.75,0.0069
3141.50,0.0070
3141.25,0.0070
3141.00,0.0070
3140.75,0.0071
3140.50,0.0071
3140.25,0.0071
3140.00,0.0071
3139.75,0.0070
3139.50,0.0069
3139.25,0.0068
3139.00,0.0068
3138.75,0.0068
3138.50,0.0068
3138.25,0.0068
3138.00,0.0067
3137.75,0.0067
3137.50,0.0067
3137.25,0.0067
3137.00,0.0068
3136.75,0.0069
3136.50,0.0069
3136.25,0.0069
3136.00,0.0069
3135.75,0.0067
3135.50,0.0066
3135.25,0.0064
3135.00,0.0064
3134.75,0.0065
3134.50,0.0066
3134.25,0.0067
3134.00,0.0068
3133.75,0.0068
3133.50,0.0068
3133.25,0.0069
3133.00,0.0069
3132.75,0.0069
3132.50,0.0069
3132.25,0.0068
3132.00,0.0067
3131.75,0.0067
3131.50,0.0067
3131.25,0.0067
3131.00,0.0067
3130.75,0.0068
3130.50,0.0068
3130.25,0.0069
3130.00,0.0069
3129.75,0.0070
3129.50,0.0071
3129.25,0.0070
3129.00,0.0069
3128.75,0.0068
3128.50,0.0066
3128.25,0.0065
3128.00,0.0066
3127.75,0.0068
3127.50,0.0070
3127.25,0.0072
3127.00,0.0072
3126.75,0.0072
3126.50,0.0071
3126.25,0.0070
3126.00,0.0069
3125.75,0.0069
3125.50,0.0068
3125.25,0.0068
3125.00,0.0069
3124.75,0.0069
3124.50,0.0070
3124.25,0.0071
3124.00,0.0072
3123.75,0.0071
3123.50,0.0070
3123.25,0.0069
3123.00,0.0069
3122.75,0.0069
3122.50,0.0070
3122.25,0.0071
3122.00,0.0072
3121.75,0.0072
3121.50,0.0072
3121.25,0.0071
3121.00,0.0071
3120.75,0.0070
3120.50,0.0069
3120.25,0.0068
3120.00,0.0068
3119.75,0.0067
3119.50,0.0067
3119.25,0.0066
3119.00,0.0067
3118.75,0.0067
3118.50,0.0068
3118.25,0.0069
3118.00,0.0069
3117.75,0.0069
3117.50,0.0068
3117.25,0.0068
3117.00,0.0069
3116.75,0.0070
3116.50,0.0071
3116.25,0.0071
3116.00,0.0070
3115.75,0.0069
3115.50,0.0068
3115.25,0.0067
3115.00,0.0066
3114.75,0.0065
3114.50,0.0066
3114.25,0.0066
3114.00,0.0066
3113.75,0.0067
3113.50,0.0068
3113.25,0.0068
3113.00,0.0068
3112.75,0.0068
3112.50,0.0068
3112.25,0.0067
3112.00,0.0068
3111.75,0.0068
3111.50,0.0068
3111.25,0.0069
3111.00,0.0070
3110.75,0.0071
3110.50,0.0071
3110.25,0.0071
3110.00,0.0070
3109.75,0.0069
3109.50,0.0068
3109.25,0.0067
3109.00,0.0066
3108.75,0.0066
3108.50,0.0065
3108.25,0.0065
3108.00,0.0065
3107.75,0.0066
3107.50,0.0067
3107.25,0.0067
3107.00,0.0068
3106.75,0.0068
3106.50,0.0068
3106.25,0.0068
3106.00,0.0068
3105.75,0.0069
3105.50,0.0069
3105.25,0.0068
3105.00,0.0067
3104.75,0.0065
3104.50,0.0064
3104.25,0.0064
3104.00,0.0065
3103.75,0.0066
3103.50,0.0067
3103.25,0.0068
3103.00,0.0068
3102.75,0.0067
3102.50,0.0066
3102.25,0.0065
3102.00,0.0064
3101.75,0.0064
3101.50,0.0065
3101.25,0.0066
3101.00,0.0068
3100.75,0.0069
3100.50,0.0069
3100.25,0.0068
3100.00,0.0067
3099.75,0.0067
3099.50,0.0068
3099.25,0.0068
3099.00,0.0068
3098.75,0.0068
3098.50,0.0066
3098.25,0.0065
3098.00,0.0064
3097.75,0.0064
3097.50,0.0066
3097.25,0.0068
3097.00,0.0069
3096.75,0.0070
3096.50,0.0069
3096.25,0.0069
3096.00,0.0068
3095.75,0.0069
3095.50,0.0069
3095.25,0.0069
3095.00,0.0068
3094.75,0.0066
3094.50,0.0065
3094.25,0.0063
3094.00,0.0062
3093.75,0.0062
3093.50,0.0064
3093.25,0.0066
3093.00,0.0069
3092.75,0.0071
3092.50,0.0071
3092.25,0.0070
3092.00,0.0068
3091.75,0.0067
3091.50,0.0066
3091.25,0.0067
3091.00,0.0067
3090.75,0.0067
3090.50,0.0066
3090.25,0.0065
3090.00,0.0063
3089.75,0.0061
3089.50,0.0060
3089.25,0.0059
3089.00,0.0059
3088.75,0.0060
3088.50,0.0062
3088.25,0.0064
3088.00,0.0066
3087.75,0.0067
3087.50,0.0066
3087.25,0.0064
3087.00,0.0063
3086.75,0.0062
3086.50,0.0062
3086.25,0.0064
3086.00,0.0065
3085.75,0.0066
3085.50,0.0065
3085.25,0.0064
3085.00,0.0064
3084.75,0.0064
3084.50,0.0064
3084.25,0.0064
3084.00,0.0064
3083.75,0.0063
3083.50,0.0063
3083.25,0.0063
3083.00,0.0063
3082.75,0.0063
3082.50,0.0064
3082.25,0.0066
3082.00,0.0067
3081.75,0.0068
3081.50,0.0068
3081.25,0.0067
3081.00,0.0067
3080.75,0.0066
3080.50,0.0066
3080.25,0.0066
3080.00,0.0066
3079.75,0.0066
3079.50,0.0066
3079.25,0.0066
3079.00,0.0065
3078.75,0.0064
3078.50,0.0063
3078.25,0.0063
3078.00,0.0063
3077.75,0.0065
3077.50,0.0066
3077.25,0.0068
3077.00,0.0068
3076.75,0.0068
3076.50,0.0068
3076.25,0.0068
3076.00,0.0067
3075.75,0.0066
3075.50,0.0065
3075.25,0.0064
3075.00,0.0063
3074.75,0.0063
3074.50,0.0063
3074.25,0.0064
3074.00,0.0065
3073.75,0.0066
3073.50,0.0066
3073.25,0.0066
3073.00,0.0065
3072.75,0.0064
3072.50,0.0063
3072.25,0.0063
3072.00,0.0063
3071.75,0.0064
3071.50,0.0064
3071.25,0.0064
3071.00,0.0064
3070.75,0.0064
3070.50,0.0065
3070.25,0.0066
3070.00,0.0067
3069.75,0.0067
3069.50,0.0066
3069.25,0.0064
3069.00,0.0062
3068.75,0.0061
3068.50,0.0061
3068.25,0.0062
3068.00,0.0063
3067.75,0.0063
3067.50,0.0064
3067.25,0.0065
3067.00,0.0066
3066.75,0.0066
3066.50,0.0066
3066.25,0.0065
3066.00,0.0064
3065.75,0.0065
3065.50,0.0066
3065.25,0.0066
3065.00,0.0066
3064.75,0.0064
3064.50,0.0063
3064.25,0.0062
3064.00,0.0062
3063.75,0.0062
3063.50,0.0063
3063.25,0.0064
3063.00,0.0064
3062.75,0.0064
3062.50,0.0064
3062.25,0.0064
3062.00,0.0064
3061.75,0.0064
3061.50,0.0065
3061.25,0.0065
3061.00,0.0065
3060.75,0.0065
3060.50,0.0066
3060.25,0.0067
3060.00,0.0067
3059.75,0.0068
3059.50,0.0068
3059.25,0.0068
3059.00,0.0068
3058.75,0.0068
3058.50,0.0067
3058.25,0.0067
3058.00,0.0066
3057.75,0.0066
3057.50,0.0066
3057.25,0.0066
3057.00,0.0065
3056.75,0.0064
3056.50,0.0063
3056.25,0.0061
3056.00,0.0060
3055.75,0.0061
3055.50,0.0062
3055.25,0.0064
3055.00,0.0065
3054.75,0.0067
3054.50,0.0068
3054.25,0.0068
3054.00,0.0068
3053.75,0.0068
3053.50,0.0067
3053.25,0.0066
3053.00,0.0065
3052.75,0.0065
3052.50,0.0065
3052.25,0.0066
3052.00,0.0066
3051.75,0.0065
3051.50,0.0064
3051.25,0.0063
3051.00,0.0062
3050.75,0.0062
3050.50,0.0062
3050.25,0.0062
3050.00,0.0062
3049.75,0.0062
3049.50,0.0062
3049.25,0.0062
3049.00,0.0061
3048.75,0.0060
3048.50,0.0059
3048.25,0.0059
3048.00,0.0060
3047.75,0.0061
3047.50,0.0062
3047.25,0.0062
3047.00,0.0061
3046.75,0.0060
3046.50,0.0058
3046.25,0.0058
3046.00,0.0058
3045.75,0.0058
3045.50,0.0059
3045.25,0.0060
3045.00,0.0061
3044.75,0.0063
3044.50,0.0064
3044.25,0.0064
3044.00,0.0063
3043.75,0.0061
3043.50,0.0059
3043.25,0.0058
3043.00,0.0057
3042.75,0.0057
3042.50,0.0057
3042.25,0.0057
3042.00,0.0057
3041.75,0.0058
3041.50,0.0059
3041.25,0.0061
3041.00,0.0061
3040.75,0.0061
3040.50,0.0060
3040.25,0.0059
3040.00,0.0059
3039.75,0.0058
3039.50,0.0058
3039.25,0.0058
3039.00,0.0058
3038.75,0.0058
3038.50,0.0058
3038.25,0.0058
3038.00,0.0059
3037.75,0.0060
3037.50,0.0061
3037.25,0.0062
3037.00,0.0062
3036.75,0.0062
3036.50,0.0062
3036.25,0.0062
3036.00,0.0063
3035.75,0.0062
3035.50,0.0062
3035.25,0.0061
3035.00,0.0059
3034.75,0.0058
3034.50,0.0056
3034.25,0.0056
3034.00,0.0056
3033.75,0.0056
3033.50,0.0057
3033.25,0.0056
3033.00,0.0055
3032.75,0.0055
3032.50,0.0055
3032.25,0.0056
3032.00,0.0057
3031.75,0.0059
3031.50,0.0060
3031.25,0.0060
3031.00,0.0059
3030.75,0.0059
3030.50,0.0059
3030.25,0.0060
3030.00,0.0060
3029.75,0.0061
3029.50,0.0061
3029.25,0.0061
3029.00,0.0061
3028.75,0.0061
3028.50,0.0061
3028.25,0.0062
3028.00,0.0062
3027.75,0.0062
3027.50,0.0063
3027.25,0.0063
3027.00,0.0063
3026.75,0.0063
3026.50,0.0063
3026.25,0.0064
3026.00,0.0064
3025.75,0.0064
3025.50,0.0064
3025.25,0.0063
3025.00,0.0063
3024.75,0.0063
3024.50,0.0064
3024.25,0.0064
3024.00,0.0065
3023.75,0.0065
3023.50,0.0065
3023.25,0.0066
3023.00,0.0066
3022.75,0.0067
3022.50,0.0067
3022.25,0.0067
3022.00,0.0066
3021.75,0.0065
3021.50,0.0065
3021.25,0.0066
3021.00,0.0067
3020.75,0.0067
3020.50,0.0068
3020.25,0.0069
3020.00,0.0069
3019.75,0.0069
3019.50,0.0069
3019.25,0.0068
3019.00,0.0067
3018.75,0.0067
3018.50,0.0068
3018.25,0.0069
3018.00,0.0069
3017.75,0.0070
3017.50,0.0070
3017.25,0.0070
3017.00,0.0069
3016.75,0.0068
3016.50,0.0066
3016.25,0.0065
3016.00,0.0063
3015.75,0.0062
3015.50,0.0062
3015.25,0.0062
3015.00,0.0063
3014.75,0.0064
3014.50,0.0065
3014.25,0.0067
3014.00,0.0068
3013.75,0.0068
3013.50,0.0069
3013.25,0.0069
3013.00,0.0069
3012.75,0.0068
3012.50,0.0068
3012.25,0.0068
3012.00,0.0068
3011.75,0.0068
3011.50,0.0068
3011.25,0.0068
3011.00,0.0068
3010.75,0.0069
3010.50,0.0071
3010.25,0.0072
3010.00,0.0073
3009.75,0.0073
3009.50,0.0072
3009.25,0.0072
3009.00,0.0071
3008.75,0.0070
3008.50,0.0070
3008.25,0.0070
3008.00,0.0070
3007.75,0.0071
3007.50,0.0071
3007.25,0.0072
3007.00,0.0072
3006.75,0.0071
3006.50,0.0071
3006.25,0.0072
3006.00,0.0073
3005.75,0.0074
3005.50,0.0074
3005.25,0.0073
3005.00,0.0071
3004.75,0.0070
3004.50,0.0070
3004.25,0.0071
3004.00,0.0072
3003.75,0.0073
3003.50,0.0074
3003.25,0.0074
3003.00,0.0074
3002.75,0.0074
3002.50,0.0075
3002.25,0.0075
3002.00,0.0076
3001.75,0.0076
3001.50,0.0077
3001.25,0.0077
3001.00,0.0077
3000.75,0.0076
3000.50,0.0075
3000.25,0.0074
3000.00,0.0072
2999.75,0.0072
2999.50,0.0071
2999.25,0.0071
2999.00,0.0072
2998.75,0.0073
2998.50,0.0073
2998.25,0.0074
2998.00,0.0075
2997.75,0.0076
2997.50,0.0076
2997.25,0.0076
2997.00,0.0077
2996.75,0.0078
2996.50,0.0078
2996.25,0.0079
2996.00,0.0080
2995.75,0.0081
2995.50,0.0081
2995.25,0.0082
2995.00,0.0082
2994.75,0.0081
2994.50,0.0081
2994.25,0.0080
2994.00,0.0080
2993.75,0.0080
2993.50,0.0080
2993.25,0.0080
2993.00,0.0080
2992.75,0.0081
2992.50,0.0081
2992.25,0.0082
2992.00,0.0083
2991.75,0.0084
2991.50,0.0084
2991.25,0.0084
2991.00,0.0083
2990.75,0.0082
2990.50,0.0082
2990.25,0.0082
2990.00,0.0083
2989.75,0.0085
2989.50,0.0087
2989.25,0.0088
2989.00,0.0089
2988.75,0.0090
2988.50,0.0090
2988.25,0.0090
2988.00,0.0090
2987.75,0.0090
2987.50,0.0090
2987.25,0.0090
2987.00,0.0089
2986.75,0.0089
2986.50,0.0089
2986.25,0.0090
2986.00,0.0091
2985.75,0.0092
2985.50,0.0094
2985.25,0.0096
2985.00,0.0098
2984.75,0.0100
2984.50,0.0101
2984.25,0.0101
2984.00,0.0101
2983.75,0.0100
2983.50,0.0100
2983.25,0.0101
2983.00,0.0103
2982.75,0.0104
2982.50,0.0105
2982.25,0.0105
2982.00,0.0105
2981.75,0.0107
2981.50,0.0109
2981.25,0.0111
2981.00,0.0112
2980.75,0.0112
2980.50,0.0112
2980.25,0.0113
2980.00,0.0114
2979.75,0.0118
2979.50,0.0121
2979.25,0.0124
2979.00,0.0125
2978.75,0.0126
2978.50,0.0127
2978.25,0.0128
2978.00,0.0130
2977.75,0.0132
2977.50,0.0134
2977.25,0.0136
2977.00,0.0138
2976.75,0.0140
2976.50,0.0142
2976.25,0.0144
2976.00,0.0146
2975.75,0.0148
2975.50,0.0151
2975.25,0.0154
2975.00,0.0158
2974.75,0.0162
2974.50,0.0166
2974.25,0.0170
2974.00,0.0173
2973.75,0.0177
2973.50,0.0180
2973.25,0.0183
2973.00,0.0185
2972.75,0.0187
2972.50,0.0190
2972.25,0.0194
2972.00,0.0199
2971.75,0.0204
2971.50,0.0209
2971.25,0.0214
2971.00,0.0219
2970.75,0.0225
2970.50,0.0230
2970.25,0.0236
2970.00,0.0242
2969.75,0.0247
2969.50,0.0251
2969.25,0.0255
2969.00,0.0259
2968.75,0.0264
2968.50,0.0269
2968.25,0.0274
2968.00,0.0280
2967.75,0.0286
2967.50,0.0291
2967.25,0.0297
2967.00,0.0304
2966.75,0.0310
2966.50,0.0316
2966.25,0.0322
2966.00,0.0328
2965.75,0.0333
2965.50,0.0338
2965.25,0.0342
2965.00,0.0347
2964.75,0.0351
2964.50,0.0356
2964.25,0.0360
2964.00,0.0363
2963.75,0.0365
2963.50,0.0365
2963.25,0.0366
2963.00,0.0367
2962.75,0.0368
2962.50,0.0370
2962.25,0.0372
2962.00,0.0373
2961.75,0.0374
2961.50,0.0374
2961.25,0.0373
2961.00,0.0371
2960.75,0.0368
2960.50,0.0364
2960.25,0.0359
2960.00,0.0355
2959.75,0.0351
2959.50,0.0347
2959.25,0.0343
2959.00,0.0338
2958.75,0.0333
2958.50,0.0328
2958.25,0.0322
2958.00,0.0317
2957.75,0.0311
2957.50,0.0306
2957.25,0.0300
2957.00,0.0293
2956.75,0.0286
2956.50,0.0278
2956.25,0.0270
2956.00,0.0264
2955.75,0.0258
2955.50,0.0252
2955.25,0.0247
2955.00,0.0241
2954.75,0.0236
2954.50,0.0231
2954.25,0.0226
2954.00,0.0222
2953.75,0.0217
2953.50,0.0213
2953.25,0.0209
2953.00,0.0204
2952.75,0.0199
2952.50,0.0193
2952.25,0.0187
2952.00,0.0182
2951.75,0.0179
2951.50,0.0176
2951.25,0.0172
2951.00,0.0169
2950.75,0.0166
2950.50,0.0163
2950.25,0.0160
2950.00,0.0157
2949.75,0.0153
2949.50,0.0150
2949.25,0.0147
2949.00,0.0145
2948.75,0.0143
2948.50,0.0141
2948.25,0.0138
2948.00,0.0136
2947.75,0.0134
2947.50,0.0133
2947.25,0.0133
2947.00,0.0132
2946.75,0.0131
2946.50,0.0129
2946.25,0.0127
2946.00,0.0125
2945.75,0.0123
2945.50,0.0121
2945.25,0.0119
2945.00,0.0116
2944.75,0.0113
2944.50,0.0110
2944.25,0.0109
2944.00,0.0109
2943.75,0.0108
2943.50,0.0108
2943.25,0.0108
2943.00,0.0107
2942.75,0.0107
2942.50,0.0107
2942.25,0.0106
2942.00,0.0106
2941.75,0.0104
2941.50,0.0102
2941.25,0.0100
2941.00,0.0098
2940.75,0.0097
2940.50,0.0096
2940.25,0.0096
2940.00,0.0096
2939.75,0.0096
2939.50,0.0096
2939.25,0.0096
2939.00,0.0095
2938.75,0.0095
2938.50,0.0094
2938.25,0.0094
2938.00,0.0094
2937.75,0.0094
2937.50,0.0094
2937.25,0.0093
2937.00,0.0093
2936.75,0.0092
2936.50,0.0092
2936.25,0.0091
2936.00,0.0091
2935.75,0.0091
2935.50,0.0091
2935.25,0.0091
2935.00,0.0091
2934.75,0.0090
2934.50,0.0089
2934.25,0.0088
2934.00,0.0086
2933.75,0.0085
2933.50,0.0084
2933.25,0.0083
2933.00,0.0083
2932.75,0.0083
2932.50,0.0084
2932.25,0.0085
2932.00,0.0086
2931.75,0.0085
2931.50,0.0084
2931.25,0.0082
2931.00,0.0081
2930.75,0.0081
2930.50,0.0082
2930.25,0.0083
2930.00,0.0084
2929.75,0.0086
2929.50,0.0086
2929.25,0.0086
2929.00,0.0086
2928.75,0.0085
2928.50,0.0084
2928.25,0.0084
2928.00,0.0083
2927.75,0.0083
2927.50,0.0083
2927.25,0.0082
2927.00,0.0082
2926.75,0.0081
2926.50,0.0080
2926.25,0.0081
2926.00,0.0082
2925.75,0.0083
2925.50,0.0085
2925.25,0.0086
2925.00,0.0086
2924.75,0.0086
2924.50,0.0086
2924.25,0.0085
2924.00,0.0084
2923.75,0.0082
2923.50,0.0080
2923.25,0.0079
2923.00,0.0078
2922.75,0.0078
2922.50,0.0079
2922.25,0.0080
2922.00,0.0081
2921.75,0.0083
2921.50,0.0084
2921.25,0.0085
2921.00,0.0086
2920.75,0.0087
2920.50,0.0087
2920.25,0.0086
2920.00,0.0086
2919.75,0.0085
2919.50,0.0086
2919.25,0.0086
2919.00,0.0085
2918.75,0.0084
2918.50,0.0084
2918.25,0.0084
2918.00,0.0085
2917.75,0.0087
2917.50,0.0088
2917.25,0.0088
2917.00,0.0088
2916.75,0.0088
2916.50,0.0088
2916.25,0.0087
2916.00,0.0087
2915.75,0.0086
2915.50,0.0086
2915.25,0.0087
2915.00,0.0088
2914.75,0.0089
2914.50,0.0091
2914.25,0.0093
2914.00,0.0094
2913.75,0.0095
2913.50,0.0095
2913.25,0.0095
2913.00,0.0094
2912.75,0.0094
2912.50,0.0094
2912.25,0.0094
2912.00,0.0095
2911.75,0.0095
2911.50,0.0096
2911.25,0.0096
2911.00,0.0096
2910.75,0.0097
2910.50,0.0097
2910.25,0.0099
2910.00,0.0100
2909.75,0.0102
2909.50,0.0103
2909.25,0.0104
2909.00,0.0104
2908.75,0.0104
2908.50,0.0104
2908.25,0.0104
2908.00,0.0105
2907.75,0.0106
2907.50,0.0107
2907.25,0.0108
2907.00,0.0109
2906.75,0.0109
2906.50,0.0109
2906.25,0.0110
2906.00,0.0110
2905.75,0.0111
2905.50,0.0112
2905.25,0.0112
2905.00,0.0111
2904.75,0.0110
2904.50,0.0108
2904.25,0.0107
2904.00,0.0107
2903.75,0.0107
2903.50,0.0108
2903.25,0.0109
2903.00,0.0109
2902.75,0.0110
2902.50,0.0110
2902.25,0.0110
2902.00,0.0110
2901.75,0.0109
2901.50,0.0108
2901.25,0.0107
2901.00,0.0106
2900.75,0.0106
2900.50,0.0107
2900.25,0.0107
2900.00,0.0107
2899.75,0.0106
2899.50,0.0104
2899.25,0.0102
2899.00,0.0100
2898.75,0.0098
2898.50,0.0097
2898.25,0.0097
2898.00,0.0097
2897.75,0.0097
2897.50,0.0097
2897.25,0.0097
2897.00,0.0096
2896.75,0.0096
2896.50,0.0096
2896.25,0.0096
2896.00,0.0095
2895.75,0.0095
2895.50,0.0095
2895.25,0.0095
2895.00,0.0095
2894.75,0.0094
2894.50,0.0093
2894.25,0.0092
2894.00,0.0091
2893.75,0.0090
2893.50,0.0089
2893.25,0.0089
2893.00,0.0089
2892.75,0.0089
2892.50,0.0089
2892.25,0.0087
2892.00,0.0085
2891.75,0.0084
2891.50,0.0083
2891.25,0.0083
2891.00,0.0083
2890.75,0.0083
2890.50,0.0082
2890.25,0.0081
2890.00,0.0081
2889.75,0.0081
2889.50,0.0081
2889.25,0.0081
2889.00,0.0082
2888.75,0.0082
2888.50,0.0083
2888.25,0.0083
2888.00,0.0082
2887.75,0.0081
2887.50,0.0081
2887.25,0.0080
2887.00,0.0080
2886.75,0.0081
2886.50,0.0081
2886.25,0.0082
2886.00,0.0082
2885.75,0.0082
2885.50,0.0081
2885.25,0.0079
2885.00,0.0078
2884.75,0.0078
2884.50,0.0079
2884.25,0.0079
2884.00,0.0079
2883.75,0.0079
2883.50,0.0078
2883.25,0.0077
2883.00,0.0077
2882.75,0.0076
2882.50,0.0076
2882.25,0.0077
2882.00,0.0077
2881.75,0.0078
2881.50,0.0078
2881.25,0.0078
2881.00,0.0078
2880.75,0.0078
2880.50,0.0079
2880.25,0.0079
2880.00,0.0079
2879.75,0.0078
2879.50,0.0077
2879.25,0.0076
2879.00,0.0076
2878.75,0.0076
2878.50,0.0075
2878.25,0.0075
2878.00,0.0075
2877.75,0.0076
2877.50,0.0076
2877.25,0.0077
2877.00,0.0077
2876.75,0.0077
2876.50,0.0077
2876.25,0.0076
2876.00,0.0075
2875.75,0.0074
2875.50,0.0072
2875.25,0.0072
2875.00,0.0073
2874.75,0.0074
2874.50,0.0075
2874.25,0.0075
2874.00,0.0074
2873.75,0.0073
2873.50,0.0071
2873.25,0.0070
2873.00,0.0070
2872.75,0.0069
2872.50,0.0069
2872.25,0.0069
2872.00,0.0070
2871.75,0.0072
2871.50,0.0073
2871.25,0.0074
2871.00,0.0074
2870.75,0.0074
2870.50,0.0073
2870.25,0.0073
2870.00,0.0073
2869.75,0.0073
2869.50,0.0073
2869.25,0.0074
2869.00,0.0074
2868.75,0.0075
2868.50,0.0075
2868.25,0.0075
2868.00,0.0074
2867.75,0.0074
2867.50,0.0073
2867.25,0.0073
2867.00,0.0073
2866.75,0.0073
2866.50,0.0073
2866.25,0.0073
2866.00,0.0073
2865.75,0.0073
2865.50,0.0073
2865.25,0.0074
2865.00,0.0074
2864.75,0.0073
2864.50,0.0072
2864.25,0.0071
2864.00,0.0071
2863.75,0.0071
2863.50,0.0071
2863.25,0.0072
2863.00,0.0073
2862.75,0.0074
2862.50,0.0074
2862.25,0.0073
2862.00,0.0073
2861.75,0.0073
2861.50,0.0074
2861.25,0.0075
2861.00,0.0075
2860.75,0.0075
2860.50,0.0074
2860.25,0.0072
2860.00,0.0071
2859.75,0.0071
2859.50,0.0071
2859.25,0.0070
2859.00,0.0070
2858.75,0.0069
2858.50,0.0068
2858.25,0.0069
2858.00,0.0070
2857.75,0.0071
2857.50,0.0073
2857.25,0.0074
2857.00,0.0075
2856.75,0.0074
2856.50,0.0072
2856.25,0.0070
2856.00,0.0068
2855.75,0.0068
2855.50,0.0068
2855.25,0.0068
2855.00,0.0069
2854.75,0.0070
2854.50,0.0071
2854.25,0.0071
2854.00,0.0072
2853.75,0.0072
2853.50,0.0072
2853.25,0.0072
2853.00,0.0072
2852.75,0.0071
2852.50,0.0071
2852.25,0.0070
2852.00,0.0069
2851.75,0.0068
2851.50,0.0069
2851.25,0.0070
2851.00,0.0071
2850.75,0.0073
2850.50,0.0073
2850.25,0.0074
2850.00,0.0073
2849.75,0.0072
2849.50,0.0071
2849.25,0.0071
2849.00,0.0071
2848.75,0.0071
2848.50,0.0071
2848.25,0.0071
2848.00,0.0070
2847.75,0.0070
2847.50,0.0071
2847.25,0.0071
2847.00,0.0071
2846.75,0.0071
2846.50,0.0071
2846.25,0.0071
2846.00,0.0071
2845.75,0.0071
2845.50,0.0071
2845.25,0.0071
2845.00,0.0071
2844.75,0.0071
2844.50,0.0071
2844.25,0.0071
2844.00,0.0072
2843.75,0.0071
2843.50,0.0071
2843.25,0.0070
2843.00,0.0070
2842.75,0.0071
2842.50,0.0072
2842.25,0.0072
2842.00,0.0072
2841.75,0.0071
2841.50,0.0069
2841.25,0.0068
2841.00,0.0067
2840.75,0.0068
2840.50,0.0069
2840.25,0.0071
2840.00,0.0072
2839.75,0.0074
2839.50,0.0075
2839.25,0.0076
2839.00,0.0076
2838.75,0.0075
2838.50,0.0074
2838.25,0.0073
2838.00,0.0073
2837.75,0.0073
2837.50,0.0074
2837.25,0.0075
2837.00,0.0074
2836.75,0.0073
2836.50,0.0072
2836.25,0.0071
2836.00,0.0071
2835.75,0.0071
2835.50,0.0070
2835.25,0.0070
2835.00,0.0069
2834.75,0.0069
2834.50,0.0068
2834.25,0.0068
2834.00,0.0069
2833.75,0.0069
2833.50,0.0070
2833.25,0.0070
2833.00,0.0070
2832.75,0.0070
2832.50,0.0070
2832.25,0.0070
2832.00,0.0071
2831.75,0.0071
2831.50,0.0072
2831.25,0.0072
2831.00,0.0072
2830.75,0.0071
2830.50,0.0070
2830.25,0.0069
2830.00,0.0069
2829.75,0.0070
2829.50,0.0071
2829.25,0.0072
2829.00,0.0073
2828.75,0.0073
2828.50,0.0072
2828.25,0.0071
2828.00,0.0070
2827.75,0.0069
2827.50,0.0069
2827.25,0.0070
2827.00,0.0071
2826.75,0.0072
2826.50,0.0073
2826.25,0.0073
2826.00,0.0073
2825.75,0.0073
2825.50,0.0073
2825.25,0.0073
2825.00,0.0072
2824.75,0.0072
2824.50,0.0072
2824.25,0.0072
2824.00,0.0071
2823.75,0.0071
2823.50,0.0070
2823.25,0.0070
2823.00,0.0069
2822.75,0.0068
2822.50,0.0068
2822.25,0.0067
2822.00,0.0068
2821.75,0.0068
2821.50,0.0069
2821.25,0.0070
2821.00,0.0070
2820.75,0.0070
2820.50,0.0071
2820.25,0.0072
2820.00,0.0072
2819.75,0.0073
2819.50,0.0073
2819.25,0.0072
2819.00,0.0072
2818.75,0.0071
2818.50,0.0071
2818.25,0.0071
2818.00,0.0071
2817.75,0.0071
2817.50,0.0070
2817.25,0.0070
2817.00,0.0071
2816.75,0.0071
2816.50,0.0071
2816.25,0.0071
2816.00,0.0071
2815.75,0.0070
2815.50,0.0070
2815.25,0.0071
2815.00,0.0072
2814.75,0.0073
2814.50,0.0073
2814.25,0.0073
2814.00,0.0073
2813.75,0.0073
2813.50,0.0073
2813.25,0.0072
2813.00,0.0072
2812.75,0.0071
2812.50,0.0071
2812.25,0.0070
2812.00,0.0070
2811.75,0.0070
2811.50,0.0070
2811.25,0.0070
2811.00,0.0070
2810.75,0.0070
2810.50,0.0071
2810.25,0.0072
2810.00,0.0073
2809.75,0.0073
2809.50,0.0073
2809.25,0.0073
2809.00,0.0073
2808.75,0.0072
2808.50,0.0071
2808.25,0.0071
2808.00,0.0070
2807.75,0.0071
2807.50,0.0072
2807.25,0.0072
2807.00,0.0072
2806.75,0.0071
2806.50,0.0070
2806.25,0.0069
2806.00,0.0069
2805.75,0.0070
2805.50,0.0071
2805.25,0.0073
2805.00,0.0074
2804.75,0.0074
2804.50,0.0074
2804.25,0.0074
2804.00,0.0074
2803.75,0.0074
2803.50,0.0073
2803.25,0.0072
2803.00,0.0070
2802.75,0.0069
2802.50,0.0069
2802.25,0.0070
2802.00,0.0071
2801.75,0.0071
2801.50,0.0072
2801.25,0.0071
2801.00,0.0070
2800.75,0.0069
2800.50,0.0069
2800.25,0.0069
2800.00,0.0070
2799.75,0.0071
2799.50,0.0072
2799.25,0.0072
2799.00,0.0071
2798.75,0.0071
2798.50,0.0070
2798.25,0.0069
2798.00,0.0069
2797.75,0.0069
2797.50,0.0070
2797.25,0.0071
2797.00,0.0072
2796.75,0.0072
2796.50,0.0072
2796.25,0.0072
2796.00,0.0072
2795.75,0.0072
2795.50,0.0071
2795.25,0.0070
2795.00,0.0069
2794.75,0.0070
2794.50,0.0070
2794.25,0.0071
2794.00,0.0071
2793.75,0.0070
2793.50,0.0069
2793.25,0.0069
2793.00,0.0070
2792.75,0.0071
2792.50,0.0072
2792.25,0.0073
2792.00,0.0073
2791.75,0.0073
2791.50,0.0073
2791.25,0.0072
2791.00,0.0072
2790.75,0.0072
2790.50,0.0072
2790.25,0.0072
2790.00,0.0071
2789.75,0.0071
2789.50,0.0070
2789.25,0.0070
2789.00,0.0070
2788.75,0.0071
2788.50,0.0072
2788.25,0.0072
2788.00,0.0072
2787.75,0.0072
2787.50,0.0073
2787.25,0.0073
2787.00,0.0073
2786.75,0.0072
2786.50,0.0071
2786.25,0.0069
2786.00,0.0067
2785.75,0.0066
2785.50,0.0064
2785.25,0.0063
2785.00,0.0064
2784.75,0.0066
2784.50,0.0068
2784.25,0.0069
2784.00,0.0069
2783.75,0.0069
2783.50,0.0068
2783.25,0.0068
2783.00,0.0068
2782.75,0.0068
2782.50,0.0068
2782.25,0.0068
2782.00,0.0069
2781.75,0.0069
2781.50,0.0070
2781.25,0.0070
2781.00,0.0070
2780.75,0.0070
2780.50,0.0070
2780.25,0.0070
2780.00,0.0070
2779.75,0.0070
2779.50,0.0069
2779.25,0.0067
2779.00,0.0066
2778.75,0.0066
2778.50,0.0066
2778.25,0.0067
2778.00,0.0067
2777.75,0.0067
2777.50,0.0067
2777.25,0.0066
2777.00,0.0066
2776.75,0.0066
2776.50,0.0066
2776.25,0.0065
2776.00,0.0065
2775.75,0.0066
2775.50,0.0067
2775.25,0.0068
2775.00,0.0069
2774.75,0.0069
2774.50,0.0068
2774.25,0.0067
2774.00,0.0065
2773.75,0.0064
2773.50,0.0065
2773.25,0.0066
2773.00,0.0067
2772.75,0.0069
2772.50,0.0069
2772.25,0.0069
2772.00,0.0068
2771.75,0.0067
2771.50,0.0066
2771.25,0.0065
2771.00,0.0065
2770.75,0.0065
2770.50,0.0065
2770.25,0.0065
2770.00,0.0066
2769.75,0.0065
2769.50,0.0065
2769.25,0.0064
2769.00,0.0064
2768.75,0.0063
2768.50,0.0063
2768.25,0.0064
2768.00,0.0065
2767.75,0.0066
2767.50,0.0066
2767.25,0.0066
2767.00,0.0065
2766.75,0.0064
2766.50,0.0063
2766.25,0.0063
2766.00,0.0064
2765.75,0.0065
2765.50,0.0066
2765.25,0.0066
2765.00,0.0067
2764.75,0.0068
2764.50,0.0068
2764.25,0.0069
2764.00,0.0069
2763.75,0.0069
2763.50,0.0068
2763.25,0.0068
2763.00,0.0067
2762.75,0.0066
2762.50,0.0065
2762.25,0.0063
2762.00,0.0063
2761.75,0.0063
2761.50,0.0064
2761.25,0.0064
2761.00,0.0065
2760.75,0.0065
2760.50,0.0065
2760.25,0.0066
2760.00,0.0066
2759.75,0.0066
2759.50,0.0065
2759.25,0.0064
2759.00,0.0063
2758.75,0.0063
2758.50,0.0063
2758.25,0.0064
2758.00,0.0064
2757.75,0.0064
2757.50,0.0065
2757.25,0.0065
2757.00,0.0064
2756.75,0.0064
2756.50,0.0063
2756.25,0.0063
2756.00,0.0064
2755.75,0.0065
2755.50,0.0065
2755.25,0.0066
2755.00,0.0066
2754.75,0.0067
2754.50,0.0067
2754.25,0.0067
2754.00,0.0067
2753.75,0.0067
2753.50,0.0066
2753.25,0.0064
2753.00,0.0063
2752.75,0.0062
2752.50,0.0061
2752.25,0.0060
2752.00,0.0061
2751.75,0.0061
2751.50,0.0061
2751.25,0.0062
2751.00,0.0062
2750.75,0.0061
2750.50,0.0061
2750.25,0.0061
2750.00,0.0061
2749.75,0.0061
2749.50,0.0060
2749.25,0.0059
2749.00,0.0058
2748.75,0.0059
2748.50,0.0061
2748.25,0.0063
2748.00,0.0064
2747.75,0.0065
2747.50,0.0065
2747.25,0.0065
2747.00,0.0066
2746.75,0.0067
2746.50,0.0067
2746.25,0.0066
2746.00,0.0066
2745.75,0.0065
2745.50,0.0065
2745.25,0.0065
2745.00,0.0065
2744.75,0.0064
2744.50,0.0063
2744.25,0.0062
2744.00,0.0061
2743.75,0.0061
2743.50,0.0061
2743.25,0.0062
2743.00,0.0063
2742.75,0.0064
2742.50,0.0065
2742.25,0.0066
2742.00,0.0066
2741.75,0.0066
2741.50,0.0066
2741.25,0.0065
2741.00,0.0063
2740.75,0.0062
2740.50,0.0062
2740.25,0.0063
2740.00,0.0064
2739.75,0.0065
2739.50,0.0065
2739.25,0.0065
2739.00,0.0065
2738.75,0.0065
2738.50,0.0064
2738.25,0.0064
2738.00,0.0063
2737.75,0.0063
2737.50,0.0063
2737.25,0.0063
2737.00,0.0063
2736.75,0.0062
2736.50,0.0062
2736.25,0.0062
2736.00,0.0063
2735.75,0.0064
2735.50,0.0065
2735.25,0.0066
2735.00,0.0066
2734.75,0.0066
2734.50,0.0066
2734.25,0.0066
2734.00,0.0067
2733.75,0.0066
2733.50,0.0065
2733.25,0.0064
2733.00,0.0063
2732.75,0.0062
2732.50,0.0062
2732.25,0.0063
2732.00,0.0063
2731.75,0.0064
2731.50,0.0064
2731.25,0.0063
2731.00,0.0062
2730.75,0.0061
2730.50,0.0061
2730.25,0.0060
2730.00,0.0061
2729.75,0.0061
2729.50,0.0062
2729.25,0.0063
2729.00,0.0063
2728.75,0.0064
2728.50,0.0064
2728.25,0.0064
2728.00,0.0063
2727.75,0.0062
2727.50,0.0061
2727.25,0.0061
2727.00,0.0062
2726.75,0.0063
2726.50,0.0064
2726.25,0.0065
2726.00,0.0066
2725.75,0.0067
2725.50,0.0068
2725.25,0.0067
2725.00,0.0066
2724.75,0.0064
2724.50,0.0062
2724.25,0.0060
2724.00,0.0059
2723.75,0.0059
2723.50,0.0059
2723.25,0.0060
2723.00,0.0062
2722.75,0.0063
2722.50,0.0065
2722.25,0.0065
2722.00,0.0066
2721.75,0.0065
2721.50,0.0064
2721.25,0.0064
2721.00,0.0063
2720.75,0.0064
2720.50,0.0064
2720.25,0.0065
2720.00,0.0065
2719.75,0.0065
2719.50,0.0065
2719.25,0.0064
2719.00,0.0064
2718.75,0.0063
2718.50,0.0063
2718.25,0.0064
2718.00,0.0065
2717.75,0.0065
2717.50,0.0064
2717.25,0.0062
2717.00,0.0061
2716.75,0.0060
2716.50,0.0061
2716.25,0.0062
2716.00,0.0064
2715.75,0.0066
2715.50,0.0066
2715.25,0.0066
2715.00,0.0065
2714.75,0.0064
2714.50,0.0063
2714.25,0.0062
2714.00,0.0062
2713.75,0.0063
2713.50,0.0063
2713.25,0.0064
2713.00,0.0065
2712.75,0.0065
2712.50,0.0065
2712.25,0.0064
2712.00,0.0064
2711.75,0.0063
2711.50,0.0062
2711.25,0.0062
2711.00,0.0061
2710.75,0.0061
2710.50,0.0062
2710.25,0.0062
2710.00,0.0063
2709.75,0.0063
2709.50,0.0063
2709.25,0.0064
2709.00,0.0065
2708.75,0.0065
2708.50,0.0066
2708.25,0.0066
2708.00,0.0065
2707.75,0.0064
2707.50,0.0062
2707.25,0.0061
2707.00,0.0061
2706.75,0.0061
2706.50,0.0061
2706.25,0.0062
2706.00,0.0063
2705.75,0.0064
2705.50,0.0064
2705.25,0.0064
2705.00,0.0064
2704.75,0.0064
2704.50,0.0064
2704.25,0.0064
2704.00,0.0064
2703.75,0.0065
2703.50,0.0065
2703.25,0.0065
2703.00,0.0065
2702.75,0.0064
2702.50,0.0064
2702.25,0.0063
2702.00,0.0063
2701.75,0.0063
2701.50,0.0063
2701.25,0.0063
2701.00,0.0063
2700.75,0.0063
2700.50,0.0063
2700.25,0.0062
2700.00,0.0062
2699.75,0.0062
2699.50,0.0062
2699.25,0.0062
2699.00,0.0063
2698.75,0.0064
2698.50,0.0064
2698.25,0.0065
2698.00,0.0064
2697.75,0.0063
2697.50,0.0063
2697.25,0.0062
2697.00,0.0062
2696.75,0.0062
2696.50,0.0063
2696.25,0.0063
2696.00,0.0063
2695.75,0.0062
2695.50,0.0062
2695.25,0.0062
2695.00,0.0063
2694.75,0.0064
2694.50,0.0065
2694.25,0.0066
2694.00,0.0066
2693.75,0.0066
2693.50,0.0065
2693.25,0.0064
2693.00,0.0064
2692.75,0.0064
2692.50,0.0065
2692.25,0.0066
2692.00,0.0066
2691.75,0.0065
2691.50,0.0064
2691.25,0.0063
2691.00,0.0062
2690.75,0.0061
2690.50,0.0062
2690.25,0.0063
2690.00,0.0064
2689.75,0.0065
2689.50,0.0067
2689.25,0.0067
2689.00,0.0068
2688.75,0.0067
2688.50,0.0066
2688.25,0.0066
2688.00,0.0065
2687.75,0.0064
2687.50,0.0064
2687.25,0.0063
2687.00,0.0063
2686.75,0.0063
2686.50,0.0064
2686.25,0.0066
2686.00,0.0067
2685.75,0.0067
2685.50,0.0066
2685.25,0.0065
2685.00,0.0064
2684.75,0.0062
2684.50,0.0062
2684.25,0.0061
2684.00,0.0062
2683.75,0.0063
2683.50,0.0064
2683.25,0.0065
2683.00,0.0066
2682.75,0.0066
2682.50,0.0065
2682.25,0.0065
2682.00,0.0064
2681.75,0.0064
2681.50,0.0064
2681.25,0.0065
2681.00,0.0065
2680.75,0.0065
2680.50,0.0065
2680.25,0.0064
2680.00,0.0063
2679.75,0.0062
2679.50,0.0061
2679.25,0.0061
2679.00,0.0061
2678.75,0.0061
2678.50,0.0062
2678.25,0.0062
2678.00,0.0062
2677.75,0.0062
2677.50,0.0063
2677.25,0.0064
2677.00,0.0065
2676.75,0.0065
2676.50,0.0065
2676.25,0.0064
2676.00,0.0064
2675.75,0.0064
2675.50,0.0064
2675.25,0.0064
2675.00,0.0065
2674.75,0.0065
2674.50,0.0064
2674.25,0.0064
2674.00,0.0063
2673.75,0.0063
2673.50,0.0063
2673.25,0.0064
2673.00,0.0064
2672.75,0.0065
2672.50,0.0064
2672.25,0.0064
2672.00,0.0063
2671.75,0.0063
2671.50,0.0063
2671.25,0.0063
2671.00,0.0064
2670.75,0.0065
2670.50,0.0065
2670.25,0.0065
2670.00,0.0065
2669.75,0.0064
2669.50,0.0063
2669.25,0.0063
2669.00,0.0063
2668.75,0.0063
2668.50,0.0064
2668.25,0.0063
2668.00,0.0063
2667.75,0.0062
2667.50,0.0062
2667.25,0.0063
2667.00,0.0064
2666.75,0.0065
2666.50,0.0065
2666.25,0.0065
2666.00,0.0065
2665.75,0.0065
2665.50,0.0065
2665.25,0.0066
2665.00,0.0066
2664.75,0.0066
2664.50,0.0065
2664.25,0.0065
2664.00,0.0065
2663.75,0.0064
2663.50,0.0064
2663.25,0.0064
2663.00,0.0064
2662.75,0.0064
2662.50,0.0064
2662.25,0.0065
2662.00,0.0066
2661.75,0.0066
2661.50,0.0067
2661.25,0.0066
2661.00,0.0066
2660.75,0.0066
2660.50,0.0065
2660.25,0.0064
2660.00,0.0063
2659.75,0.0063
2659.50,0.0062
2659.25,0.0063
2659.00,0.0063
2658.75,0.0063
2658.50,0.0063
2658.25,0.0063
2658.00,0.0064
2657.75,0.0065
2657.50,0.0066
2657.25,0.0067
2657.00,0.0067
2656.75,0.0067
2656.50,0.0066
2656.25,0.0065
2656.00,0.0064
2655.75,0.0064
2655.50,0.0065
2655.25,0.0064
2655.00,0.0064
2654.75,0.0063
2654.50,0.0063
2654.25,0.0064
2654.00,0.0065
2653.75,0.0066
2653.50,0.0066
2653.25,0.0066
2653.00,0.0066
2652.75,0.0066
2652.50,0.0065
2652.25,0.0065
2652.00,0.0064
2651.75,0.0063
2651.50,0.0062
2651.25,0.0062
2651.00,0.0062
2650.75,0.0062
2650.50,0.0063
2650.25,0.0063
2650.00,0.0064
2649.75,0.0065
2649.50,0.0065
2649.25,0.0065
2649.00,0.0064
2648.75,0.0064
2648.50,0.0064
2648.25,0.0064
2648.00,0.0064
2647.75,0.0064
2647.50,0.0064
2647.25,0.0064
2647.00,0.0064
2646.75,0.0064
2646.50,0.0064
2646.25,0.0064
2646.00,0.0064
2645.75,0.0064
2645.50,0.0065
2645.25,0.0064
2645.00,0.0064
2644.75,0.0063
2644.50,0.0063
2644.25,0.0062
2644.00,0.0062
2643.75,0.0063
2643.50,0.0063
2643.25,0.0064
2643.00,0.0064
2642.75,0.0065
2642.50,0.0064
2642.25,0.0064
2642.00,0.0063
2641.75,0.0063
2641.50,0.0063
2641.25,0.0063
2641.00,0.0063
2640.75,0.0062
2640.50,0.0062
2640.25,0.0062
2640.00,0.0062
2639.75,0.0063
2639.50,0.0064
2639.25,0.0065
2639.00,0.0066
2638.75,0.0066
2638.50,0.0066
2638.25,0.0065
2638.00,0.0065
2637.75,0.0064
2637.50,0.0062
2637.25,0.0062
2637.00,0.0061
2636.75,0.0061
2636.50,0.0060
2636.25,0.0060
2636.00,0.0060
2635.75,0.0061
2635.50,0.0062
2635.25,0.0064
2635.00,0.0065
2634.75,0.0066
2634.50,0.0067
2634.25,0.0066
2634.00,0.0066
2633.75,0.0065
2633.50,0.0064
2633.25,0.0063
2633.00,0.0063
2632.75,0.0062
2632.50,0.0061
2632.25,0.0061
2632.00,0.0061
2631.75,0.0062
2631.50,0.0062
2631.25,0.0063
2631.00,0.0063
2630.75,0.0062
2630.50,0.0062
2630.25,0.0062
2630.00,0.0062
2629.75,0.0062
2629.50,0.0061
2629.25,0.0061
2629.00,0.0061
2628.75,0.0061
2628.50,0.0062
2628.25,0.0063
2628.00,0.0064
2627.75,0.0064
2627.50,0.0065
2627.25,0.0065
2627.00,0.0065
2626.75,0.0065
2626.50,0.0065
2626.25,0.0064
2626.00,0.0063
2625.75,0.0062
2625.50,0.0062
2625.25,0.0062
2625.00,0.0061
2624.75,0.0061
2624.50,0.0061
2624.25,0.0060
2624.00,0.0061
2623.75,0.0061
2623.50,0.0061
2623.25,0.0061
2623.00,0.0061
2622.75,0.0060
2622.50,0.0060
2622.25,0.0061
2622.00,0.0062
2621.75,0.0064
2621.50,0.0065
2621.25,0.0066
2621.00,0.0065
2620.75,0.0065
2620.50,0.0064
2620.25,0.0063
2620.00,0.0063
2619.75,0.0062
2619.50,0.0061
2619.25,0.0060
2619.00,0.0060
2618.75,0.0061
2618.50,0.0062
2618.25,0.0062
2618.00,0.0062
2617.75,0.0062
2617.50,0.0062
2617.25,0.0062
2617.00,0.0061
2616.75,0.0060
2616.50,0.0059
2616.25,0.0059
2616.00,0.0060
2615.75,0.0061
2615.50,0.0062
2615.25,0.0063
2615.00,0.0063
2614.75,0.0063
2614.50,0.0063
2614.25,0.0063
2614.00,0.0063
2613.75,0.0065
2613.50,0.0065
2613.25,0.0065
2613.00,0.0064
2612.75,0.0062
2612.50,0.0060
2612.25,0.0059
2612.00,0.0059
2611.75,0.0058
2611.50,0.0058
2611.25,0.0057
2611.00,0.0057
2610.75,0.0057
2610.50,0.0057
2610.25,0.0058
2610.00,0.0059
2609.75,0.0061
2609.50,0.0063
2609.25,0.0064
2609.00,0.0064
2608.75,0.0063
2608.50,0.0061
2608.25,0.0058
2608.00,0.0056
2607.75,0.0056
2607.50,0.0057
2607.25,0.0059
2607.00,0.0061
2606.75,0.0063
2606.50,0.0064
2606.25,0.0066
2606.00,0.0068
2605.75,0.0069
2605.50,0.0070
2605.25,0.0070
2605.00,0.0069
2604.75,0.0067
2604.50,0.0066
2604.25,0.0064
2604.00,0.0063
2603.75,0.0062
2603.50,0.0061
2603.25,0.0062
2603.00,0.0063
2602.75,0.0064
2602.50,0.0065
2602.25,0.0066
2602.00,0.0065
2601.75,0.0063
2601.50,0.0060
2601.25,0.0057
2601.00,0.0056
2600.75,0.0055
2600.50,0.0056
2600.25,0.0057
2600.00,0.0059
2599.75,0.0060
2599.50,0.0061
2599.25,0.0061
2599.00,0.0060
2598.75,0.0059
2598.50,0.0059
2598.25,0.0061
2598.00,0.0064
2597.75,0.0066
2597.50,0.0068
2597.25,0.0068
2597.00,0.0066
2596.75,0.0065
2596.50,0.0063
2596.25,0.0062
2596.00,0.0060
2595.75,0.0058
2595.50,0.0055
2595.25,0.0053
2595.00,0.0053
2594.75,0.0053
2594.50,0.0054
2594.25,0.0056
2594.00,0.0058
2593.75,0.0060
2593.50,0.0060
2593.25,0.0061
2593.00,0.0061
2592.75,0.0062
2592.50,0.0061
2592.25,0.0061
2592.00,0.0059
2591.75,0.0059
2591.50,0.0059
2591.25,0.0061
2591.00,0.0063
2590.75,0.0065
2590.50,0.0067
2590.25,0.0068
2590.00,0.0067
2589.75,0.0065
2589.50,0.0062
2589.25,0.0061
2589.00,0.0061
2588.75,0.0062
2588.50,0.0064
2588.25,0.0065
2588.00,0.0065
2587.75,0.0065
2587.50,0.0065
2587.25,0.0064
2587.00,0.0062
2586.75,0.0060
2586.50,0.0058
2586.25,0.0057
2586.00,0.0057
2585.75,0.0057
2585.50,0.0059
2585.25,0.0060
2585.00,0.0060
2584.75,0.0061
2584.50,0.0061
2584.25,0.0062
2584.00,0.0061
2583.75,0.0060
2583.50,0.0059
2583.25,0.0059
2583.00,0.0059
2582.75,0.0061
2582.50,0.0062
2582.25,0.0062
2582.00,0.0062
2581.75,0.0060
2581.50,0.0058
2581.25,0.0057
2581.00,0.0057
2580.75,0.0058
2580.50,0.0059
2580.25,0.0060
2580.00,0.0060
2579.75,0.0060
2579.50,0.0060
2579.25,0.0060
2579.00,0.0060
2578.75,0.0059
2578.50,0.0059
2578.25,0.0059
2578.00,0.0059
2577.75,0.0059
2577.50,0.0058
2577.25,0.0057
2577.00,0.0056
2576.75,0.0056
2576.50,0.0056
2576.25,0.0057
2576.00,0.0059
2575.75,0.0061
2575.50,0.0063
2575.25,0.0064
2575.00,0.0065
2574.75,0.0065
2574.50,0.0064
2574.25,0.0063
2574.00,0.0062
2573.75,0.0061
2573.50,0.0060
2573.25,0.0059
2573.00,0.0058
2572.75,0.0056
2572.50,0.0055
2572.25,0.0056
2572.00,0.0057
2571.75,0.0059
2571.50,0.0061
2571.25,0.0061
2571.00,0.0061
2570.75,0.0060
2570.50,0.0059
2570.25,0.0058
2570.00,0.0059
2569.75,0.0059
2569.50,0.0061
2569.25,0.0063
2569.00,0.0064
2568.75,0.0065
2568.50,0.0065
2568.25,0.0063
2568.00,0.0060
2567.75,0.0058
2567.50,0.0057
2567.25,0.0057
2567.00,0.0056
2566.75,0.0055
2566.50,0.0055
2566.25,0.0056
2566.00,0.0058
2565.75,0.0061
2565.50,0.0063
2565.25,0.0064
2565.00,0.0063
2564.75,0.0062
2564.50,0.0061
2564.25,0.0061
2564.00,0.0061
2563.75,0.0063
2563.50,0.0064
2563.25,0.0063
2563.00,0.0062
2562.75,0.0060
2562.50,0.0059
2562.25,0.0059
2562.00,0.0060
2561.75,0.0060
2561.50,0.0060
2561.25,0.0060
2561.00,0.0060
2560.75,0.0061
2560.50,0.0062
2560.25,0.0063
2560.00,0.0063
2559.75,0.0062
2559.50,0.0061
2559.25,0.0060
2559.00,0.0059
2558.75,0.0059
2558.50,0.0058
2558.25,0.0058
2558.00,0.0060
2557.75,0.0061
2557.50,0.0062
2557.25,0.0063
2557.00,0.0062
2556.75,0.0061
2556.50,0.0060
2556.25,0.0059
2556.00,0.0059
2555.75,0.0060
2555.50,0.0061
2555.25,0.0063
2555.00,0.0062
2554.75,0.0060
2554.50,0.0056
2554.25,0.0053
2554.00,0.0052
2553.75,0.0052
2553.50,0.0054
2553.25,0.0055
2553.00,0.0056
2552.75,0.0056
2552.50,0.0055
2552.25,0.0056
2552.00,0.0056
2551.75,0.0057
2551.50,0.0058
2551.25,0.0058
2551.00,0.0058
2550.75,0.0058
2550.50,0.0059
2550.25,0.0060
2550.00,0.0061
2549.75,0.0062
2549.50,0.0061
2549.25,0.0060
2549.00,0.0058
2548.75,0.0056
2548.50,0.0055
2548.25,0.0054
2548.00,0.0054
2547.75,0.0055
2547.50,0.0056
2547.25,0.0056
2547.00,0.0056
2546.75,0.0056
2546.50,0.0056
2546.25,0.0056
2546.00,0.0056
2545.75,0.0057
2545.50,0.0057
2545.25,0.0056
2545.00,0.0054
2544.75,0.0053
2544.50,0.0052
2544.25,0.0051
2544.00,0.0052
2543.75,0.0053
2543.50,0.0053
2543.25,0.0053
2543.00,0.0052
2542.75,0.0052
2542.50,0.0052
2542.25,0.0054
2542.00,0.0056
2541.75,0.0058
2541.50,0.0059
2541.25,0.0059
2541.00,0.0058
2540.75,0.0057
2540.50,0.0057
2540.25,0.0057
2540.00,0.0058
2539.75,0.0058
2539.50,0.0057
2539.25,0.0056
2539.00,0.0054
2538.75,0.0053
2538.50,0.0053
2538.25,0.0053
2538.00,0.0053
2537.75,0.0054
2537.50,0.0055
2537.25,0.0058
2537.00,0.0060
2536.75,0.0062
2536.50,0.0064
2536.25,0.0064
2536.00,0.0063
2535.75,0.0061
2535.50,0.0058
2535.25,0.0056
2535.00,0.0055
2534.75,0.0056
2534.50,0.0058
2534.25,0.0062
2534.00,0.0065
2533.75,0.0067
2533.50,0.0067
2533.25,0.0065
2533.00,0.0062
2532.75,0.0058
2532.50,0.0053
2532.25,0.0049
2532.00,0.0046
2531.75,0.0045
2531.50,0.0045
2531.25,0.0048
2531.00,0.0050
2530.75,0.0052
2530.50,0.0052
2530.25,0.0051
2530.00,0.0050
2529.75,0.0050
2529.50,0.0052
2529.25,0.0053
2529.00,0.0053
2528.75,0.0053
2528.50,0.0052
2528.25,0.0052
2528.00,0.0052
2527.75,0.0054
2527.50,0.0055
2527.25,0.0055
2527.00,0.0054
2526.75,0.0052
2526.50,0.0051
2526.25,0.0049
2526.00,0.0049
2525.75,0.0048
2525.50,0.0048
2525.25,0.0048
2525.00,0.0048
2524.75,0.0049
2524.50,0.0049
2524.25,0.0050
2524.00,0.0050
2523.75,0.0049
2523.50,0.0048
2523.25,0.0047
2523.00,0.0047
2522.75,0.0046
2522.50,0.0046
2522.25,0.0046
2522.00,0.0046
2521.75,0.0045
2521.50,0.0044
2521.25,0.0044
2521.00,0.0044
2520.75,0.0043
2520.50,0.0043
2520.25,0.0042
2520.00,0.0043
2519.75,0.0045
2519.50,0.0048
2519.25,0.0050
2519.00,0.0051
2518.75,0.0051
2518.50,0.0050
2518.25,0.0050
2518.00,0.0049
2517.75,0.0049
2517.50,0.0049
2517.25,0.0049
2517.00,0.0049
2516.75,0.0047
2516.50,0.0046
2516.25,0.0044
2516.00,0.0044
2515.75,0.0044
2515.50,0.0045
2515.25,0.0046
2515.00,0.0048
2514.75,0.0049
2514.50,0.0049
2514.25,0.0049
2514.00,0.0048
2513.75,0.0047
2513.50,0.0047
2513.25,0.0046
2513.00,0.0045
2512.75,0.0043
2512.50,0.0042
2512.25,0.0041
2512.00,0.0043
2511.75,0.0045
2511.50,0.0047
2511.25,0.0048
2511.00,0.0049
2510.75,0.0049
2510.50,0.0049
2510.25,0.0050
2510.00,0.0052
2509.75,0.0053
2509.50,0.0052
2509.25,0.0050
2509.00,0.0048
2508.75,0.0046
2508.50,0.0046
2508.25,0.0047
2508.00,0.0048
2507.75,0.0050
2507.50,0.0052
2507.25,0.0053
2507.00,0.0053
2506.75,0.0050
2506.50,0.0047
2506.25,0.0045
2506.00,0.0045
2505.75,0.0048
2505.50,0.0051
2505.25,0.0054
2505.00,0.0054
2504.75,0.0053
2504.50,0.0051
2504.25,0.0049
2504.00,0.0047
2503.75,0.0047
2503.50,0.0047
2503.25,0.0049
2503.00,0.0051
2502.75,0.0053
2502.50,0.0055
2502.25,0.0055
2502.00,0.0054
2501.75,0.0053
2501.50,0.0053
2501.25,0.0055
2501.00,0.0057
2500.75,0.0059
2500.50,0.0059
2500.25,0.0058
2500.00,0.0055
2499.75,0.0052
2499.50,0.0049
2499.25,0.0048
2499.00,0.0048
2498.75,0.0048
2498.50,0.0048
2498.25,0.0049
2498.00,0.0050
2497.75,0.0051
2497.50,0.0054
2497.25,0.0056
2497.00,0.0057
2496.75,0.0056
2496.50,0.0055
2496.25,0.0054
2496.00,0.0055
2495.75,0.0058
2495.50,0.0060
2495.25,0.0061
2495.00,0.0060
2494.75,0.0059
2494.50,0.0058
2494.25,0.0057
2494.00,0.0057
2493.75,0.0057
2493.50,0.0056
2493.25,0.0056
2493.00,0.0055
2492.75,0.0055
2492.50,0.0054
2492.25,0.0054
2492.00,0.0054
2491.75,0.0055
2491.50,0.0056
2491.25,0.0057
2491.00,0.0058
2490.75,0.0058
2490.50,0.0057
2490.25,0.0057
2490.00,0.0056
2489.75,0.0056
2489.50,0.0055
2489.25,0.0054
2489.00,0.0054
2488.75,0.0056
2488.50,0.0057
2488.25,0.0059
2488.00,0.0060
2487.75,0.0061
2487.50,0.0061
2487.25,0.0061
2487.00,0.0060
2486.75,0.0059
2486.50,0.0057
2486.25,0.0055
2486.00,0.0053
2485.75,0.0053
2485.50,0.0054
2485.25,0.0056
2485.00,0.0059
2484.75,0.0061
2484.50,0.0063
2484.25,0.0063
2484.00,0.0064
2483.75,0.0063
2483.50,0.0062
2483.25,0.0061
2483.00,0.0060
2482.75,0.0059
2482.50,0.0059
2482.25,0.0058
2482.00,0.0058
2481.75,0.0057
2481.50,0.0057
2481.25,0.0057
2481.00,0.0058
2480.75,0.0060
2480.50,0.0062
2480.25,0.0063
2480.00,0.0064
2479.75,0.0065
2479.50,0.0065
2479.25,0.0064
2479.00,0.0062
2478.75,0.0060
2478.50,0.0056
2478.25,0.0054
2478.00,0.0052
2477.75,0.0051
2477.50,0.0052
2477.25,0.0053
2477.00,0.0055
2476.75,0.0057
2476.50,0.0059
2476.25,0.0060
2476.00,0.0060
2475.75,0.0060
2475.50,0.0060
2475.25,0.0060
2475.00,0.0060
2474.75,0.0059
2474.50,0.0058
2474.25,0.0056
2474.00,0.0055
2473.75,0.0054
2473.50,0.0054
2473.25,0.0055
2473.00,0.0056
2472.75,0.0058
2472.50,0.0060
2472.25,0.0061
2472.00,0.0062
2471.75,0.0062
2471.50,0.0062
2471.25,0.0062
2471.00,0.0062
2470.75,0.0062
2470.50,0.0062
2470.25,0.0062
2470.00,0.0062
2469.75,0.0061
2469.50,0.0060
2469.25,0.0059
2469.00,0.0057
2468.75,0.0056
2468.50,0.0056
2468.25,0.0057
2468.00,0.0059
2467.75,0.0061
2467.50,0.0062
2467.25,0.0061
2467.00,0.0059
2466.75,0.0057
2466.50,0.0055
2466.25,0.0056
2466.00,0.0058
2465.75,0.0060
2465.50,0.0061
2465.25,0.0060
2465.00,0.0059
2464.75,0.0057
2464.50,0.0056
2464.25,0.0055
2464.00,0.0055
2463.75,0.0054
2463.50,0.0054
2463.25,0.0053
2463.00,0.0052
2462.75,0.0053
2462.50,0.0054
2462.25,0.0057
2462.00,0.0060
2461.75,0.0062
2461.50,0.0063
2461.25,0.0063
2461.00,0.0061
2460.75,0.0058
2460.50,0.0056
2460.25,0.0054
2460.00,0.0053
2459.75,0.0054
2459.50,0.0054
2459.25,0.0055
2459.00,0.0055
2458.75,0.0055
2458.50,0.0054
2458.25,0.0053
2458.00,0.0053
2457.75,0.0053
2457.50,0.0054
2457.25,0.0054
2457.00,0.0054
2456.75,0.0054
2456.50,0.0055
2456.25,0.0056
2456.00,0.0058
2455.75,0.0059
2455.50,0.0060
2455.25,0.0060
2455.00,0.0059
2454.75,0.0057
2454.50,0.0055
2454.25,0.0055
2454.00,0.0056
2453.75,0.0057
2453.50,0.0058
2453.25,0.0059
2453.00,0.0059
2452.75,0.0058
2452.50,0.0058
2452.25,0.0058
2452.00,0.0058
2451.75,0.0059
2451.50,0.0060
2451.25,0.0060
2451.00,0.0061
2450.75,0.0063
2450.50,0.0064
2450.25,0.0064
2450.00,0.0062
2449.75,0.0059
2449.50,0.0056
2449.25,0.0055
2449.00,0.0055
2448.75,0.0056
2448.50,0.0058
2448.25,0.0060
2448.00,0.0060
2447.75,0.0059
2447.50,0.0058
2447.25,0.0057
2447.00,0.0058
2446.75,0.0060
2446.50,0.0061
2446.25,0.0060
2446.00,0.0058
2445.75,0.0055
2445.50,0.0052
2445.25,0.0050
2445.00,0.0050
2444.75,0.0050
2444.50,0.0051
2444.25,0.0053
2444.00,0.0055
2443.75,0.0056
2443.50,0.0056
2443.25,0.0056
2443.00,0.0056
2442.75,0.0057
2442.50,0.0058
2442.25,0.0060
2442.00,0.0062
2441.75,0.0065
2441.50,0.0067
2441.25,0.0068
2441.00,0.0067
2440.75,0.0065
2440.50,0.0064
2440.25,0.0062
2440.00,0.0060
2439.75,0.0059
2439.50,0.0059
2439.25,0.0060
2439.00,0.0061
2438.75,0.0061
2438.50,0.0060
2438.25,0.0059
2438.00,0.0057
2437.75,0.0056
2437.50,0.0056
2437.25,0.0056
2437.00,0.0056
2436.75,0.0056
2436.50,0.0055
2436.25,0.0054
2436.00,0.0054
2435.75,0.0055
2435.50,0.0056
2435.25,0.0055
2435.00,0.0053
2434.75,0.0052
2434.50,0.0051
2434.25,0.0052
2434.00,0.0053
2433.75,0.0054
2433.50,0.0056
2433.25,0.0056
2433.00,0.0055
2432.75,0.0054
2432.50,0.0054
2432.25,0.0056
2432.00,0.0057
2431.75,0.0058
2431.50,0.0057
2431.25,0.0055
2431.00,0.0054
2430.75,0.0054
2430.50,0.0055
2430.25,0.0056
2430.00,0.0056
2429.75,0.0057
2429.50,0.0058
2429.25,0.0058
2429.00,0.0059
2428.75,0.0059
2428.50,0.0058
2428.25,0.0056
2428.00,0.0054
2427.75,0.0053
2427.50,0.0054
2427.25,0.0057
2427.00,0.0059
2426.75,0.0061
2426.50,0.0062
2426.25,0.0062
2426.00,0.0063
2425.75,0.0063
2425.50,0.0062
2425.25,0.0062
2425.00,0.0060
2424.75,0.0059
2424.50,0.0057
2424.25,0.0055
2424.00,0.0053
2423.75,0.0052
2423.50,0.0050
2423.25,0.0050
2423.00,0.0050
2422.75,0.0050
2422.50,0.0051
2422.25,0.0052
2422.00,0.0053
2421.75,0.0054
2421.50,0.0054
2421.25,0.0054
2421.00,0.0053
2420.75,0.0053
2420.50,0.0053
2420.25,0.0055
2420.00,0.0058
2419.75,0.0060
2419.50,0.0061
2419.25,0.0060
2419.00,0.0058
2418.75,0.0056
2418.50,0.0056
2418.25,0.0056
2418.00,0.0058
2417.75,0.0059
2417.50,0.0061
2417.25,0.0063
2417.00,0.0064
2416.75,0.0063
2416.50,0.0061
2416.25,0.0059
2416.00,0.0058
2415.75,0.0057
2415.50,0.0057
2415.25,0.0057
2415.00,0.0057
2414.75,0.0058
2414.50,0.0058
2414.25,0.0058
2414.00,0.0057
2413.75,0.0057
2413.50,0.0058
2413.25,0.0060
2413.00,0.0062
2412.75,0.0063
2412.50,0.0063
2412.25,0.0063
2412.00,0.0064
2411.75,0.0065
2411.50,0.0065
2411.25,0.0064
2411.00,0.0062
2410.75,0.0060
2410.50,0.0059
2410.25,0.0057
2410.00,0.0056
2409.75,0.0056
2409.50,0.0055
2409.25,0.0055
2409.00,0.0056
2408.75,0.0057
2408.50,0.0057
2408.25,0.0057
2408.00,0.0055
2407.75,0.0054
2407.50,0.0054
2407.25,0.0055
2407.00,0.0057
2406.75,0.0059
2406.50,0.0060
2406.25,0.0060
2406.00,0.0060
2405.75,0.0060
2405.50,0.0059
2405.25,0.0059
2405.00,0.0059
2404.75,0.0058
2404.50,0.0057
2404.25,0.0056
2404.00,0.0056
2403.75,0.0056
2403.50,0.0058
2403.25,0.0059
2403.00,0.0060
2402.75,0.0061
2402.50,0.0061
2402.25,0.0061
2402.00,0.0061
2401.75,0.0060
2401.50,0.0059
2401.25,0.0057
2401.00,0.0057
2400.75,0.0056
2400.50,0.0055
2400.25,0.0054
2400.00,0.0053
2399.75,0.0053
2399.50,0.0054
2399.25,0.0055
2399.00,0.0057
2398.75,0.0058
2398.50,0.0059
2398.25,0.0060
2398.00,0.0059
2397.75,0.0057
2397.50,0.0055
2397.25,0.0052
2397.00,0.0052
2396.75,0.0053
2396.50,0.0055
2396.25,0.0058
2396.00,0.0060
2395.75,0.0060
2395.50,0.0058
2395.25,0.0055
2395.00,0.0053
2394.75,0.0053
2394.50,0.0055
2394.25,0.0056
2394.00,0.0057
2393.75,0.0057
2393.50,0.0057
2393.25,0.0057
2393.00,0.0056
2392.75,0.0054
2392.50,0.0052
2392.25,0.0051
2392.00,0.0051
2391.75,0.0052
2391.50,0.0053
2391.25,0.0054
2391.00,0.0055
2390.75,0.0055
2390.50,0.0057
2390.25,0.0059
2390.00,0.0061
2389.75,0.0063
2389.50,0.0064
2389.25,0.0063
2389.00,0.0062
2388.75,0.0060
2388.50,0.0058
2388.25,0.0056
2388.00,0.0055
2387.75,0.0054
2387.50,0.0054
2387.25,0.0055
2387.00,0.0056
2386.75,0.0056
2386.50,0.0055
2386.25,0.0053
2386.00,0.0053
2385.75,0.0054
2385.50,0.0054
2385.25,0.0055
2385.00,0.0055
2384.75,0.0055
2384.50,0.0056
2384.25,0.0056
2384.00,0.0056
2383.75,0.0056
2383.50,0.0055
2383.25,0.0054
2383.00,0.0053
2382.75,0.0051
2382.50,0.0050
2382.25,0.0049
2382.00,0.0050
2381.75,0.0051
2381.50,0.0051
2381.25,0.0051
2381.00,0.0049
2380.75,0.0045
2380.50,0.0041
2380.25,0.0038
2380.00,0.0036
2379.75,0.0035
2379.50,0.0035
2379.25,0.0037
2379.00,0.0040
2378.75,0.0042
2378.50,0.0043
2378.25,0.0043
2378.00,0.0042
2377.75,0.0042
2377.50,0.0042
2377.25,0.0043
2377.00,0.0043
2376.75,0.0044
2376.50,0.0047
2376.25,0.0049
2376.00,0.0052
2375.75,0.0053
2375.50,0.0053
2375.25,0.0051
2375.00,0.0047
2374.75,0.0042
2374.50,0.0038
2374.25,0.0037
2374.00,0.0038
2373.75,0.0039
2373.50,0.0040
2373.25,0.0040
2373.00,0.0040
2372.75,0.0039
2372.50,0.0038
2372.25,0.0038
2372.00,0.0038
2371.75,0.0038
2371.50,0.0037
2371.25,0.0036
2371.00,0.0035
2370.75,0.0035
2370.50,0.0034
2370.25,0.0035
2370.00,0.0037
2369.75,0.0041
2369.50,0.0045
2369.25,0.0046
2369.00,0.0044
2368.75,0.0041
2368.50,0.0040
2368.25,0.0040
2368.00,0.0041
2367.75,0.0039
2367.50,0.0037
2367.25,0.0033
2367.00,0.0028
2366.75,0.0024
2366.50,0.0023
2366.25,0.0027
2366.00,0.0034
2365.75,0.0039
2365.50,0.0042
2365.25,0.0041
2365.00,0.0039
2364.75,0.0040
2364.50,0.0040
2364.25,0.0040
2364.00,0.0038
2363.75,0.0035
2363.50,0.0033
2363.25,0.0029
2363.00,0.0024
2362.75,0.0022
2362.50,0.0027
2362.25,0.0036
2362.00,0.0043
2361.75,0.0044
2361.50,0.0040
2361.25,0.0036
2361.00,0.0036
2360.75,0.0040
2360.50,0.0043
2360.25,0.0043
2360.00,0.0038
2359.75,0.0033
2359.50,0.0030
2359.25,0.0030
2359.00,0.0032
2358.75,0.0036
2358.50,0.0043
2358.25,0.0049
2358.00,0.0051
2357.75,0.0050
2357.50,0.0046
2357.25,0.0042
2357.00,0.0040
2356.75,0.0040
2356.50,0.0040
2356.25,0.0039
2356.00,0.0037
2355.75,0.0038
2355.50,0.0040
2355.25,0.0042
2355.00,0.0042
2354.75,0.0040
2354.50,0.0037
2354.25,0.0037
2354.00,0.0040
2353.75,0.0044
2353.50,0.0046
2353.25,0.0045
2353.00,0.0041
2352.75,0.0038
2352.50,0.0037
2352.25,0.0038
2352.00,0.0040
2351.75,0.0041
2351.50,0.0041
2351.25,0.0040
2351.00,0.0040
2350.75,0.0041
2350.50,0.0042
2350.25,0.0042
2350.00,0.0041
2349.75,0.0040
2349.50,0.0038
2349.25,0.0037
2349.00,0.0036
2348.75,0.0037
2348.50,0.0039
2348.25,0.0042
2348.00,0.0044
2347.75,0.0045
2347.50,0.0043
2347.25,0.0041
2347.00,0.0040
2346.75,0.0040
2346.50,0.0041
2346.25,0.0041
2346.00,0.0039
2345.75,0.0038
2345.50,0.0038
2345.25,0.0039
2345.00,0.0041
2344.75,0.0042
2344.50,0.0040
2344.25,0.0037
2344.00,0.0035
2343.75,0.0035
2343.50,0.0039
2343.25,0.0044
2343.00,0.0049
2342.75,0.0052
2342.50,0.0051
2342.25,0.0049
2342.00,0.0049
2341.75,0.0051
2341.50,0.0053
2341.25,0.0053
2341.00,0.0048
2340.75,0.0042
2340.50,0.0040
2340.25,0.0041
2340.00,0.0043
2339.75,0.0045
2339.50,0.0043
2339.25,0.0039
2339.00,0.0036
2338.75,0.0037
2338.50,0.0039
2338.25,0.0041
2338.00,0.0042
2337.75,0.0040
2337.50,0.0039
2337.25,0.0041
2337.00,0.0043
2336.75,0.0044
2336.50,0.0044
2336.25,0.0040
2336.00,0.0034
2335.75,0.0030
2335.50,0.0031
2335.25,0.0036
2335.00,0.0042
2334.75,0.0047
2334.50,0.0049
2334.25,0.0045
2334.00,0.0037
2333.75,0.0030
2333.50,0.0030
2333.25,0.0035
2333.00,0.0042
2332.75,0.0050
2332.50,0.0054
2332.25,0.0051
2332.00,0.0045
2331.75,0.0041
2331.50,0.0041
2331.25,0.0045
2331.00,0.0050
2330.75,0.0051
2330.50,0.0048
2330.25,0.0043
2330.00,0.0039
2329.75,0.0038
2329.50,0.0039
2329.25,0.0041
2329.00,0.0043
2328.75,0.0043
2328.50,0.0043
2328.25,0.0044
2328.00,0.0043
2327.75,0.0044
2327.50,0.0045
2327.25,0.0045
2327.00,0.0045
2326.75,0.0042
2326.50,0.0039
2326.25,0.0038
2326.00,0.0040
2325.75,0.0045
2325.50,0.0051
2325.25,0.0055
2325.00,0.0055
2324.75,0.0049
2324.50,0.0042
2324.25,0.0038
2324.00,0.0040
2323.75,0.0045
2323.50,0.0050
2323.25,0.0052
2323.00,0.0049
2322.75,0.0043
2322.50,0.0041
2322.25,0.0043
2322.00,0.0048
2321.75,0.0053
2321.50,0.0054
2321.25,0.0049
2321.00,0.0040
2320.75,0.0034
2320.50,0.0035
2320.25,0.0041
2320.00,0.0047
2319.75,0.0053
2319.50,0.0054
2319.25,0.0049
2319.00,0.0042
2318.75,0.0036
2318.50,0.0034
2318.25,0.0035
2318.00,0.0037
2317.75,0.0042
2317.50,0.0046
2317.25,0.0049
2317.00,0.0049
2316.75,0.0048
2316.50,0.0045
2316.25,0.0043
2316.00,0.0042
2315.75,0.0043
2315.50,0.0044
2315.25,0.0046
2315.00,0.0046
2314.75,0.0046
2314.50,0.0044
2314.25,0.0042
2314.00,0.0041
2313.75,0.0040
2313.50,0.0038
2313.25,0.0035
2313.00,0.0034
2312.75,0.0035
2312.50,0.0038
2312.25,0.0041
2312.00,0.0044
2311.75,0.0047
2311.50,0.0048
2311.25,0.0047
2311.00,0.0044
2310.75,0.0043
2310.50,0.0042
2310.25,0.0043
2310.00,0.0043
2309.75,0.0043
2309.50,0.0042
2309.25,0.0041
2309.00,0.0039
2308.75,0.0039
2308.50,0.0040
2308.25,0.0043
2308.00,0.0046
2307.75,0.0048
2307.50,0.0048
2307.25,0.0045
2307.00,0.0041
2306.75,0.0039
2306.50,0.0040
2306.25,0.0042
2306.00,0.0045
2305.75,0.0047
2305.50,0.0048
2305.25,0.0047
2305.00,0.0046
2304.75,0.0044
2304.50,0.0044
2304.25,0.0046
2304.00,0.0050
2303.75,0.0053
2303.50,0.0054
2303.25,0.0054
2303.00,0.0051
2302.75,0.0047
2302.50,0.0044
2302.25,0.0042
2302.00,0.0043
2301.75,0.0046
2301.50,0.0048
2301.25,0.0050
2301.00,0.0049
2300.75,0.0047
2300.50,0.0044
2300.25,0.0042
2300.00,0.0042
2299.75,0.0043
2299.50,0.0044
2299.25,0.0046
2299.00,0.0047
2298.75,0.0048
2298.50,0.0049
2298.25,0.0049
2298.00,0.0050
2297.75,0.0050
2297.50,0.0050
2297.25,0.0048
2297.00,0.0046
2296.75,0.0042
2296.50,0.0040
2296.25,0.0038
2296.00,0.0038
2295.75,0.0040
2295.50,0.0043
2295.25,0.0045
2295.00,0.0047
2294.75,0.0050
2294.50,0.0052
2294.25,0.0055
2294.00,0.0056
2293.75,0.0057
2293.50,0.0058
2293.25,0.0059
2293.00,0.0060
2292.75,0.0060
2292.50,0.0058
2292.25,0.0056
2292.00,0.0055
2291.75,0.0054
2291.50,0.0054
2291.25,0.0054
2291.00,0.0053
2290.75,0.0051
2290.50,0.0051
2290.25,0.0053
2290.00,0.0056
2289.75,0.0059
2289.50,0.0059
2289.25,0.0057
2289.00,0.0053
2288.75,0.0049
2288.50,0.0047
2288.25,0.0046
2288.00,0.0047
2287.75,0.0048
2287.50,0.0048
2287.25,0.0049
2287.00,0.0050
2286.75,0.0051
2286.50,0.0052
2286.25,0.0051
2286.00,0.0050
2285.75,0.0050
2285.50,0.0051
2285.25,0.0054
2285.00,0.0057
2284.75,0.0058
2284.50,0.0056
2284.25,0.0054
2284.00,0.0051
2283.75,0.0050
2283.50,0.0050
2283.25,0.0051
2283.00,0.0052
2282.75,0.0054
2282.50,0.0056
2282.25,0.0058
2282.00,0.0059
2281.75,0.0058
2281.50,0.0056
2281.25,0.0054
2281.00,0.0053
2280.75,0.0051
2280.50,0.0050
2280.25,0.0049
2280.00,0.0048
2279.75,0.0047
2279.50,0.0048
2279.25,0.0049
2279.00,0.0051
2278.75,0.0053
2278.50,0.0053
2278.25,0.0052
2278.00,0.0051
2277.75,0.0050
2277.50,0.0049
2277.25,0.0049
2277.00,0.0049
2276.75,0.0048
2276.50,0.0047
2276.25,0.0045
2276.00,0.0043
2275.75,0.0041
2275.50,0.0040
2275.25,0.0041
2275.00,0.0043
2274.75,0.0049
2274.50,0.0056
2274.25,0.0063
2274.00,0.0068
2273.75,0.0070
2273.50,0.0067
2273.25,0.0063
2273.00,0.0058
2272.75,0.0054
2272.50,0.0051
2272.25,0.0049
2272.00,0.0049
2271.75,0.0050
2271.50,0.0052
2271.25,0.0054
2271.00,0.0055
2270.75,0.0054
2270.50,0.0051
2270.25,0.0047
2270.00,0.0043
2269.75,0.0041
2269.50,0.0041
2269.25,0.0043
2269.00,0.0046
2268.75,0.0049
2268.50,0.0051
2268.25,0.0052
2268.00,0.0052
2267.75,0.0051
2267.50,0.0050
2267.25,0.0050
2267.00,0.0050
2266.75,0.0050
2266.50,0.0049
2266.25,0.0049
2266.00,0.0049
2265.75,0.0049
2265.50,0.0048
2265.25,0.0047
2265.00,0.0046
2264.75,0.0046
2264.50,0.0047
2264.25,0.0047
2264.00,0.0046
2263.75,0.0043
2263.50,0.0040
2263.25,0.0037
2263.00,0.0037
2262.75,0.0038
2262.50,0.0041
2262.25,0.0044
2262.00,0.0046
2261.75,0.0048
2261.50,0.0050
2261.25,0.0052
2261.00,0.0054
2260.75,0.0055
2260.50,0.0055
2260.25,0.0053
2260.00,0.0048
2259.75,0.0042
2259.50,0.0038
2259.25,0.0037
2259.00,0.0039
2258.75,0.0044
2258.50,0.0048
2258.25,0.0051
2258.00,0.0052
2257.75,0.0051
2257.50,0.0049
2257.25,0.0046
2257.00,0.0043
2256.75,0.0042
2256.50,0.0044
2256.25,0.0046
2256.00,0.0049
2255.75,0.0050
2255.50,0.0049
2255.25,0.0048
2255.00,0.0048
2254.75,0.0049
2254.50,0.0052
2254.25,0.0052
2254.00,0.0051
2253.75,0.0049
2253.50,0.0047
2253.25,0.0047
2253.00,0.0048
2252.75,0.0048
2252.50,0.0048
2252.25,0.0048
2252.00,0.0047
2251.75,0.0047
2251.50,0.0047
2251.25,0.0047
2251.00,0.0047
2250.75,0.0048
2250.50,0.0050
2250.25,0.0052
2250.00,0.0053
2249.75,0.0052
2249.50,0.0049
2249.25,0.0045
2249.00,0.0044
2248.75,0.0044
2248.50,0.0046
2248.25,0.0047
2248.00,0.0048
2247.75,0.0048
2247.50,0.0047
2247.25,0.0046
2247.00,0.0044
2246.75,0.0044
2246.50,0.0043
2246.25,0.0043
2246.00,0.0043
2245.75,0.0043
2245.50,0.0044
2245.25,0.0046
2245.00,0.0047
2244.75,0.0046
2244.50,0.0046
2244.25,0.0046
2244.00,0.0046
2243.75,0.0045
2243.50,0.0043
2243.25,0.0042
2243.00,0.0042
2242.75,0.0043
2242.50,0.0042
2242.25,0.0041
2242.00,0.0040
2241.75,0.0039
2241.50,0.0039
2241.25,0.0039
2241.00,0.0039
2240.75,0.0040
2240.50,0.0042
2240.25,0.0044
2240.00,0.0044
2239.75,0.0042
2239.50,0.0039
2239.25,0.0037
2239.00,0.0036
2238.75,0.0036
2238.50,0.0036
2238.25,0.0037
2238.00,0.0039
2237.75,0.0042
2237.50,0.0045
2237.25,0.0049
2237.00,0.0051
2236.75,0.0051
2236.50,0.0050
2236.25,0.0047
2236.00,0.0043
2235.75,0.0040
2235.50,0.0035
2235.25,0.0032
2235.00,0.0030
2234.75,0.0029
2234.50,0.0031
2234.25,0.0033
2234.00,0.0037
2233.75,0.0042
2233.50,0.0048
2233.25,0.0053
2233.00,0.0055
2232.75,0.0054
2232.50,0.0051
2232.25,0.0047
2232.00,0.0045
2231.75,0.0045
2231.50,0.0047
2231.25,0.0048
2231.00,0.0047
2230.75,0.0044
2230.50,0.0042
2230.25,0.0042
2230.00,0.0042
2229.75,0.0041
2229.50,0.0038
2229.25,0.0035
2229.00,0.0031
2228.75,0.0029
2228.50,0.0030
2228.25,0.0032
2228.00,0.0036
2227.75,0.0039
2227.50,0.0041
2227.25,0.0041
2227.00,0.0040
2226.75,0.0039
2226.50,0.0039
2226.25,0.0041
2226.00,0.0042
2225.75,0.0042
2225.50,0.0041
2225.25,0.0040
2225.00,0.0040
2224.75,0.0041
2224.50,0.0042
2224.25,0.0044
2224.00,0.0044
2223.75,0.0044
2223.50,0.0044
2223.25,0.0043
2223.00,0.0042
2222.75,0.0041
2222.50,0.0040
2222.25,0.0039
2222.00,0.0038
2221.75,0.0037
2221.50,0.0036
2221.25,0.0034
2221.00,0.0031
2220.75,0.0031
2220.50,0.0032
2220.25,0.0034
2220.00,0.0036
2219.75,0.0038
2219.50,0.0041
2219.25,0.0043
2219.00,0.0045
2218.75,0.0044
2218.50,0.0041
2218.25,0.0036
2218.00,0.0034
2217.75,0.0034
2217.50,0.0037
2217.25,0.0040
2217.00,0.0044
2216.75,0.0047
2216.50,0.0049
2216.25,0.0049
2216.00,0.0047
2215.75,0.0046
2215.50,0.0046
2215.25,0.0048
2215.00,0.0052
2214.75,0.0054
2214.50,0.0054
2214.25,0.0051
2214.00,0.0046
2213.75,0.0042
2213.50,0.0039
2213.25,0.0038
2213.00,0.0036
2212.75,0.0034
2212.50,0.0032
2212.25,0.0029
2212.00,0.0028
2211.75,0.0028
2211.50,0.0028
2211.25,0.0030
2211.00,0.0033
2210.75,0.0037
2210.50,0.0040
2210.25,0.0041
2210.00,0.0040
2209.75,0.0039
2209.50,0.0037
2209.25,0.0036
2209.00,0.0035
2208.75,0.0035
2208.50,0.0033
2208.25,0.0029
2208.00,0.0024
2207.75,0.0021
2207.50,0.0019
2207.25,0.0021
2207.00,0.0025
2206.75,0.0030
2206.50,0.0034
2206.25,0.0036
2206.00,0.0035
2205.75,0.0031
2205.50,0.0025
2205.25,0.0021
2205.00,0.0020
2204.75,0.0025
2204.50,0.0032
2204.25,0.0039
2204.00,0.0043
2203.75,0.0043
2203.50,0.0041
2203.25,0.0039
2203.00,0.0038
2202.75,0.0037
2202.50,0.0036
2202.25,0.0036
2202.00,0.0035
2201.75,0.0035
2201.50,0.0035
2201.25,0.0036
2201.00,0.0036
2200.75,0.0037
2200.50,0.0038
2200.25,0.0039
2200.00,0.0038
2199.75,0.0036
2199.50,0.0034
2199.25,0.0032
2199.00,0.0031
2198.75,0.0031
2198.50,0.0030
2198.25,0.0028
2198.00,0.0027
2197.75,0.0028
2197.50,0.0030
2197.25,0.0033
2197.00,0.0035
2196.75,0.0036
2196.50,0.0036
2196.25,0.0035
2196.00,0.0034
2195.75,0.0032
2195.50,0.0031
2195.25,0.0031
2195.00,0.0032
2194.75,0.0032
2194.50,0.0031
2194.25,0.0028
2194.00,0.0025
2193.75,0.0024
2193.50,0.0024
2193.25,0.0025
2193.00,0.0026
2192.75,0.0024
2192.50,0.0021
2192.25,0.0019
2192.00,0.0021
2191.75,0.0026
2191.50,0.0031
2191.25,0.0034
2191.00,0.0036
2190.75,0.0037
2190.50,0.0039
2190.25,0.0040
2190.00,0.0039
2189.75,0.0038
2189.50,0.0037
2189.25,0.0036
2189.00,0.0036
2188.75,0.0037
2188.50,0.0039
2188.25,0.0039
2188.00,0.0038
2187.75,0.0034
2187.50,0.0029
2187.25,0.0025
2187.00,0.0023
2186.75,0.0023
2186.50,0.0023
2186.25,0.0022
2186.00,0.0019
2185.75,0.0016
2185.50,0.0013
2185.25,0.0011
2185.00,0.0009
2184.75,0.0008
2184.50,0.0009
2184.25,0.0013
2184.00,0.0019
2183.75,0.0025
2183.50,0.0028
2183.25,0.0026
2183.00,0.0020
2182.75,0.0015
2182.50,0.0013
2182.25,0.0015
2182.00,0.0018
2181.75,0.0020
2181.50,0.0020
2181.25,0.0019
2181.00,0.0018
2180.75,0.0019
2180.50,0.0020
2180.25,0.0021
2180.00,0.0020
2179.75,0.0020
2179.50,0.0020
2179.25,0.0022
2179.00,0.0024
2178.75,0.0024
2178.50,0.0022
2178.25,0.0019
2178.00,0.0016
2177.75,0.0017
2177.50,0.0020
2177.25,0.0025
2177.00,0.0030
2176.75,0.0033
2176.50,0.0036
2176.25,0.0037
2176.00,0.0036
2175.75,0.0033
2175.50,0.0029
2175.25,0.0025
2175.00,0.0022
2174.75,0.0023
2174.50,0.0025
2174.25,0.0028
2174.00,0.0030
2173.75,0.0028
2173.50,0.0023
2173.25,0.0018
2173.00,0.0015
2172.75,0.0014
2172.50,0.0016
2172.25,0.0021
2172.00,0.0026
2171.75,0.0030
2171.50,0.0031
2171.25,0.0030
2171.00,0.0027
2170.75,0.0023
2170.50,0.0020
2170.25,0.0017
2170.00,0.0016
2169.75,0.0017
2169.50,0.0021
2169.25,0.0027
2169.00,0.0031
2168.75,0.0034
2168.50,0.0032
2168.25,0.0029
2168.00,0.0025
2167.75,0.0023
2167.50,0.0024
2167.25,0.0027
2167.00,0.0031
2166.75,0.0035
2166.50,0.0036
2166.25,0.0036
2166.00,0.0033
2165.75,0.0030
2165.50,0.0027
2165.25,0.0025
2165.00,0.0025
2164.75,0.0027
2164.50,0.0029
2164.25,0.0031
2164.00,0.0030
2163.75,0.0026
2163.50,0.0019
2163.25,0.0012
2163.00,0.0008
2162.75,0.0007
2162.50,0.0009
2162.25,0.0011
2162.00,0.0013
2161.75,0.0014
2161.50,0.0012
2161.25,0.0009
2161.00,0.0003
2160.75,-0.0002
2160.50,-0.0005
2160.25,-0.0005
2160.00,-0.0000
2159.75,0.0007
2159.50,0.0014
2159.25,0.0020
2159.00,0.0021
2158.75,0.0019
2158.50,0.0015
2158.25,0.0011
2158.00,0.0009
2157.75,0.0008
2157.50,0.0008
2157.25,0.0007
2157.00,0.0007
2156.75,0.0009
2156.50,0.0011
2156.25,0.0012
2156.00,0.0012
2155.75,0.0011
2155.50,0.0011
2155.25,0.0013
2155.00,0.0016
2154.75,0.0018
2154.50,0.0020
2154.25,0.0021
2154.00,0.0023
2153.75,0.0025
2153.50,0.0027
2153.25,0.0027
2153.00,0.0023
2152.75,0.0016
2152.50,0.0009
2152.25,0.0004
2152.00,0.0002
2151.75,0.0005
2151.50,0.0009
2151.25,0.0014
2151.00,0.0020
2150.75,0.0024
2150.50,0.0026
2150.25,0.0026
2150.00,0.0026
2149.75,0.0026
2149.50,0.0029
2149.25,0.0034
2149.00,0.0039
2148.75,0.0041
2148.50,0.0041
2148.25,0.0038
2148.00,0.0034
2147.75,0.0030
2147.50,0.0026
2147.25,0.0023
2147.00,0.0019
2146.75,0.0014
2146.50,0.0010
2146.25,0.0007
2146.00,0.0007
2145.75,0.0012
2145.50,0.0019
2145.25,0.0026
2145.00,0.0028
2144.75,0.0026
2144.50,0.0021
2144.25,0.0016
2144.00,0.0014
2143.75,0.0016
2143.50,0.0022
2143.25,0.0029
2143.00,0.0035
2142.75,0.0037
2142.50,0.0035
2142.25,0.0031
2142.00,0.0027
2141.75,0.0024
2141.50,0.0023
2141.25,0.0023
2141.00,0.0022
2140.75,0.0020
2140.50,0.0019
2140.25,0.0021
2140.00,0.0025
2139.75,0.0031
2139.50,0.0038
2139.25,0.0043
2139.00,0.0044
2138.75,0.0042
2138.50,0.0037
2138.25,0.0032
2138.00,0.0029
2137.75,0.0028
2137.50,0.0028
2137.25,0.0029
2137.00,0.0030
2136.75,0.0032
2136.50,0.0034
2136.25,0.0037
2136.00,0.0037
2135.75,0.0035
2135.50,0.0032
2135.25,0.0029
2135.00,0.0029
2134.75,0.0031
2134.50,0.0033
2134.25,0.0036
2134.00,0.0037
2133.75,0.0037
2133.50,0.0036
2133.25,0.0035
2133.00,0.0034
2132.75,0.0033
2132.50,0.0032
2132.25,0.0031
2132.00,0.0032
2131.75,0.0032
2131.50,0.0032
2131.25,0.0032
2131.00,0.0031
2130.75,0.0030
2130.50,0.0029
2130.25,0.0029
2130.00,0.0029
2129.75,0.0030
2129.50,0.0033
2129.25,0.0038
2129.00,0.0044
2128.75,0.0049
2128.50,0.0051
2128.25,0.0049
2128.00,0.0044
2127.75,0.0038
2127.50,0.0033
2127.25,0.0030
2127.00,0.0028
2126.75,0.0029
2126.50,0.0031
2126.25,0.0034
2126.00,0.0036
2125.75,0.0038
2125.50,0.0038
2125.25,0.0038
2125.00,0.0037
2124.75,0.0037
2124.50,0.0038
2124.25,0.0037
2124.00,0.0036
2123.75,0.0035
2123.50,0.0033
2123.25,0.0032
2123.00,0.0033
2122.75,0.0034
2122.50,0.0036
2122.25,0.0038
2122.00,0.0040
2121.75,0.0043
2121.50,0.0046
2121.25,0.0049
2121.00,0.0050
2120.75,0.0049
2120.50,0.0046
2120.25,0.0043
2120.00,0.0041
2119.75,0.0041
2119.50,0.0043
2119.25,0.0044
2119.00,0.0043
2118.75,0.0040
2118.50,0.0039
2118.25,0.0039
2118.00,0.0040
2117.75,0.0042
2117.50,0.0042
2117.25,0.0040
2117.00,0.0038
2116.75,0.0037
2116.50,0.0038
2116.25,0.0041
2116.00,0.0044
2115.75,0.0046
2115.50,0.0046
2115.25,0.0045
2115.00,0.0045
2114.75,0.0045
2114.50,0.0046
2114.25,0.0047
2114.00,0.0045
2113.75,0.0042
2113.50,0.0037
2113.25,0.0034
2113.00,0.0033
2112.75,0.0035
2112.50,0.0036
2112.25,0.0037
2112.00,0.0036
2111.75,0.0035
2111.50,0.0035
2111.25,0.0037
2111.00,0.0037
2110.75,0.0036
2110.50,0.0032
2110.25,0.0028
2110.00,0.0027
2109.75,0.0027
2109.50,0.0029
2109.25,0.0031
2109.00,0.0033
2108.75,0.0033
2108.50,0.0034
2108.25,0.0036
2108.00,0.0039
2107.75,0.0044
2107.50,0.0047
2107.25,0.0047
2107.00,0.0047
2106.75,0.0046
2106.50,0.0045
2106.25,0.0046
2106.00,0.0046
2105.75,0.0046
2105.50,0.0047
2105.25,0.0049
2105.00,0.0051
2104.75,0.0052
2104.50,0.0051
2104.25,0.0047
2104.00,0.0043
2103.75,0.0040
2103.50,0.0038
2103.25,0.0038
2103.00,0.0040
2102.75,0.0044
2102.50,0.0047
2102.25,0.0048
2102.00,0.0047
2101.75,0.0046
2101.50,0.0046
2101.25,0.0048
2101.00,0.0049
2100.75,0.0050
2100.50,0.0048
2100.25,0.0045
2100.00,0.0043
2099.75,0.0042
2099.50,0.0041
2099.25,0.0041
2099.00,0.0040
2098.75,0.0039
2098.50,0.0039
2098.25,0.0040
2098.00,0.0039
2097.75,0.0037
2097.50,0.0033
2097.25,0.0030
2097.00,0.0029
2096.75,0.0030
2096.50,0.0032
2096.25,0.0033
2096.00,0.0034
2095.75,0.0036
2095.50,0.0040
2095.25,0.0045
2095.00,0.0048
2094.75,0.0049
2094.50,0.0048
2094.25,0.0045
2094.00,0.0043
2093.75,0.0043
2093.50,0.0042
2093.25,0.0041
2093.00,0.0039
2092.75,0.0037
2092.50,0.0036
2092.25,0.0036
2092.00,0.0038
2091.75,0.0038
2091.50,0.0037
2091.25,0.0035
2091.00,0.0035
2090.75,0.0038
2090.50,0.0042
2090.25,0.0046
2090.00,0.0048
2089.75,0.0047
2089.50,0.0044
2089.25,0.0042
2089.00,0.0041
2088.75,0.0042
2088.50,0.0043
2088.25,0.0044
2088.00,0.0044
2087.75,0.0042
2087.50,0.0038
2087.25,0.0035
2087.00,0.0034
2086.75,0.0035
2086.50,0.0039
2086.25,0.0042
2086.00,0.0043
2085.75,0.0042
2085.50,0.0040
2085.25,0.0038
2085.00,0.0037
2084.75,0.0036
2084.50,0.0035
2084.25,0.0034
2084.00,0.0034
2083.75,0.0034
2083.50,0.0034
2083.25,0.0036
2083.00,0.0038
2082.75,0.0039
2082.50,0.0039
2082.25,0.0038
2082.00,0.0037
2081.75,0.0036
2081.50,0.0036
2081.25,0.0035
2081.00,0.0034
2080.75,0.0034
2080.50,0.0036
2080.25,0.0039
2080.00,0.0042
2079.75,0.0044
2079.50,0.0043
2079.25,0.0041
2079.00,0.0040
2078.75,0.0040
2078.50,0.0041
2078.25,0.0042
2078.00,0.0043
2077.75,0.0043
2077.50,0.0041
2077.25,0.0040
2077.00,0.0040
2076.75,0.0041
2076.50,0.0041
2076.25,0.0040
2076.00,0.0038
2075.75,0.0037
2075.50,0.0036
2075.25,0.0035
2075.00,0.0034
2074.75,0.0033
2074.50,0.0033
2074.25,0.0034
2074.00,0.0035
2073.75,0.0036
2073.50,0.0037
2073.25,0.0038
2073.00,0.0039
2072.75,0.0039
2072.50,0.0038
2072.25,0.0035
2072.00,0.0033
2071.75,0.0033
2071.50,0.0035
2071.25,0.0040
2071.00,0.0045
2070.75,0.0047
2070.50,0.0047
2070.25,0.0045
2070.00,0.0043
2069.75,0.0041
2069.50,0.0040
2069.25,0.0039
2069.00,0.0038
2068.75,0.0037
2068.50,0.0035
2068.25,0.0032
2068.00,0.0029
2067.75,0.0028
2067.50,0.0028
2067.25,0.0029
2067.00,0.0030
2066.75,0.0032
2066.50,0.0035
2066.25,0.0039
2066.00,0.0042
2065.75,0.0044
2065.50,0.0044
2065.25,0.0043
2065.00,0.0040
2064.75,0.0035
2064.50,0.0030
2064.25,0.0028
2064.00,0.0029
2063.75,0.0031
2063.50,0.0033
2063.25,0.0034
2063.00,0.0032
2062.75,0.0031
2062.50,0.0029
2062.25,0.0029
2062.00,0.0030
2061.75,0.0032
2061.50,0.0035
2061.25,0.0039
2061.00,0.0043
2060.75,0.0045
2060.50,0.0045
2060.25,0.0043
2060.00,0.0041
2059.75,0.0038
2059.50,0.0036
2059.25,0.0036
2059.00,0.0036
2058.75,0.0037
2058.50,0.0038
2058.25,0.0039
2058.00,0.0039
2057.75,0.0038
2057.50,0.0036
2057.25,0.0033
2057.00,0.0032
2056.75,0.0031
2056.50,0.0032
2056.25,0.0034
2056.00,0.0035
2055.75,0.0036
2055.50,0.0036
2055.25,0.0035
2055.00,0.0034
2054.75,0.0034
2054.50,0.0034
2054.25,0.0034
2054.00,0.0033
2053.75,0.0030
2053.50,0.0027
2053.25,0.0027
2053.00,0.0028
2052.75,0.0031
2052.50,0.0033
2052.25,0.0032
2052.00,0.0032
2051.75,0.0032
2051.50,0.0035
2051.25,0.0037
2051.00,0.0038
2050.75,0.0039
2050.50,0.0041
2050.25,0.0042
2050.00,0.0042
2049.75,0.0040
2049.50,0.0035
2049.25,0.0030
2049.00,0.0028
2048.75,0.0029
2048.50,0.0032
2048.25,0.0035
2048.00,0.0038
2047.75,0.0040
2047.50,0.0039
2047.25,0.0035
2047.00,0.0029
2046.75,0.0024
2046.50,0.0022
2046.25,0.0021
2046.00,0.0022
2045.75,0.0024
2045.50,0.0026
2045.25,0.0029
2045.00,0.0033
2044.75,0.0035
2044.50,0.0036
2044.25,0.0034
2044.00,0.0030
2043.75,0.0026
2043.50,0.0023
2043.25,0.0022
2043.00,0.0024
2042.75,0.0026
2042.50,0.0028
2042.25,0.0028
2042.00,0.0027
2041.75,0.0024
2041.50,0.0023
2041.25,0.0022
2041.00,0.0022
2040.75,0.0022
2040.50,0.0023
2040.25,0.0024
2040.00,0.0027
2039.75,0.0030
2039.50,0.0032
2039.25,0.0031
2039.00,0.0026
2038.75,0.0020
2038.50,0.0013
2038.25,0.0008
2038.00,0.0007
2037.75,0.0012
2037.50,0.0020
2037.25,0.0028
2037.00,0.0034
2036.75,0.0033
2036.50,0.0028
2036.25,0.0021
2036.00,0.0017
2035.75,0.0017
2035.50,0.0023
2035.25,0.0030
2035.00,0.0036
2034.75,0.0038
2034.50,0.0037
2034.25,0.0032
2034.00,0.0027
2033.75,0.0023
2033.50,0.0021
2033.25,0.0020
2033.00,0.0020
2032.75,0.0020
2032.50,0.0021
2032.25,0.0021
2032.00,0.0021
2031.75,0.0020
2031.50,0.0019
2031.25,0.0018
2031.00,0.0018
2030.75,0.0018
2030.50,0.0019
2030.25,0.0019
2030.00,0.0020
2029.75,0.0021
2029.50,0.0022
2029.25,0.0023
2029.00,0.0024
2028.75,0.0024
2028.50,0.0023
2028.25,0.0021
2028.00,0.0019
2027.75,0.0016
2027.50,0.0017
2027.25,0.0022
2027.00,0.0030
2026.75,0.0036
2026.50,0.0038
2026.25,0.0036
2026.00,0.0029
2025.75,0.0022
2025.50,0.0018
2025.25,0.0015
2025.00,0.0014
2024.75,0.0012
2024.50,0.0011
2024.25,0.0011
2024.00,0.0011
2023.75,0.0012
2023.50,0.0012
2023.25,0.0013
2023.00,0.0015
2022.75,0.0015
2022.50,0.0016
2022.25,0.0016
2022.00,0.0018
2021.75,0.0019
2021.50,0.0020
2021.25,0.0020
2021.00,0.0018
2020.75,0.0018
2020.50,0.0018
2020.25,0.0020
2020.00,0.0022
2019.75,0.0023
2019.50,0.0024
2019.25,0.0025
2019.00,0.0027
2018.75,0.0030
2018.50,0.0032
2018.25,0.0033
2018.00,0.0033
2017.75,0.0033
2017.50,0.0034
2017.25,0.0036
2017.00,0.0036
2016.75,0.0034
2016.50,0.0029
2016.25,0.0026
2016.00,0.0025
2015.75,0.0026
2015.50,0.0029
2015.25,0.0030
2015.00,0.0029
2014.75,0.0029
2014.50,0.0031
2014.25,0.0035
2014.00,0.0041
2013.75,0.0045
2013.50,0.0047
2013.25,0.0045
2013.00,0.0041
2012.75,0.0037
2012.50,0.0035
2012.25,0.0034
2012.00,0.0033
2011.75,0.0032
2011.50,0.0032
2011.25,0.0032
2011.00,0.0033
2010.75,0.0034
2010.50,0.0037
2010.25,0.0038
2010.00,0.0037
2009.75,0.0035
2009.50,0.0031
2009.25,0.0029
2009.00,0.0029
2008.75,0.0030
2008.50,0.0031
2008.25,0.0032
2008.00,0.0033
2007.75,0.0036
2007.50,0.0041
2007.25,0.0046
2007.00,0.0048
2006.75,0.0046
2006.50,0.0042
2006.25,0.0039
2006.00,0.0037
2005.75,0.0034
2005.50,0.0031
2005.25,0.0028
2005.00,0.0026
2004.75,0.0024
2004.50,0.0023
2004.25,0.0021
2004.00,0.0019
2003.75,0.0018
2003.50,0.0021
2003.25,0.0026
2003.00,0.0032
2002.75,0.0037
2002.50,0.0039
2002.25,0.0038
2002.00,0.0034
2001.75,0.0030
2001.50,0.0028
2001.25,0.0029
2001.00,0.0033
2000.75,0.0037
2000.50,0.0039
2000.25,0.0039
2000.00,0.0037
1999.75,0.0034
1999.50,0.0034
1999.25,0.0037
1999.00,0.0041
1998.75,0.0046
1998.50,0.0048
1998.25,0.0047
1998.00,0.0045
1997.75,0.0041
1997.50,0.0039
1997.25,0.0038
1997.00,0.0039
1996.75,0.0041
1996.50,0.0041
1996.25,0.0040
1996.00,0.0037
1995.75,0.0034
1995.50,0.0032
1995.25,0.0034
1995.00,0.0038
1994.75,0.0043
1994.50,0.0046
1994.25,0.0045
1994.00,0.0041
1993.75,0.0035
1993.50,0.0030
1993.25,0.0031
1993.00,0.0036
1992.75,0.0043
1992.50,0.0050
1992.25,0.0053
1992.00,0.0053
1991.75,0.0050
1991.50,0.0048
1991.25,0.0048
1991.00,0.0051
1990.75,0.0054
1990.50,0.0056
1990.25,0.0054
1990.00,0.0051
1989.75,0.0047
1989.50,0.0046
1989.25,0.0047
1989.00,0.0049
1988.75,0.0050
1988.50,0.0049
1988.25,0.0046
1988.00,0.0041
1987.75,0.0036
1987.50,0.0033
1987.25,0.0034
1987.00,0.0038
1986.75,0.0044
1986.50,0.0050
1986.25,0.0055
1986.00,0.0057
1985.75,0.0059
1985.50,0.0059
1985.25,0.0057
1985.00,0.0054
1984.75,0.0049
1984.50,0.0043
1984.25,0.0035
1984.00,0.0029
1983.75,0.0025
1983.50,0.0025
1983.25,0.0027
1983.00,0.0031
1982.75,0.0035
1982.50,0.0040
1982.25,0.0045
1982.00,0.0049
1981.75,0.0049
1981.50,0.0046
1981.25,0.0042
1981.00,0.0039
1980.75,0.0039
1980.50,0.0041
1980.25,0.0043
1980.00,0.0045
1979.75,0.0049
1979.50,0.0054
1979.25,0.0059
1979.00,0.0061
1978.75,0.0059
1978.50,0.0054
1978.25,0.0047
1978.00,0.0041
1977.75,0.0038
1977.50,0.0037
1977.25,0.0040
1977.00,0.0046
1976.75,0.0053
1976.50,0.0059
1976.25,0.0061
1976.00,0.0059
1975.75,0.0052
1975.50,0.0046
1975.25,0.0042
1975.00,0.0041
1974.75,0.0044
1974.50,0.0047
1974.25,0.0048
1974.00,0.0046
1973.75,0.0042
1973.50,0.0039
1973.25,0.0038
1973.00,0.0041
1972.75,0.0044
1972.50,0.0046
1972.25,0.0045
1972.00,0.0041
1971.75,0.0037
1971.50,0.0036
1971.25,0.0038
1971.00,0.0041
1970.75,0.0043
1970.50,0.0044
1970.25,0.0047
1970.00,0.0050
1969.75,0.0052
1969.50,0.0049
1969.25,0.0042
1969.00,0.0033
1968.75,0.0027
1968.50,0.0028
1968.25,0.0034
1968.00,0.0041
1967.75,0.0046
1967.50,0.0046
1967.25,0.0045
1967.00,0.0045
1966.75,0.0047
1966.50,0.0050
1966.25,0.0051
1966.00,0.0050
1965.75,0.0046
1965.50,0.0042
1965.25,0.0040
1965.00,0.0039
1964.75,0.0039
1964.50,0.0041
1964.25,0.0044
1964.00,0.0047
1963.75,0.0050
1963.50,0.0052
1963.25,0.0051
1963.00,0.0048
1962.75,0.0047
1962.50,0.0047
1962.25,0.0049
1962.00,0.0052
1961.75,0.0052
1961.50,0.0049
1961.25,0.0046
1961.00,0.0045
1960.75,0.0047
1960.50,0.0051
1960.25,0.0057
1960.00,0.0062
1959.75,0.0063
1959.50,0.0061
1959.25,0.0056
1959.00,0.0053
1958.75,0.0053
1958.50,0.0055
1958.25,0.0055
1958.00,0.0051
1957.75,0.0046
1957.50,0.0042
1957.25,0.0041
1957.00,0.0045
1956.75,0.0049
1956.50,0.0052
1956.25,0.0054
1956.00,0.0056
1955.75,0.0057
1955.50,0.0058
1955.25,0.0057
1955.00,0.0055
1954.75,0.0052
1954.50,0.0050
1954.25,0.0050
1954.00,0.0050
1953.75,0.0052
1953.50,0.0054
1953.25,0.0056
1953.00,0.0057
1952.75,0.0059
1952.50,0.0059
1952.25,0.0058
1952.00,0.0055
1951.75,0.0053
1951.50,0.0051
1951.25,0.0052
1951.00,0.0054
1950.75,0.0056
1950.50,0.0055
1950.25,0.0052
1950.00,0.0049
1949.75,0.0047
1949.50,0.0046
1949.25,0.0047
1949.00,0.0048
1948.75,0.0049
1948.50,0.0050
1948.25,0.0050
1948.00,0.0050
1947.75,0.0049
1947.50,0.0049
1947.25,0.0050
1947.00,0.0053
1946.75,0.0057
1946.50,0.0061
1946.25,0.0065
1946.00,0.0068
1945.75,0.0069
1945.50,0.0068
1945.25,0.0066
1945.00,0.0064
1944.75,0.0063
1944.50,0.0062
1944.25,0.0061
1944.00,0.0059
1943.75,0.0057
1943.50,0.0055
1943.25,0.0054
1943.00,0.0054
1942.75,0.0053
1942.50,0.0053
1942.25,0.0054
1942.00,0.0054
1941.75,0.0055
1941.50,0.0055
1941.25,0.0055
1941.00,0.0053
1940.75,0.0053
1940.50,0.0055
1940.25,0.0057
1940.00,0.0059
1939.75,0.0058
1939.50,0.0056
1939.25,0.0054
1939.00,0.0053
1938.75,0.0055
1938.50,0.0058
1938.25,0.0061
1938.00,0.0062
1937.75,0.0062
1937.50,0.0059
1937.25,0.0055
1937.00,0.0051
1936.75,0.0048
1936.50,0.0046
1936.25,0.0044
1936.00,0.0044
1935.75,0.0046
1935.50,0.0048
1935.25,0.0052
1935.00,0.0055
1934.75,0.0057
1934.50,0.0059
1934.25,0.0060
1934.00,0.0061
1933.75,0.0060
1933.50,0.0058
1933.25,0.0056
1933.00,0.0054
1932.75,0.0054
1932.50,0.0054
1932.25,0.0054
1932.00,0.0054
1931.75,0.0052
1931.50,0.0052
1931.25,0.0052
1931.00,0.0054
1930.75,0.0055
1930.50,0.0055
1930.25,0.0052
1930.00,0.0048
1929.75,0.0046
1929.50,0.0049
1929.25,0.0054
1929.00,0.0062
1928.75,0.0066
1928.50,0.0067
1928.25,0.0065
1928.00,0.0061
1927.75,0.0059
1927.50,0.0059
1927.25,0.0059
1927.00,0.0058
1926.75,0.0057
1926.50,0.0056
1926.25,0.0055
1926.00,0.0054
1925.75,0.0054
1925.50,0.0054
1925.25,0.0055
1925.00,0.0056
1924.75,0.0059
1924.50,0.0062
1924.25,0.0065
1924.00,0.0067
1923.75,0.0068
1923.50,0.0068
1923.25,0.0065
1923.00,0.0061
1922.75,0.0057
1922.50,0.0052
1922.25,0.0050
1922.00,0.0049
1921.75,0.0050
1921.50,0.0051
1921.25,0.0052
1921.00,0.0052
1920.75,0.0050
1920.50,0.0047
1920.25,0.0045
1920.00,0.0045
1919.75,0.0047
1919.50,0.0051
1919.25,0.0055
1919.00,0.0056
1918.75,0.0056
1918.50,0.0054
1918.25,0.0053
1918.00,0.0053
1917.75,0.0054
1917.50,0.0055
1917.25,0.0056
1917.00,0.0057
1916.75,0.0058
1916.50,0.0059
1916.25,0.0059
1916.00,0.0058
1915.75,0.0059
1915.50,0.0059
1915.25,0.0060
1915.00,0.0060
1914.75,0.0060
1914.50,0.0058
1914.25,0.0056
1914.00,0.0056
1913.75,0.0057
1913.50,0.0060
1913.25,0.0063
1913.00,0.0065
1912.75,0.0065
1912.50,0.0063
1912.25,0.0061
1912.00,0.0059
1911.75,0.0058
1911.50,0.0058
1911.25,0.0058
1911.00,0.0059
1910.75,0.0061
1910.50,0.0062
1910.25,0.0063
1910.00,0.0061
1909.75,0.0057
1909.50,0.0054
1909.25,0.0052
1909.00,0.0052
1908.75,0.0053
1908.50,0.0055
1908.25,0.0056
1908.00,0.0057
1907.75,0.0058
1907.50,0.0060
1907.25,0.0062
1907.00,0.0064
1906.75,0.0064
1906.50,0.0063
1906.25,0.0060
1906.00,0.0057
1905.75,0.0055
1905.50,0.0054
1905.25,0.0055
1905.00,0.0056
1904.75,0.0057
1904.50,0.0058
1904.25,0.0059
1904.00,0.0060
1903.75,0.0060
1903.50,0.0061
1903.25,0.0062
1903.00,0.0063
1902.75,0.0064
1902.50,0.0063
1902.25,0.0061
1902.00,0.0058
1901.75,0.0055
1901.50,0.0053
1901.25,0.0051
1901.00,0.0051
1900.75,0.0052
1900.50,0.0054
1900.25,0.0056
1900.00,0.0058
1899.75,0.0060
1899.50,0.0061
1899.25,0.0060
1899.00,0.0059
1898.75,0.0059
1898.50,0.0059
1898.25,0.0059
1898.00,0.0059
1897.75,0.0058
1897.50,0.0057
1897.25,0.0056
1897.00,0.0055
1896.75,0.0056
1896.50,0.0056
1896.25,0.0058
1896.00,0.0058
1895.75,0.0058
1895.50,0.0057
1895.25,0.0056
1895.00,0.0055
1894.75,0.0054
1894.50,0.0054
1894.25,0.0056
1894.00,0.0059
1893.75,0.0062
1893.50,0.0064
1893.25,0.0065
1893.00,0.0064
1892.75,0.0063
1892.50,0.0063
1892.25,0.0064
1892.00,0.0065
1891.75,0.0064
1891.50,0.0063
1891.25,0.0060
1891.00,0.0057
1890.75,0.0055
1890.50,0.0055
1890.25,0.0057
1890.00,0.0058
1889.75,0.0058
1889.50,0.0056
1889.25,0.0054
1889.00,0.0053
1888.75,0.0055
1888.50,0.0058
1888.25,0.0060
1888.00,0.0061
1887.75,0.0060
1887.50,0.0058
1887.25,0.0056
1887.00,0.0055
1886.75,0.0056
1886.50,0.0060
1886.25,0.0064
1886.00,0.0066
1885.75,0.0065
1885.50,0.0062
1885.25,0.0059
1885.00,0.0057
1884.75,0.0056
1884.50,0.0054
1884.25,0.0052
1884.00,0.0050
1883.75,0.0050
1883.50,0.0052
1883.25,0.0054
1883.00,0.0056
1882.75,0.0058
1882.50,0.0059
1882.25,0.0060
1882.00,0.0061
1881.75,0.0061
1881.50,0.0061
1881.25,0.0061
1881.00,0.0060
1880.75,0.0060
1880.50,0.0059
1880.25,0.0059
1880.00,0.0059
1879.75,0.0059
1879.50,0.0060
1879.25,0.0060
1879.00,0.0059
1878.75,0.0057
1878.50,0.0055
1878.25,0.0055
1878.00,0.0055
1877.75,0.0057
1877.50,0.0058
1877.25,0.0058
1877.00,0.0056
1876.75,0.0055
1876.50,0.0054
1876.25,0.0054
1876.00,0.0055
1875.75,0.0055
1875.50,0.0054
1875.25,0.0054
1875.00,0.0055
1874.75,0.0056
1874.50,0.0057
1874.25,0.0057
1874.00,0.0056
1873.75,0.0055
1873.50,0.0054
1873.25,0.0054
1873.00,0.0055
1872.75,0.0056
1872.50,0.0056
1872.25,0.0056
1872.00,0.0055
1871.75,0.0052
1871.50,0.0051
1871.25,0.0052
1871.00,0.0054
1870.75,0.0058
1870.50,0.0061
1870.25,0.0063
1870.00,0.0063
1869.75,0.0062
1869.50,0.0060
1869.25,0.0058
1869.00,0.0057
1868.75,0.0058
1868.50,0.0058
1868.25,0.0057
1868.00,0.0057
1867.75,0.0057
1867.50,0.0058
1867.25,0.0059
1867.00,0.0060
1866.75,0.0061
1866.50,0.0061
1866.25,0.0060
1866.00,0.0058
1865.75,0.0057
1865.50,0.0057
1865.25,0.0058
1865.00,0.0060
1864.75,0.0062
1864.50,0.0063
1864.25,0.0063
1864.00,0.0063
1863.75,0.0062
1863.50,0.0062
1863.25,0.0063
1863.00,0.0064
1862.75,0.0064
1862.50,0.0063
1862.25,0.0062
1862.00,0.0061
1861.75,0.0060
1861.50,0.0060
1861.25,0.0060
1861.00,0.0060
1860.75,0.0061
1860.50,0.0062
1860.25,0.0063
1860.00,0.0064
1859.75,0.0066
1859.50,0.0067
1859.25,0.0068
1859.00,0.0069
1858.75,0.0068
1858.50,0.0067
1858.25,0.0064
1858.00,0.0061
1857.75,0.0059
1857.50,0.0058
1857.25,0.0058
1857.00,0.0059
1856.75,0.0060
1856.50,0.0060
1856.25,0.0061
1856.00,0.0061
1855.75,0.0060
1855.50,0.0059
1855.25,0.0058
1855.00,0.0057
1854.75,0.0056
1854.50,0.0057
1854.25,0.0058
1854.00,0.0059
1853.75,0.0060
1853.50,0.0059
1853.25,0.0058
1853.00,0.0057
1852.75,0.0057
1852.50,0.0057
1852.25,0.0057
1852.00,0.0057
1851.75,0.0057
1851.50,0.0059
1851.25,0.0061
1851.00,0.0064
1850.75,0.0066
1850.50,0.0066
1850.25,0.0064
1850.00,0.0063
1849.75,0.0062
1849.50,0.0062
1849.25,0.0063
1849.00,0.0064
1848.75,0.0064
1848.50,0.0064
1848.25,0.0063
1848.00,0.0062
1847.75,0.0061
1847.50,0.0058
1847.25,0.0056
1847.00,0.0053
1846.75,0.0053
1846.50,0.0054
1846.25,0.0056
1846.00,0.0059
1845.75,0.0060
1845.50,0.0059
1845.25,0.0057
1845.00,0.0056
1844.75,0.0055
1844.50,0.0058
1844.25,0.0065
1844.00,0.0072
1843.75,0.0074
1843.50,0.0072
1843.25,0.0068
1843.00,0.0065
1842.75,0.0062
1842.50,0.0061
1842.25,0.0061
1842.00,0.0061
1841.75,0.0062
1841.50,0.0063
1841.25,0.0064
1841.00,0.0065
1840.75,0.0066
1840.50,0.0065
1840.25,0.0064
1840.00,0.0063
1839.75,0.0061
1839.50,0.0060
1839.25,0.0060
1839.00,0.0060
1838.75,0.0060
1838.50,0.0061
1838.25,0.0063
1838.00,0.0064
1837.75,0.0063
1837.50,0.0062
1837.25,0.0060
1837.00,0.0059
1836.75,0.0059
1836.50,0.0060
1836.25,0.0060
1836.00,0.0061
1835.75,0.0063
1835.50,0.0064
1835.25,0.0065
1835.00,0.0065
1834.75,0.0063
1834.50,0.0061
1834.25,0.0058
1834.00,0.0056
1833.75,0.0056
1833.50,0.0057
1833.25,0.0059
1833.00,0.0062
1832.75,0.0063
1832.50,0.0064
1832.25,0.0065
1832.00,0.0064
1831.75,0.0064
1831.50,0.0063
1831.25,0.0063
1831.00,0.0062
1830.75,0.0062
1830.50,0.0060
1830.25,0.0060
1830.00,0.0062
1829.75,0.0066
1829.50,0.0070
1829.25,0.0071
1829.00,0.0069
1828.75,0.0067
1828.50,0.0064
1828.25,0.0063
1828.00,0.0062
1827.75,0.0062
1827.50,0.0062
1827.25,0.0063
1827.00,0.0064
1826.75,0.0065
1826.50,0.0065
1826.25,0.0064
1826.00,0.0062
1825.75,0.0059
1825.50,0.0057
1825.25,0.0055
1825.00,0.0055
1824.75,0.0056
1824.50,0.0058
1824.25,0.0059
1824.00,0.0061
1823.75,0.0062
1823.50,0.0064
1823.25,0.0065
1823.00,0.0066
1822.75,0.0067
1822.50,0.0068
1822.25,0.0068
1822.00,0.0067
1821.75,0.0065
1821.50,0.0064
1821.25,0.0065
1821.00,0.0066
1820.75,0.0068
1820.50,0.0069
1820.25,0.0069
1820.00,0.0067
1819.75,0.0065
1819.50,0.0063
1819.25,0.0062
1819.00,0.0062
1818.75,0.0063
1818.50,0.0063
1818.25,0.0062
1818.00,0.0061
1817.75,0.0059
1817.50,0.0058
1817.25,0.0059
1817.00,0.0061
1816.75,0.0064
1816.50,0.0066
1816.25,0.0067
1816.00,0.0066
1815.75,0.0065
1815.50,0.0065
1815.25,0.0065
1815.00,0.0065
1814.75,0.0065
1814.50,0.0065
1814.25,0.0064
1814.00,0.0064
1813.75,0.0063
1813.50,0.0063
1813.25,0.0064
1813.00,0.0064
1812.75,0.0064
1812.50,0.0064
1812.25,0.0064
1812.00,0.0065
1811.75,0.0065
1811.50,0.0066
1811.25,0.0066
1811.00,0.0066
1810.75,0.0067
1810.50,0.0067
1810.25,0.0066
1810.00,0.0066
1809.75,0.0065
1809.50,0.0065
1809.25,0.0066
1809.00,0.0067
1808.75,0.0067
1808.50,0.0066
1808.25,0.0064
1808.00,0.0063
1807.75,0.0063
1807.50,0.0063
1807.25,0.0064
1807.00,0.0064
1806.75,0.0065
1806.50,0.0065
1806.25,0.0066
1806.00,0.0067
1805.75,0.0067
1805.50,0.0066
1805.25,0.0066
1805.00,0.0065
1804.75,0.0065
1804.50,0.0065
1804.25,0.0066
1804.00,0.0066
1803.75,0.0067
1803.50,0.0067
1803.25,0.0065
1803.00,0.0064
1802.75,0.0063
1802.50,0.0063
1802.25,0.0065
1802.00,0.0066
1801.75,0.0067
1801.50,0.0066
1801.25,0.0066
1801.00,0.0066
1800.75,0.0066
1800.50,0.0066
1800.25,0.0065
1800.00,0.0065
1799.75,0.0065
1799.50,0.0066
1799.25,0.0066
1799.00,0.0066
1798.75,0.0065
1798.50,0.0064
1798.25,0.0064
1798.00,0.0064
1797.75,0.0064
1797.50,0.0065
1797.25,0.0065
1797.00,0.0065
1796.75,0.0065
1796.50,0.0065
1796.25,0.0066
1796.00,0.0067
1795.75,0.0068
1795.50,0.0069
1795.25,0.0069
1795.00,0.0068
1794.75,0.0067
1794.50,0.0066
1794.25,0.0064
1794.00,0.0063
1793.75,0.0061
1793.50,0.0059
1793.25,0.0058
1793.00,0.0058
1792.75,0.0059
1792.50,0.0063
1792.25,0.0066
1792.00,0.0068
1791.75,0.0069
1791.50,0.0069
1791.25,0.0068
1791.00,0.0066
1790.75,0.0066
1790.50,0.0066
1790.25,0.0068
1790.00,0.0069
1789.75,0.0070
1789.50,0.0071
1789.25,0.0072
1789.00,0.0072
1788.75,0.0071
1788.50,0.0070
1788.25,0.0069
1788.00,0.0068
1787.75,0.0068
1787.50,0.0067
1787.25,0.0067
1787.00,0.0067
1786.75,0.0068
1786.50,0.0069
1786.25,0.0070
1786.00,0.0070
1785.75,0.0070
1785.50,0.0070
1785.25,0.0070
1785.00,0.0069
1784.75,0.0067
1784.50,0.0065
1784.25,0.0066
1784.00,0.0067
1783.75,0.0070
1783.50,0.0072
1783.25,0.0073
1783.00,0.0073
1782.75,0.0072
1782.50,0.0072
1782.25,0.0072
1782.00,0.0072
1781.75,0.0071
1781.50,0.0070
1781.25,0.0069
1781.00,0.0069
1780.75,0.0071
1780.50,0.0073
1780.25,0.0073
1780.00,0.0071
1779.75,0.0070
1779.50,0.0068
1779.25,0.0068
1779.00,0.0068
1778.75,0.0068
1778.50,0.0069
1778.25,0.0070
1778.00,0.0071
1777.75,0.0072
1777.50,0.0073
1777.25,0.0072
1777.00,0.0072
1776.75,0.0071
1776.50,0.0071
1776.25,0.0070
1776.00,0.0070
1775.75,0.0070
1775.50,0.0070
1775.25,0.0069
1775.00,0.0068
1774.75,0.0068
1774.50,0.0068
1774.25,0.0069
1774.00,0.0069
1773.75,0.0069
1773.50,0.0067
1773.25,0.0064
1773.00,0.0061
1772.75,0.0059
1772.50,0.0061
1772.25,0.0065
1772.00,0.0069
1771.75,0.0070
1771.50,0.0071
1771.25,0.0072
1771.00,0.0072
1770.75,0.0072
1770.50,0.0072
1770.25,0.0072
1770.00,0.0072
1769.75,0.0071
1769.50,0.0070
1769.25,0.0070
1769.00,0.0069
1768.75,0.0068
1768.50,0.0068
1768.25,0.0068
1768.00,0.0069
1767.75,0.0070
1767.50,0.0070
1767.25,0.0070
1767.00,0.0070
1766.75,0.0070
1766.50,0.0070
1766.25,0.0070
1766.00,0.0070
1765.75,0.0070
1765.50,0.0070
1765.25,0.0070
1765.00,0.0071
1764.75,0.0072
1764.50,0.0072
1764.25,0.0072
1764.00,0.0072
1763.75,0.0071
1763.50,0.0070
1763.25,0.0070
1763.00,0.0070
1762.75,0.0070
1762.50,0.0069
1762.25,0.0067
1762.00,0.0065
1761.75,0.0065
1761.50,0.0067
1761.25,0.0069
1761.00,0.0070
1760.75,0.0070
1760.50,0.0069
1760.25,0.0069
1760.00,0.0069
1759.75,0.0070
1759.50,0.0070
1759.25,0.0070
1759.00,0.0070
1758.75,0.0070
1758.50,0.0071
1758.25,0.0072
1758.00,0.0072
1757.75,0.0072
1757.50,0.0073
1757.25,0.0075
1757.00,0.0077
1756.75,0.0078
1756.50,0.0077
1756.25,0.0075
1756.00,0.0073
1755.75,0.0071
1755.50,0.0071
1755.25,0.0071
1755.00,0.0072
1754.75,0.0073
1754.50,0.0073
1754.25,0.0072
1754.00,0.0071
1753.75,0.0071
1753.50,0.0071
1753.25,0.0071
1753.00,0.0070
1752.75,0.0070
1752.50,0.0070
1752.25,0.0070
1752.00,0.0071
1751.75,0.0071
1751.50,0.0071
1751.25,0.0072
1751.00,0.0073
1750.75,0.0073
1750.50,0.0074
1750.25,0.0074
1750.00,0.0074
1749.75,0.0074
1749.50,0.0075
1749.25,0.0076
1749.00,0.0077
1748.75,0.0078
1748.50,0.0078
1748.25,0.0079
1748.00,0.0079
1747.75,0.0080
1747.50,0.0082
1747.25,0.0084
1747.00,0.0085
1746.75,0.0084
1746.50,0.0082
1746.25,0.0081
1746.00,0.0081
1745.75,0.0081
1745.50,0.0081
1745.25,0.0082
1745.00,0.0084
1744.75,0.0085
1744.50,0.0086
1744.25,0.0086
1744.00,0.0087
1743.75,0.0087
1743.50,0.0087
1743.25,0.0085
1743.00,0.0083
1742.75,0.0081
1742.50,0.0081
1742.25,0.0082
1742.00,0.0084
1741.75,0.0086
1741.50,0.0087
1741.25,0.0087
1741.00,0.0086
1740.75,0.0085
1740.50,0.0084
1740.25,0.0083
1740.00,0.0081
1739.75,0.0079
1739.50,0.0077
1739.25,0.0076
1739.00,0.0076
1738.75,0.0076
1738.50,0.0077
1738.25,0.0078
1738.00,0.0079
1737.75,0.0080
1737.50,0.0079
1737.25,0.0079
1737.00,0.0078
1736.75,0.0078
1736.50,0.0078
1736.25,0.0079
1736.00,0.0080
1735.75,0.0080
1735.50,0.0080
1735.25,0.0078
1735.00,0.0076
1734.75,0.0075
1734.50,0.0078
1734.25,0.0084
1734.00,0.0086
1733.75,0.0084
1733.50,0.0080
1733.25,0.0077
1733.00,0.0075
1732.75,0.0074
1732.50,0.0074
1732.25,0.0074
1732.00,0.0074
1731.75,0.0076
1731.50,0.0078
1731.25,0.0081
1731.00,0.0083
1730.75,0.0085
1730.50,0.0086
1730.25,0.0087
1730.00,0.0086
1729.75,0.0084
1729.50,0.0082
1729.25,0.0081
1729.00,0.0080
1728.75,0.0081
1728.50,0.0081
1728.25,0.0082
1728.00,0.0082
1727.75,0.0082
1727.50,0.0082
1727.25,0.0082
1727.00,0.0082
1726.75,0.0082
1726.50,0.0082
1726.25,0.0082
1726.00,0.0081
1725.75,0.0080
1725.50,0.0080
1725.25,0.0081
1725.00,0.0081
1724.75,0.0081
1724.50,0.0080
1724.25,0.0080
1724.00,0.0081
1723.75,0.0081
1723.50,0.0081
1723.25,0.0082
1723.00,0.0082
1722.75,0.0083
1722.50,0.0083
1722.25,0.0084
1722.00,0.0084
1721.75,0.0084
1721.50,0.0083
1721.25,0.0082
1721.00,0.0081
1720.75,0.0080
1720.50,0.0080
1720.25,0.0081
1720.00,0.0082
1719.75,0.0084
1719.50,0.0086
1719.25,0.0088
1719.00,0.0090
1718.75,0.0091
1718.50,0.0092
1718.25,0.0089
1718.00,0.0084
1717.75,0.0077
1717.50,0.0070
1717.25,0.0067
1717.00,0.0070
1716.75,0.0075
1716.50,0.0078
1716.25,0.0079
1716.00,0.0081
1715.75,0.0082
1715.50,0.0084
1715.25,0.0085
1715.00,0.0083
1714.75,0.0080
1714.50,0.0078
1714.25,0.0078
1714.00,0.0079
1713.75,0.0081
1713.50,0.0082
1713.25,0.0082
1713.00,0.0081
1712.75,0.0080
1712.50,0.0079
1712.25,0.0078
1712.00,0.0078
1711.75,0.0078
1711.50,0.0079
1711.25,0.0081
1711.00,0.0082
1710.75,0.0082
1710.50,0.0082
1710.25,0.0081
1710.00,0.0079
1709.75,0.0078
1709.50,0.0078
1709.25,0.0078
1709.00,0.0079
1708.75,0.0079
1708.50,0.0080
1708.25,0.0079
1708.00,0.0079
1707.75,0.0078
1707.50,0.0078
1707.25,0.0077
1707.00,0.0076
1706.75,0.0075
1706.50,0.0075
1706.25,0.0075
1706.00,0.0077
1705.75,0.0079
1705.50,0.0080
1705.25,0.0081
1705.00,0.0080
1704.75,0.0079
1704.50,0.0077
1704.25,0.0076
1704.00,0.0075
1703.75,0.0076
1703.50,0.0077
1703.25,0.0078
1703.00,0.0079
1702.75,0.0078
1702.50,0.0078
1702.25,0.0076
1702.00,0.0075
1701.75,0.0075
1701.50,0.0076
1701.25,0.0078
1701.00,0.0082
1700.75,0.0086
1700.50,0.0088
1700.25,0.0084
1700.00,0.0075
1699.75,0.0079
1699.50,0.0082
1699.25,0.0082
1699.00,0.0081
1698.75,0.0079
1698.50,0.0078
1698.25,0.0076
1698.00,0.0074
1697.75,0.0073
1697.50,0.0072
1697.25,0.0073
1697.00,0.0073
1696.75,0.0073
1696.50,0.0071
1696.25,0.0068
1696.00,0.0066
1695.75,0.0067
1695.50,0.0071
1695.25,0.0076
1695.00,0.0078
1694.75,0.0078
1694.50,0.0077
1694.25,0.0076
1694.00,0.0076
1693.75,0.0075
1693.50,0.0075
1693.25,0.0076
1693.00,0.0077
1692.75,0.0079
1692.50,0.0081
1692.25,0.0082
1692.00,0.0084
1691.75,0.0084
1691.50,0.0083
1691.25,0.0081
1691.00,0.0079
1690.75,0.0077
1690.50,0.0076
1690.25,0.0075
1690.00,0.0075
1689.75,0.0075
1689.50,0.0076
1689.25,0.0077
1689.00,0.0078
1688.75,0.0080
1688.50,0.0081
1688.25,0.0082
1688.00,0.0081
1687.75,0.0080
1687.50,0.0079
1687.25,0.0078
1687.00,0.0077
1686.75,0.0075
1686.50,0.0074
1686.25,0.0073
1686.00,0.0073
1685.75,0.0073
1685.50,0.0074
1685.25,0.0075
1685.00,0.0078
1684.75,0.0082
1684.50,0.0083
1684.25,0.0079
1684.00,0.0076
1683.75,0.0075
1683.50,0.0076
1683.25,0.0076
1683.00,0.0076
1682.75,0.0076
1682.50,0.0076
1682.25,0.0076
1682.00,0.0077
1681.75,0.0078
1681.50,0.0079
1681.25,0.0080
1681.00,0.0081
1680.75,0.0081
1680.50,0.0081
1680.25,0.0081
1680.00,0.0081
1679.75,0.0081
1679.50,0.0080
1679.25,0.0079
1679.00,0.0078
1678.75,0.0077
1678.50,0.0077
1678.25,0.0077
1678.00,0.0077
1677.75,0.0078
1677.50,0.0080
1677.25,0.0081
1677.00,0.0081
1676.75,0.0080
1676.50,0.0078
1676.25,0.0076
1676.00,0.0074
1675.75,0.0073
1675.50,0.0073
1675.25,0.0074
1675.00,0.0076
1674.75,0.0077
1674.50,0.0078
1674.25,0.0078
1674.00,0.0078
1673.75,0.0078
1673.50,0.0078
1673.25,0.0078
1673.00,0.0078
1672.75,0.0078
1672.50,0.0079
1672.25,0.0080
1672.00,0.0081
1671.75,0.0081
1671.50,0.0081
1671.25,0.0081
1671.00,0.0081
1670.75,0.0080
1670.50,0.0079
1670.25,0.0078
1670.00,0.0077
1669.75,0.0076
1669.50,0.0075
1669.25,0.0076
1669.00,0.0077
1668.75,0.0078
1668.50,0.0080
1668.25,0.0081
1668.00,0.0082
1667.75,0.0082
1667.50,0.0082
1667.25,0.0081
1667.00,0.0081
1666.75,0.0080
1666.50,0.0080
1666.25,0.0080
1666.00,0.0080
1665.75,0.0080
1665.50,0.0080
1665.25,0.0079
1665.00,0.0079
1664.75,0.0079
1664.50,0.0078
1664.25,0.0078
1664.00,0.0078
1663.75,0.0077
1663.50,0.0077
1663.25,0.0077
1663.00,0.0078
1662.75,0.0081
1662.50,0.0084
1662.25,0.0085
1662.00,0.0085
1661.75,0.0084
1661.50,0.0083
1661.25,0.0082
1661.00,0.0080
1660.75,0.0080
1660.50,0.0079
1660.25,0.0080
1660.00,0.0081
1659.75,0.0082
1659.50,0.0083
1659.25,0.0083
1659.00,0.0083
1658.75,0.0083
1658.50,0.0084
1658.25,0.0084
1658.00,0.0084
1657.75,0.0084
1657.50,0.0083
1657.25,0.0082
1657.00,0.0080
1656.75,0.0079
1656.50,0.0079
1656.25,0.0080
1656.00,0.0082
1655.75,0.0083
1655.50,0.0083
1655.25,0.0082
1655.00,0.0080
1654.75,0.0077
1654.50,0.0074
1654.25,0.0071
1654.00,0.0068
1653.75,0.0066
1653.50,0.0065
1653.25,0.0065
1653.00,0.0070
1652.75,0.0079
1652.50,0.0081
1652.25,0.0083
1652.00,0.0085
1651.75,0.0085
1651.50,0.0085
1651.25,0.0084
1651.00,0.0084
1650.75,0.0085
1650.50,0.0085
1650.25,0.0085
1650.00,0.0085
1649.75,0.0084
1649.50,0.0083
1649.25,0.0082
1649.00,0.0081
1648.75,0.0081
1648.50,0.0080
1648.25,0.0079
1648.00,0.0078
1647.75,0.0078
1647.50,0.0079
1647.25,0.0080
1647.00,0.0080
1646.75,0.0080
1646.50,0.0080
1646.25,0.0081
1646.00,0.0082
1645.75,0.0082
1645.50,0.0080
1645.25,0.0079
1645.00,0.0079
1644.75,0.0079
1644.50,0.0081
1644.25,0.0082
1644.00,0.0084
1643.75,0.0085
1643.50,0.0086
1643.25,0.0086
1643.00,0.0087
1642.75,0.0087
1642.50,0.0087
1642.25,0.0086
1642.00,0.0086
1641.75,0.0086
1641.50,0.0085
1641.25,0.0085
1641.00,0.0086
1640.75,0.0086
1640.50,0.0086
1640.25,0.0085
1640.00,0.0084
1639.75,0.0084
1639.50,0.0084
1639.25,0.0085
1639.00,0.0086
1638.75,0.0087
1638.50,0.0087
1638.25,0.0086
1638.00,0.0086
1637.75,0.0085
1637.50,0.0085
1637.25,0.0085
1637.00,0.0084
1636.75,0.0084
1636.50,0.0084
1636.25,0.0085
1636.00,0.0087
1635.75,0.0091
1635.50,0.0092
1635.25,0.0085
1635.00,0.0076
1634.75,0.0074
1634.50,0.0075
1634.25,0.0078
1634.00,0.0080
1633.75,0.0083
1633.50,0.0084
1633.25,0.0086
1633.00,0.0086
1632.75,0.0086
1632.50,0.0085
1632.25,0.0085
1632.00,0.0085
1631.75,0.0086
1631.50,0.0086
1631.25,0.0086
1631.00,0.0085
1630.75,0.0085
1630.50,0.0085
1630.25,0.0085
1630.00,0.0085
1629.75,0.0086
1629.50,0.0087
1629.25,0.0087
1629.00,0.0087
1628.75,0.0087
1628.50,0.0087
1628.25,0.0086
1628.00,0.0085
1627.75,0.0083
1627.50,0.0081
1627.25,0.0080
1627.00,0.0081
1626.75,0.0083
1626.50,0.0084
1626.25,0.0086
1626.00,0.0087
1625.75,0.0087
1625.50,0.0087
1625.25,0.0087
1625.00,0.0087
1624.75,0.0086
1624.50,0.0085
1624.25,0.0083
1624.00,0.0082
1623.75,0.0082
1623.50,0.0082
1623.25,0.0083
1623.00,0.0084
1622.75,0.0083
1622.50,0.0083
1622.25,0.0083
1622.00,0.0083
1621.75,0.0084
1621.50,0.0084
1621.25,0.0083
1621.00,0.0083
1620.75,0.0082
1620.50,0.0082
1620.25,0.0082
1620.00,0.0083
1619.75,0.0083
1619.50,0.0084
1619.25,0.0084
1619.00,0.0084
1618.75,0.0084
1618.50,0.0084
1618.25,0.0084
1618.00,0.0084
1617.75,0.0084
1617.50,0.0083
1617.25,0.0081
1617.00,0.0080
1616.75,0.0080
1616.50,0.0080
1616.25,0.0079
1616.00,0.0080
1615.75,0.0080
1615.50,0.0080
1615.25,0.0081
1615.00,0.0083
1614.75,0.0085
1614.50,0.0087
1614.25,0.0088
1614.00,0.0088
1613.75,0.0088
1613.50,0.0088
1613.25,0.0088
1613.00,0.0088
1612.75,0.0086
1612.50,0.0085
1612.25,0.0085
1612.00,0.0085
1611.75,0.0086
1611.50,0.0086
1611.25,0.0086
1611.00,0.0086
1610.75,0.0086
1610.50,0.0087
1610.25,0.0089
1610.00,0.0091
1609.75,0.0092
1609.50,0.0093
1609.25,0.0091
1609.00,0.0089
1608.75,0.0087
1608.50,0.0086
1608.25,0.0086
1608.00,0.0087
1607.75,0.0087
1607.50,0.0087
1607.25,0.0088
1607.00,0.0089
1606.75,0.0090
1606.50,0.0090
1606.25,0.0090
1606.00,0.0090
1605.75,0.0089
1605.50,0.0088
1605.25,0.0087
1605.00,0.0087
1604.75,0.0087
1604.50,0.0087
1604.25,0.0087
1604.00,0.0087
1603.75,0.0086
1603.50,0.0086
1603.25,0.0086
1603.00,0.0086
1602.75,0.0085
1602.50,0.0085
1602.25,0.0085
1602.00,0.0085
1601.75,0.0086
1601.50,0.0087
1601.25,0.0088
1601.00,0.0088
1600.75,0.0088
1600.50,0.0087
1600.25,0.0087
1600.00,0.0087
1599.75,0.0087
1599.50,0.0087
1599.25,0.0087
1599.00,0.0087
1598.75,0.0087
1598.50,0.0086
1598.25,0.0086
1598.00,0.0086
1597.75,0.0086
1597.50,0.0086
1597.25,0.0086
1597.00,0.0087
1596.75,0.0087
1596.50,0.0087
1596.25,0.0088
1596.00,0.0088
1595.75,0.0089
1595.50,0.0089
1595.25,0.0090
1595.00,0.0090
1594.75,0.0090
1594.50,0.0090
1594.25,0.0089
1594.00,0.0087
1593.75,0.0086
1593.50,0.0085
1593.25,0.0086
1593.00,0.0086
1592.75,0.0087
1592.50,0.0088
1592.25,0.0089
1592.00,0.0089
1591.75,0.0089
1591.50,0.0088
1591.25,0.0089
1591.00,0.0089
1590.75,0.0090
1590.50,0.0091
1590.25,0.0091
1590.00,0.0090
1589.75,0.0088
1589.50,0.0086
1589.25,0.0086
1589.00,0.0086
1588.75,0.0087
1588.50,0.0087
1588.25,0.0088
1588.00,0.0089
1587.75,0.0089
1587.50,0.0089
1587.25,0.0088
1587.00,0.0087
1586.75,0.0085
1586.50,0.0085
1586.25,0.0086
1586.00,0.0087
1585.75,0.0089
1585.50,0.0089
1585.25,0.0090
1585.00,0.0090
1584.75,0.0090
1584.50,0.0090
1584.25,0.0090
1584.00,0.0090
1583.75,0.0089
1583.50,0.0089
1583.25,0.0088
1583.00,0.0086
1582.75,0.0086
1582.50,0.0086
1582.25,0.0087
1582.00,0.0088
1581.75,0.0089
1581.50,0.0089
1581.25,0.0089
1581.00,0.0089
1580.75,0.0088
1580.50,0.0088
1580.25,0.0087
1580.00,0.0087
1579.75,0.0088
1579.50,0.0088
1579.25,0.0088
1579.00,0.0088
1578.75,0.0087
1578.50,0.0085
1578.25,0.0084
1578.00,0.0083
1577.75,0.0083
1577.50,0.0083
1577.25,0.0084
1577.00,0.0085
1576.75,0.0086
1576.50,0.0085
1576.25,0.0083
1576.00,0.0077
1575.75,0.0074
1575.50,0.0075
1575.25,0.0078
1575.00,0.0080
1574.75,0.0081
1574.50,0.0082
1574.25,0.0083
1574.00,0.0083
1573.75,0.0083
1573.50,0.0083
1573.25,0.0083
1573.00,0.0084
1572.75,0.0085
1572.50,0.0086
1572.25,0.0086
1572.00,0.0085
1571.75,0.0085
1571.50,0.0084
1571.25,0.0085
1571.00,0.0086
1570.75,0.0086
1570.50,0.0085
1570.25,0.0084
1570.00,0.0082
1569.75,0.0080
1569.50,0.0080
1569.25,0.0080
1569.00,0.0080
1568.75,0.0080
1568.50,0.0081
1568.25,0.0081
1568.00,0.0082
1567.75,0.0083
1567.50,0.0084
1567.25,0.0084
1567.00,0.0085
1566.75,0.0086
1566.50,0.0087
1566.25,0.0088
1566.00,0.0089
1565.75,0.0088
1565.50,0.0088
1565.25,0.0087
1565.00,0.0087
1564.75,0.0086
1564.50,0.0086
1564.25,0.0085
1564.00,0.0084
1563.75,0.0084
1563.50,0.0084
1563.25,0.0084
1563.00,0.0083
1562.75,0.0083
1562.50,0.0082
1562.25,0.0082
1562.00,0.0082
1561.75,0.0082
1561.50,0.0082
1561.25,0.0081
1561.00,0.0079
1560.75,0.0078
1560.50,0.0077
1560.25,0.0075
1560.00,0.0076
1559.75,0.0078
1559.50,0.0079
1559.25,0.0079
1559.00,0.0081
1558.75,0.0085
1558.50,0.0093
1558.25,0.0102
1558.00,0.0103
1557.75,0.0096
1557.50,0.0088
1557.25,0.0084
1557.00,0.0082
1556.75,0.0081
1556.50,0.0080
1556.25,0.0081
1556.00,0.0082
1555.75,0.0084
1555.50,0.0086
1555.25,0.0087
1555.00,0.0089
1554.75,0.0089
1554.50,0.0088
1554.25,0.0085
1554.00,0.0082
1553.75,0.0081
1553.50,0.0081
1553.25,0.0081
1553.00,0.0081
1552.75,0.0081
1552.50,0.0080
1552.25,0.0080
1552.00,0.0081
1551.75,0.0082
1551.50,0.0084
1551.25,0.0085
1551.00,0.0086
1550.75,0.0086
1550.50,0.0086
1550.25,0.0085
1550.00,0.0084
1549.75,0.0083
1549.50,0.0083
1549.25,0.0083
1549.00,0.0084
1548.75,0.0084
1548.50,0.0084
1548.25,0.0083
1548.00,0.0082
1547.75,0.0082
1547.50,0.0082
1547.25,0.0083
1547.00,0.0083
1546.75,0.0082
1546.50,0.0082
1546.25,0.0081
1546.00,0.0081
1545.75,0.0081
1545.50,0.0081
1545.25,0.0081
1545.00,0.0080
1544.75,0.0081
1544.50,0.0081
1544.25,0.0081
1544.00,0.0080
1543.75,0.0079
1543.50,0.0076
1543.25,0.0074
1543.00,0.0073
1542.75,0.0074
1542.50,0.0077
1542.25,0.0082
1542.00,0.0087
1541.75,0.0088
1541.50,0.0086
1541.25,0.0083
1541.00,0.0080
1540.75,0.0078
1540.50,0.0078
1540.25,0.0078
1540.00,0.0078
1539.75,0.0076
1539.50,0.0075
1539.25,0.0075
1539.00,0.0078
1538.75,0.0080
1538.50,0.0081
1538.25,0.0079
1538.00,0.0078
1537.75,0.0078
1537.50,0.0078
1537.25,0.0079
1537.00,0.0080
1536.75,0.0081
1536.50,0.0081
1536.25,0.0082
1536.00,0.0082
1535.75,0.0083
1535.50,0.0083
1535.25,0.0082
1535.00,0.0081
1534.75,0.0080
1534.50,0.0078
1534.25,0.0076
1534.00,0.0073
1533.75,0.0071
1533.50,0.0071
1533.25,0.0072
1533.00,0.0074
1532.75,0.0077
1532.50,0.0079
1532.25,0.0081
1532.00,0.0083
1531.75,0.0083
1531.50,0.0083
1531.25,0.0081
1531.00,0.0080
1530.75,0.0079
1530.50,0.0080
1530.25,0.0081
1530.00,0.0082
1529.75,0.0083
1529.50,0.0084
1529.25,0.0084
1529.00,0.0083
1528.75,0.0081
1528.50,0.0080
1528.25,0.0079
1528.00,0.0079
1527.75,0.0079
1527.50,0.0079
1527.25,0.0078
1527.00,0.0078
1526.75,0.0077
1526.50,0.0078
1526.25,0.0079
1526.00,0.0079
1525.75,0.0079
1525.50,0.0078
1525.25,0.0077
1525.00,0.0077
1524.75,0.0078
1524.50,0.0079
1524.25,0.0078
1524.00,0.0078
1523.75,0.0078
1523.50,0.0079
1523.25,0.0081
1523.00,0.0083
1522.75,0.0084
1522.50,0.0085
1522.25,0.0085
1522.00,0.0085
1521.75,0.0085
1521.50,0.0084
1521.25,0.0084
1521.00,0.0083
1520.75,0.0084
1520.50,0.0085
1520.25,0.0085
1520.00,0.0083
1519.75,0.0080
1519.50,0.0078
1519.25,0.0077
1519.00,0.0077
1518.75,0.0077
1518.50,0.0078
1518.25,0.0078
1518.00,0.0079
1517.75,0.0079
1517.50,0.0080
1517.25,0.0082
1517.00,0.0083
1516.75,0.0083
1516.50,0.0082
1516.25,0.0081
1516.00,0.0080
1515.75,0.0079
1515.50,0.0080
1515.25,0.0080
1515.00,0.0081
1514.75,0.0081
1514.50,0.0080
1514.25,0.0079
1514.00,0.0079
1513.75,0.0080
1513.50,0.0080
1513.25,0.0081
1513.00,0.0081
1512.75,0.0081
1512.50,0.0080
1512.25,0.0079
1512.00,0.0078
1511.75,0.0077
1511.50,0.0077
1511.25,0.0077
1511.00,0.0077
1510.75,0.0077
1510.50,0.0077
1510.25,0.0077
1510.00,0.0077
1509.75,0.0077
1509.50,0.0078
1509.25,0.0077
1509.00,0.0076
1508.75,0.0074
1508.50,0.0072
1508.25,0.0072
1508.00,0.0072
1507.75,0.0072
1507.50,0.0072
1507.25,0.0072
1507.00,0.0072
1506.75,0.0071
1506.50,0.0068
1506.25,0.0066
1506.00,0.0064
1505.75,0.0063
1505.50,0.0065
1505.25,0.0067
1505.00,0.0069
1504.75,0.0071
1504.50,0.0071
1504.25,0.0072
1504.00,0.0072
1503.75,0.0072
1503.50,0.0073
1503.25,0.0075
1503.00,0.0077
1502.75,0.0078
1502.50,0.0078
1502.25,0.0078
1502.00,0.0077
1501.75,0.0077
1501.50,0.0076
1501.25,0.0075
1501.00,0.0074
1500.75,0.0073
1500.50,0.0073
1500.25,0.0073
1500.00,0.0074
1499.75,0.0074
1499.50,0.0075
1499.25,0.0078
1499.00,0.0080
1498.75,0.0083
1498.50,0.0083
1498.25,0.0080
1498.00,0.0077
1497.75,0.0073
1497.50,0.0072
1497.25,0.0071
1497.00,0.0073
1496.75,0.0077
1496.50,0.0082
1496.25,0.0087
1496.00,0.0086
1495.75,0.0083
1495.50,0.0079
1495.25,0.0077
1495.00,0.0075
1494.75,0.0075
1494.50,0.0075
1494.25,0.0076
1494.00,0.0077
1493.75,0.0080
1493.50,0.0082
1493.25,0.0083
1493.00,0.0083
1492.75,0.0081
1492.50,0.0079
1492.25,0.0077
1492.00,0.0076
1491.75,0.0076
1491.50,0.0076
1491.25,0.0077
1491.00,0.0078
1490.75,0.0078
1490.50,0.0078
1490.25,0.0077
1490.00,0.0076
1489.75,0.0075
1489.50,0.0074
1489.25,0.0074
1489.00,0.0073
1488.75,0.0074
1488.50,0.0075
1488.25,0.0077
1488.00,0.0079
1487.75,0.0081
1487.50,0.0082
1487.25,0.0082
1487.00,0.0080
1486.75,0.0078
1486.50,0.0077
1486.25,0.0077
1486.00,0.0077
1485.75,0.0077
1485.50,0.0078
1485.25,0.0078
1485.00,0.0078
1484.75,0.0079
1484.50,0.0080
1484.25,0.0081
1484.00,0.0082
1483.75,0.0082
1483.50,0.0082
1483.25,0.0082
1483.00,0.0083
1482.75,0.0084
1482.50,0.0085
1482.25,0.0085
1482.00,0.0085
1481.75,0.0085
1481.50,0.0083
1481.25,0.0082
1481.00,0.0081
1480.75,0.0080
1480.50,0.0081
1480.25,0.0083
1480.00,0.0085
1479.75,0.0086
1479.50,0.0086
1479.25,0.0085
1479.00,0.0083
1478.75,0.0083
1478.50,0.0084
1478.25,0.0085
1478.00,0.0086
1477.75,0.0085
1477.50,0.0085
1477.25,0.0084
1477.00,0.0084
1476.75,0.0083
1476.50,0.0082
1476.25,0.0080
1476.00,0.0078
1475.75,0.0078
1475.50,0.0079
1475.25,0.0080
1475.00,0.0081
1474.75,0.0082
1474.50,0.0083
1474.25,0.0084
1474.00,0.0086
1473.75,0.0087
1473.50,0.0087
1473.25,0.0084
1473.00,0.0080
1472.75,0.0078
1472.50,0.0078
1472.25,0.0078
1472.00,0.0080
1471.75,0.0082
1471.50,0.0083
1471.25,0.0082
1471.00,0.0082
1470.75,0.0082
1470.50,0.0082
1470.25,0.0083
1470.00,0.0084
1469.75,0.0085
1469.50,0.0086
1469.25,0.0086
1469.00,0.0085
1468.75,0.0085
1468.50,0.0084
1468.25,0.0084
1468.00,0.0085
1467.75,0.0086
1467.50,0.0087
1467.25,0.0088
1467.00,0.0088
1466.75,0.0087
1466.50,0.0086
1466.25,0.0085
1466.00,0.0085
1465.75,0.0086
1465.50,0.0087
1465.25,0.0090
1465.00,0.0094
1464.75,0.0095
1464.50,0.0094
1464.25,0.0091
1464.00,0.0090
1463.75,0.0089
1463.50,0.0090
1463.25,0.0091
1463.00,0.0092
1462.75,0.0093
1462.50,0.0093
1462.25,0.0093
1462.00,0.0093
1461.75,0.0092
1461.50,0.0091
1461.25,0.0091
1461.00,0.0090
1460.75,0.0090
1460.50,0.0091
1460.25,0.0092
1460.00,0.0092
1459.75,0.0093
1459.50,0.0093
1459.25,0.0094
1459.00,0.0094
1458.75,0.0094
1458.50,0.0093
1458.25,0.0093
1458.00,0.0094
1457.75,0.0096
1457.50,0.0098
1457.25,0.0102
1457.00,0.0104
1456.75,0.0102
1456.50,0.0096
1456.25,0.0093
1456.00,0.0093
1455.75,0.0094
1455.50,0.0096
1455.25,0.0098
1455.00,0.0099
1454.75,0.0099
1454.50,0.0099
1454.25,0.0099
1454.00,0.0099
1453.75,0.0098
1453.50,0.0097
1453.25,0.0097
1453.00,0.0098
1452.75,0.0099
1452.50,0.0101
1452.25,0.0103
1452.00,0.0105
1451.75,0.0106
1451.50,0.0107
1451.25,0.0108
1451.00,0.0108
1450.75,0.0108
1450.50,0.0107
1450.25,0.0105
1450.00,0.0104
1449.75,0.0104
1449.50,0.0104
1449.25,0.0105
1449.00,0.0106
1448.75,0.0106
1448.50,0.0105
1448.25,0.0104
1448.00,0.0104
1447.75,0.0105
1447.50,0.0107
1447.25,0.0108
1447.00,0.0109
1446.75,0.0110
1446.50,0.0112
1446.25,0.0113
1446.00,0.0115
1445.75,0.0116
1445.50,0.0116
1445.25,0.0116
1445.00,0.0115
1444.75,0.0114
1444.50,0.0113
1444.25,0.0113
1444.00,0.0113
1443.75,0.0114
1443.50,0.0114
1443.25,0.0115
1443.00,0.0115
1442.75,0.0114
1442.50,0.0114
1442.25,0.0113
1442.00,0.0113
1441.75,0.0112
1441.50,0.0111
1441.25,0.0110
1441.00,0.0109
1440.75,0.0108
1440.50,0.0108
1440.25,0.0107
1440.00,0.0107
1439.75,0.0107
1439.50,0.0107
1439.25,0.0107
1439.00,0.0107
1438.75,0.0107
1438.50,0.0107
1438.25,0.0107
1438.00,0.0107
1437.75,0.0107
1437.50,0.0107
1437.25,0.0108
1437.00,0.0110
1436.75,0.0110
1436.50,0.0108
1436.25,0.0107
1436.00,0.0105
1435.75,0.0104
1435.50,0.0103
1435.25,0.0102
1435.00,0.0101
1434.75,0.0101
1434.50,0.0100
1434.25,0.0101
1434.00,0.0102
1433.75,0.0103
1433.50,0.0103
1433.25,0.0104
1433.00,0.0104
1432.75,0.0103
1432.50,0.0103
1432.25,0.0103
1432.00,0.0103
1431.75,0.0104
1431.50,0.0105
1431.25,0.0105
1431.00,0.0105
1430.75,0.0104
1430.50,0.0103
1430.25,0.0102
1430.00,0.0102
1429.75,0.0103
1429.50,0.0103
1429.25,0.0104
1429.00,0.0105
1428.75,0.0107
1428.50,0.0108
1428.25,0.0110
1428.00,0.0110
1427.75,0.0111
1427.50,0.0112
1427.25,0.0113
1427.00,0.0114
1426.75,0.0115
1426.50,0.0115
1426.25,0.0115
1426.00,0.0116
1425.75,0.0116
1425.50,0.0116
1425.25,0.0115
1425.00,0.0115
1424.75,0.0114
1424.50,0.0115
1424.25,0.0116
1424.00,0.0118
1423.75,0.0119
1423.50,0.0119
1423.25,0.0120
1423.00,0.0120
1422.75,0.0121
1422.50,0.0122
1422.25,0.0124
1422.00,0.0126
1421.75,0.0128
1421.50,0.0130
1421.25,0.0133
1421.00,0.0134
1420.75,0.0135
1420.50,0.0135
1420.25,0.0136
1420.00,0.0136
1419.75,0.0138
1419.50,0.0142
1419.25,0.0146
1419.00,0.0147
1418.75,0.0147
1418.50,0.0146
1418.25,0.0146
1418.00,0.0147
1417.75,0.0149
1417.50,0.0151
1417.25,0.0153
1417.00,0.0155
1416.75,0.0156
1416.50,0.0158
1416.25,0.0159
1416.00,0.0159
1415.75,0.0160
1415.50,0.0160
1415.25,0.0161
1415.00,0.0162
1414.75,0.0163
1414.50,0.0165
1414.25,0.0166
1414.00,0.0167
1413.75,0.0167
1413.50,0.0168
1413.25,0.0168
1413.00,0.0168
1412.75,0.0167
1412.50,0.0166
1412.25,0.0166
1412.00,0.0167
1411.75,0.0168
1411.50,0.0169
1411.25,0.0170
1411.00,0.0169
1410.75,0.0167
1410.50,0.0165
1410.25,0.0163
1410.00,0.0162
1409.75,0.0161
1409.50,0.0160
1409.25,0.0160
1409.00,0.0160
1408.75,0.0160
1408.50,0.0160
1408.25,0.0160
1408.00,0.0160
1407.75,0.0160
1407.50,0.0160
1407.25,0.0159
1407.00,0.0158
1406.75,0.0158
1406.50,0.0157
1406.25,0.0158
1406.00,0.0158
1405.75,0.0158
1405.50,0.0157
1405.25,0.0155
1405.00,0.0153
1404.75,0.0152
1404.50,0.0152
1404.25,0.0153
1404.00,0.0154
1403.75,0.0155
1403.50,0.0156
1403.25,0.0156
1403.00,0.0155
1402.75,0.0154
1402.50,0.0153
1402.25,0.0151
1402.00,0.0150
1401.75,0.0149
1401.50,0.0149
1401.25,0.0150
1401.00,0.0151
1400.75,0.0151
1400.50,0.0152
1400.25,0.0152
1400.00,0.0153
1399.75,0.0153
1399.50,0.0153
1399.25,0.0151
1399.00,0.0149
1398.75,0.0146
1398.50,0.0145
1398.25,0.0144
1398.00,0.0144
1397.75,0.0144
1397.50,0.0144
1397.25,0.0142
1397.00,0.0140
1396.75,0.0138
1396.50,0.0136
1396.25,0.0134
1396.00,0.0132
1395.75,0.0131
1395.50,0.0131
1395.25,0.0131
1395.00,0.0132
1394.75,0.0132
1394.50,0.0131
1394.25,0.0130
1394.00,0.0128
1393.75,0.0127
1393.50,0.0126
1393.25,0.0125
1393.00,0.0124
1392.75,0.0123
1392.50,0.0122
1392.25,0.0121
1392.00,0.0120
1391.75,0.0119
1391.50,0.0118
1391.25,0.0117
1391.00,0.0116
1390.75,0.0115
1390.50,0.0114
1390.25,0.0113
1390.00,0.0112
1389.75,0.0111
1389.50,0.0111
1389.25,0.0111
1389.00,0.0111
1388.75,0.0111
1388.50,0.0110
1388.25,0.0110
1388.00,0.0110
1387.75,0.0109
1387.50,0.0108
1387.25,0.0109
1387.00,0.0109
1386.75,0.0109
1386.50,0.0108
1386.25,0.0107
1386.00,0.0106
1385.75,0.0106
1385.50,0.0107
1385.25,0.0108
1385.00,0.0109
1384.75,0.0109
1384.50,0.0107
1384.25,0.0105
1384.00,0.0103
1383.75,0.0102
1383.50,0.0101
1383.25,0.0102
1383.00,0.0103
1382.75,0.0105
1382.50,0.0105
1382.25,0.0106
1382.00,0.0105
1381.75,0.0105
1381.50,0.0104
1381.25,0.0103
1381.00,0.0102
1380.75,0.0102
1380.50,0.0102
1380.25,0.0102
1380.00,0.0102
1379.75,0.0102
1379.50,0.0102
1379.25,0.0102
1379.00,0.0102
1378.75,0.0102
1378.50,0.0102
1378.25,0.0101
1378.00,0.0101
1377.75,0.0101
1377.50,0.0101
1377.25,0.0101
1377.00,0.0101
1376.75,0.0101
1376.50,0.0100
1376.25,0.0100
1376.00,0.0100
1375.75,0.0099
1375.50,0.0099
1375.25,0.0099
1375.00,0.0099
1374.75,0.0099
1374.50,0.0100
1374.25,0.0100
1374.00,0.0099
1373.75,0.0098
1373.50,0.0098
1373.25,0.0099
1373.00,0.0100
1372.75,0.0102
1372.50,0.0103
1372.25,0.0103
1372.00,0.0102
1371.75,0.0102
1371.50,0.0101
1371.25,0.0102
1371.00,0.0102
1370.75,0.0102
1370.50,0.0102
1370.25,0.0101
1370.00,0.0099
1369.75,0.0098
1369.50,0.0097
1369.25,0.0097
1369.00,0.0097
1368.75,0.0097
1368.50,0.0098
1368.25,0.0098
1368.00,0.0098
1367.75,0.0098
1367.50,0.0098
1367.25,0.0098
1367.00,0.0098
1366.75,0.0098
1366.50,0.0097
1366.25,0.0096
1366.00,0.0096
1365.75,0.0095
1365.50,0.0095
1365.25,0.0096
1365.00,0.0096
1364.75,0.0096
1364.50,0.0096
1364.25,0.0097
1364.00,0.0096
1363.75,0.0095
1363.50,0.0093
1363.25,0.0092
1363.00,0.0092
1362.75,0.0093
1362.50,0.0094
1362.25,0.0094
1362.00,0.0094
1361.75,0.0094
1361.50,0.0094
1361.25,0.0093
1361.00,0.0094
1360.75,0.0094
1360.50,0.0095
1360.25,0.0095
1360.00,0.0095
1359.75,0.0095
1359.50,0.0094
1359.25,0.0094
1359.00,0.0094
1358.75,0.0094
1358.50,0.0094
1358.25,0.0094
1358.00,0.0094
1357.75,0.0094
1357.50,0.0093
1357.25,0.0093
1357.00,0.0093
1356.75,0.0094
1356.50,0.0094
1356.25,0.0093
1356.00,0.0093
1355.75,0.0093
1355.50,0.0093
1355.25,0.0094
1355.00,0.0095
1354.75,0.0096
1354.50,0.0096
1354.25,0.0097
1354.00,0.0098
1353.75,0.0098
1353.50,0.0099
1353.25,0.0099
1353.00,0.0098
1352.75,0.0097
1352.50,0.0096
1352.25,0.0096
1352.00,0.0096
1351.75,0.0096
1351.50,0.0095
1351.25,0.0093
1351.00,0.0092
1350.75,0.0091
1350.50,0.0091
1350.25,0.0092
1350.00,0.0094
1349.75,0.0094
1349.50,0.0094
1349.25,0.0094
1349.00,0.0094
1348.75,0.0095
1348.50,0.0095
1348.25,0.0095
1348.00,0.0095
1347.75,0.0095
1347.50,0.0096
1347.25,0.0096
1347.00,0.0097
1346.75,0.0096
1346.50,0.0096
1346.25,0.0095
1346.00,0.0094
1345.75,0.0094
1345.50,0.0094
1345.25,0.0095
1345.00,0.0095
1344.75,0.0094
1344.50,0.0094
1344.25,0.0093
1344.00,0.0094
1343.75,0.0095
1343.50,0.0096
1343.25,0.0097
1343.00,0.0097
1342.75,0.0098
1342.50,0.0098
1342.25,0.0098
1342.00,0.0097
1341.75,0.0097
1341.50,0.0096
1341.25,0.0095
1341.00,0.0095
1340.75,0.0094
1340.50,0.0095
1340.25,0.0095
1340.00,0.0095
1339.75,0.0095
1339.50,0.0094
1339.25,0.0094
1339.00,0.0094
1338.75,0.0093
1338.50,0.0093
1338.25,0.0092
1338.00,0.0091
1337.75,0.0091
1337.50,0.0092
1337.25,0.0093
1337.00,0.0094
1336.75,0.0095
1336.50,0.0095
1336.25,0.0095
1336.00,0.0095
1335.75,0.0095
1335.50,0.0096
1335.25,0.0097
1335.00,0.0097
1334.75,0.0096
1334.50,0.0095
1334.25,0.0094
1334.00,0.0094
1333.75,0.0095
1333.50,0.0097
1333.25,0.0097
1333.00,0.0098
1332.75,0.0097
1332.50,0.0097
1332.25,0.0096
1332.00,0.0096
1331.75,0.0096
1331.50,0.0095
1331.25,0.0095
1331.00,0.0095
1330.75,0.0095
1330.50,0.0095
1330.25,0.0096
1330.00,0.0095
1329.75,0.0095
1329.50,0.0094
1329.25,0.0094
1329.00,0.0094
1328.75,0.0094
1328.50,0.0095
1328.25,0.0096
1328.00,0.0097
1327.75,0.0098
1327.50,0.0099
1327.25,0.0099
1327.00,0.0099
1326.75,0.0099
1326.50,0.0099
1326.25,0.0099
1326.00,0.0099
1325.75,0.0098
1325.50,0.0098
1325.25,0.0097
1325.00,0.0097
1324.75,0.0096
1324.50,0.0096
1324.25,0.0095
1324.00,0.0096
1323.75,0.0096
1323.50,0.0097
1323.25,0.0098
1323.00,0.0099
1322.75,0.0099
1322.50,0.0100
1322.25,0.0100
1322.00,0.0101
1321.75,0.0101
1321.50,0.0101
1321.25,0.0100
1321.00,0.0100
1320.75,0.0100
1320.50,0.0100
1320.25,0.0100
1320.00,0.0100
1319.75,0.0101
1319.50,0.0102
1319.25,0.0103
1319.00,0.0104
1318.75,0.0105
1318.50,0.0105
1318.25,0.0105
1318.00,0.0105
1317.75,0.0105
1317.50,0.0105
1317.25,0.0105
1317.00,0.0105
1316.75,0.0105
1316.50,0.0105
1316.25,0.0105
1316.00,0.0105
1315.75,0.0106
1315.50,0.0106
1315.25,0.0107
1315.00,0.0107
1314.75,0.0107
1314.50,0.0106
1314.25,0.0106
1314.00,0.0107
1313.75,0.0107
1313.50,0.0107
1313.25,0.0107
1313.00,0.0108
1312.75,0.0108
1312.50,0.0107
1312.25,0.0106
1312.00,0.0105
1311.75,0.0104
1311.50,0.0104
1311.25,0.0105
1311.00,0.0107
1310.75,0.0108
1310.50,0.0108
1310.25,0.0108
1310.00,0.0109
1309.75,0.0110
1309.50,0.0111
1309.25,0.0112
1309.00,0.0113
1308.75,0.0113
1308.50,0.0112
1308.25,0.0111
1308.00,0.0111
1307.75,0.0110
1307.50,0.0109
1307.25,0.0109
1307.00,0.0109
1306.75,0.0109
1306.50,0.0109
1306.25,0.0110
1306.00,0.0110
1305.75,0.0111
1305.50,0.0111
1305.25,0.0112
1305.00,0.0112
1304.75,0.0113
1304.50,0.0113
1304.25,0.0113
1304.00,0.0113
1303.75,0.0114
1303.50,0.0115
1303.25,0.0116
1303.00,0.0116
1302.75,0.0116
1302.50,0.0116
1302.25,0.0115
1302.00,0.0115
1301.75,0.0116
1301.50,0.0117
1301.25,0.0118
1301.00,0.0118
1300.75,0.0117
1300.50,0.0117
1300.25,0.0116
1300.00,0.0116
1299.75,0.0117
1299.50,0.0118
1299.25,0.0120
1299.00,0.0121
1298.75,0.0121
1298.50,0.0121
1298.25,0.0121
1298.00,0.0121
1297.75,0.0122
1297.50,0.0122
1297.25,0.0123
1297.00,0.0123
1296.75,0.0123
1296.50,0.0122
1296.25,0.0123
1296.00,0.0123
1295.75,0.0123
1295.50,0.0123
1295.25,0.0122
1295.00,0.0122
1294.75,0.0123
1294.50,0.0124
1294.25,0.0125
1294.00,0.0126
1293.75,0.0126
1293.50,0.0126
1293.25,0.0127
1293.00,0.0128
1292.75,0.0129
1292.50,0.0130
1292.25,0.0131
1292.00,0.0132
1291.75,0.0132
1291.50,0.0132
1291.25,0.0133
1291.00,0.0133
1290.75,0.0133
1290.50,0.0133
1290.25,0.0133
1290.00,0.0132
1289.75,0.0133
1289.50,0.0134
1289.25,0.0136
1289.00,0.0138
1288.75,0.0139
1288.50,0.0139
1288.25,0.0140
1288.00,0.0140
1287.75,0.0140
1287.50,0.0141
1287.25,0.0140
1287.00,0.0140
1286.75,0.0140
1286.50,0.0141
1286.25,0.0142
1286.00,0.0144
1285.75,0.0146
1285.50,0.0149
1285.25,0.0151
1285.00,0.0152
1284.75,0.0153
1284.50,0.0153
1284.25,0.0153
1284.00,0.0153
1283.75,0.0153
1283.50,0.0153
1283.25,0.0153
1283.00,0.0153
1282.75,0.0153
1282.50,0.0153
1282.25,0.0154
1282.00,0.0156
1281.75,0.0159
1281.50,0.0161
1281.25,0.0163
1281.00,0.0165
1280.75,0.0166
1280.50,0.0168
1280.25,0.0170
1280.00,0.0172
1279.75,0.0173
1279.50,0.0173
1279.25,0.0175
1279.00,0.0177
1278.75,0.0180
1278.50,0.0183
1278.25,0.0186
1278.00,0.0188
1277.75,0.0190
1277.50,0.0192
1277.25,0.0194
1277.00,0.0197
1276.75,0.0199
1276.50,0.0202
1276.25,0.0205
1276.00,0.0208
1275.75,0.0211
1275.50,0.0214
1275.25,0.0218
1275.00,0.0222
1274.75,0.0227
1274.50,0.0231
1274.25,0.0235
1274.00,0.0239
1273.75,0.0244
1273.50,0.0250
1273.25,0.0256
1273.00,0.0263
1272.75,0.0271
1272.50,0.0278
1272.25,0.0285
1272.00,0.0293
1271.75,0.0300
1271.50,0.0308
1271.25,0.0317
1271.00,0.0327
1270.75,0.0339
1270.50,0.0351
1270.25,0.0364
1270.00,0.0376
1269.75,0.0389
1269.50,0.0402
1269.25,0.0417
1269.00,0.0434
1268.75,0.0453
1268.50,0.0473
1268.25,0.0495
1268.00,0.0518
1267.75,0.0541
1267.50,0.0565
1267.25,0.0591
1267.00,0.0618
1266.75,0.0647
1266.50,0.0679
1266.25,0.0713
1266.00,0.0748
1265.75,0.0784
1265.50,0.0821
1265.25,0.0859
1265.00,0.0898
1264.75,0.0938
1264.50,0.0979
1264.25,0.1021
1264.00,0.1065
1263.75,0.1110
1263.50,0.1156
1263.25,0.1201
1263.00,0.1246
1262.75,0.1289
1262.50,0.1331
1262.25,0.1371
1262.00,0.1408
1261.75,0.1444
1261.50,0.1478
1261.25,0.1512
1261.00,0.1544
1260.75,0.1575
1260.50,0.1604
1260.25,0.1630
1260.00,0.1651
1259.75,0.1669
1259.50,0.1683
1259.25,0.1695
1259.00,0.1705
1258.75,0.1711
1258.50,0.1714
1258.25,0.1714
1258.00,0.1710
1257.75,0.1703
1257.50,0.1691
1257.25,0.1675
1257.00,0.1657
1256.75,0.1637
1256.50,0.1616
1256.25,0.1595
1256.00,0.1573
1255.75,0.1550
1255.50,0.1525
1255.25,0.1499
1255.00,0.1472
1254.75,0.1444
1254.50,0.1416
1254.25,0.1387
1254.00,0.1358
1253.75,0.1330
1253.50,0.1301
1253.25,0.1272
1253.00,0.1242
1252.75,0.1210
1252.50,0.1176
1252.25,0.1140
1252.00,0.1103
1251.75,0.1066
1251.50,0.1030
1251.25,0.0994
1251.00,0.0958
1250.75,0.0923
1250.50,0.0888
1250.25,0.0853
1250.00,0.0818
1249.75,0.0783
1249.50,0.0748
1249.25,0.0715
1249.00,0.0683
1248.75,0.0653
1248.50,0.0624
1248.25,0.0598
1248.00,0.0572
1247.75,0.0549
1247.50,0.0526
1247.25,0.0504
1247.00,0.0485
1246.75,0.0468
1246.50,0.0452
1246.25,0.0438
1246.00,0.0423
1245.75,0.0408
1245.50,0.0394
1245.25,0.0381
1245.00,0.0369
1244.75,0.0359
1244.50,0.0349
1244.25,0.0340
1244.00,0.0332
1243.75,0.0324
1243.50,0.0317
1243.25,0.0310
1243.00,0.0304
1242.75,0.0298
1242.50,0.0292
1242.25,0.0287
1242.00,0.0281
1241.75,0.0277
1241.50,0.0272
1241.25,0.0269
1241.00,0.0267
1240.75,0.0264
1240.50,0.0261
1240.25,0.0256
1240.00,0.0252
1239.75,0.0248
1239.50,0.0244
1239.25,0.0241
1239.00,0.0238
1238.75,0.0237
1238.50,0.0236
1238.25,0.0235
1238.00,0.0234
1237.75,0.0232
1237.50,0.0231
1237.25,0.0229
1237.00,0.0227
1236.75,0.0225
1236.50,0.0223
1236.25,0.0220
1236.00,0.0219
1235.75,0.0218
1235.50,0.0218
1235.25,0.0218
1235.00,0.0217
1234.75,0.0216
1234.50,0.0214
1234.25,0.0212
1234.00,0.0210
1233.75,0.0209
1233.50,0.0208
1233.25,0.0207
1233.00,0.0207
1232.75,0.0207
1232.50,0.0207
1232.25,0.0208
1232.00,0.0209
1231.75,0.0210
1231.50,0.0210
1231.25,0.0210
1231.00,0.0209
1230.75,0.0208
1230.50,0.0207
1230.25,0.0207
1230.00,0.0207
1229.75,0.0207
1229.50,0.0207
1229.25,0.0208
1229.00,0.0209
1228.75,0.0210
1228.50,0.0210
1228.25,0.0210
1228.00,0.0210
1227.75,0.0210
1227.50,0.0209
1227.25,0.0209
1227.00,0.0208
1226.75,0.0208
1226.50,0.0208
1226.25,0.0209
1226.00,0.0209
1225.75,0.0209
1225.50,0.0209
1225.25,0.0210
1225.00,0.0211
1224.75,0.0213
1224.50,0.0214
1224.25,0.0216
1224.00,0.0217
1223.75,0.0218
1223.50,0.0218
1223.25,0.0217
1223.00,0.0216
1222.75,0.0216
1222.50,0.0217
1222.25,0.0218
1222.00,0.0221
1221.75,0.0223
1221.50,0.0225
1221.25,0.0227
1221.00,0.0228
1220.75,0.0229
1220.50,0.0229
1220.25,0.0229
1220.00,0.0228
1219.75,0.0229
1219.50,0.0229
1219.25,0.0230
1219.00,0.0232
1218.75,0.0234
1218.50,0.0236
1218.25,0.0238
1218.00,0.0240
1217.75,0.0241
1217.50,0.0241
1217.25,0.0241
1217.00,0.0241
1216.75,0.0241
1216.50,0.0241
1216.25,0.0242
1216.00,0.0245
1215.75,0.0248
1215.50,0.0251
1215.25,0.0253
1215.00,0.0256
1214.75,0.0258
1214.50,0.0259
1214.25,0.0260
1214.00,0.0260
1213.75,0.0261
1213.50,0.0262
1213.25,0.0264
1213.00,0.0265
1212.75,0.0267
1212.50,0.0269
1212.25,0.0270
1212.00,0.0271
1211.75,0.0272
1211.50,0.0273
1211.25,0.0275
1211.00,0.0277
1210.75,0.0278
1210.50,0.0279
1210.25,0.0280
1210.00,0.0281
1209.75,0.0282
1209.50,0.0284
1209.25,0.0287
1209.00,0.0289
1208.75,0.0291
1208.50,0.0292
1208.25,0.0291
1208.00,0.0290
1207.75,0.0290
1207.50,0.0290
1207.25,0.0291
1207.00,0.0294
1206.75,0.0296
1206.50,0.0299
1206.25,0.0300
1206.00,0.0301
1205.75,0.0301
1205.50,0.0301
1205.25,0.0303
1205.00,0.0305
1204.75,0.0307
1204.50,0.0309
1204.25,0.0310
1204.00,0.0311
1203.75,0.0313
1203.50,0.0316
1203.25,0.0318
1203.00,0.0320
1202.75,0.0320
1202.50,0.0320
1202.25,0.0320
1202.00,0.0320
1201.75,0.0321
1201.50,0.0322
1201.25,0.0323
1201.00,0.0324
1200.75,0.0324
1200.50,0.0324
1200.25,0.0324
1200.00,0.0324
1199.75,0.0324
1199.50,0.0324
1199.25,0.0325
1199.00,0.0327
1198.75,0.0329
1198.50,0.0332
1198.25,0.0335
1198.00,0.0336
1197.75,0.0337
1197.50,0.0337
1197.25,0.0336
1197.00,0.0336
1196.75,0.0336
1196.50,0.0336
1196.25,0.0337
1196.00,0.0339
1195.75,0.0341
1195.50,0.0342
1195.25,0.0343
1195.00,0.0345
1194.75,0.0345
1194.50,0.0346
1194.25,0.0346
1194.00,0.0345
1193.75,0.0344
1193.50,0.0344
1193.25,0.0343
1193.00,0.0344
1192.75,0.0345
1192.50,0.0347
1192.25,0.0348
1192.00,0.0349
1191.75,0.0349
1191.50,0.0349
1191.25,0.0349
1191.00,0.0349
1190.75,0.0349
1190.50,0.0349
1190.25,0.0349
1190.00,0.0350
1189.75,0.0352
1189.50,0.0353
1189.25,0.0354
1189.00,0.0354
1188.75,0.0354
1188.50,0.0354
1188.25,0.0354
1188.00,0.0354
1187.75,0.0354
1187.50,0.0354
1187.25,0.0354
1187.00,0.0355
1186.75,0.0355
1186.50,0.0356
1186.25,0.0357
1186.00,0.0358
1185.75,0.0359
1185.50,0.0359
1185.25,0.0360
1185.00,0.0360
1184.75,0.0360
1184.50,0.0360
1184.25,0.0360
1184.00,0.0360
1183.75,0.0360
1183.50,0.0360
1183.25,0.0360
1183.00,0.0360
1182.75,0.0360
1182.50,0.0360
1182.25,0.0360
1182.00,0.0359
1181.75,0.0360
1181.50,0.0360
1181.25,0.0361
1181.00,0.0362
1180.75,0.0362
1180.50,0.0361
1180.25,0.0359
1180.00,0.0358
1179.75,0.0357
1179.50,0.0357
1179.25,0.0359
1179.00,0.0361
1178.75,0.0362
1178.50,0.0363
1178.25,0.0362
1178.00,0.0363
1177.75,0.0363
1177.50,0.0364
1177.25,0.0364
1177.00,0.0365
1176.75,0.0366
1176.50,0.0366
1176.25,0.0367
1176.00,0.0367
1175.75,0.0366
1175.50,0.0366
1175.25,0.0365
1175.00,0.0364
1174.75,0.0365
1174.50,0.0366
1174.25,0.0368
1174.00,0.0369
1173.75,0.0369
1173.50,0.0369
1173.25,0.0369
1173.00,0.0368
1172.75,0.0368
1172.50,0.0369
1172.25,0.0370
1172.00,0.0370
1171.75,0.0370
1171.50,0.0369
1171.25,0.0368
1171.00,0.0368
1170.75,0.0369
1170.50,0.0371
1170.25,0.0373
1170.00,0.0375
1169.75,0.0375
1169.50,0.0374
1169.25,0.0373
1169.00,0.0372
1168.75,0.0371
1168.50,0.0370
1168.25,0.0370
1168.00,0.0370
1167.75,0.0371
1167.50,0.0371
1167.25,0.0372
1167.00,0.0373
1166.75,0.0375
1166.50,0.0376
1166.25,0.0378
1166.00,0.0379
1165.75,0.0379
1165.50,0.0379
1165.25,0.0379
1165.00,0.0378
1164.75,0.0377
1164.50,0.0376
1164.25,0.0375
1164.00,0.0374
1163.75,0.0373
1163.50,0.0374
1163.25,0.0374
1163.00,0.0375
1162.75,0.0376
1162.50,0.0377
1162.25,0.0379
1162.00,0.0379
1161.75,0.0379
1161.50,0.0378
1161.25,0.0378
1161.00,0.0379
1160.75,0.0382
1160.50,0.0385
1160.25,0.0386
1160.00,0.0386
1159.75,0.0385
1159.50,0.0384
1159.25,0.0382
1159.00,0.0381
1158.75,0.0382
1158.50,0.0383
1158.25,0.0385
1158.00,0.0387
1157.75,0.0389
1157.50,0.0390
1157.25,0.0390
1157.00,0.0391
1156.75,0.0391
1156.50,0.0392
1156.25,0.0393
1156.00,0.0394
1155.75,0.0394
1155.50,0.0394
1155.25,0.0394
1155.00,0.0395
1154.75,0.0396
1154.50,0.0397
1154.25,0.0399
1154.00,0.0401
1153.75,0.0402
1153.50,0.0402
1153.25,0.0402
1153.00,0.0401
1152.75,0.0401
1152.50,0.0401
1152.25,0.0401
1152.00,0.0402
1151.75,0.0404
1151.50,0.0406
1151.25,0.0408
1151.00,0.0409
1150.75,0.0411
1150.50,0.0412
1150.25,0.0413
1150.00,0.0415
1149.75,0.0416
1149.50,0.0418
1149.25,0.0419
1149.00,0.0421
1148.75,0.0423
1148.50,0.0424
1148.25,0.0425
1148.00,0.0425
1147.75,0.0425
1147.50,0.0424
1147.25,0.0424
1147.00,0.0425
1146.75,0.0426
1146.50,0.0428
1146.25,0.0429
1146.00,0.0430
1145.75,0.0431
1145.50,0.0433
1145.25,0.0436
1145.00,0.0438
1144.75,0.0441
1144.50,0.0443
1144.25,0.0445
1144.00,0.0447
1143.75,0.0450
1143.50,0.0452
1143.25,0.0454
1143.00,0.0456
1142.75,0.0458
1142.50,0.0460
1142.25,0.0462
1142.00,0.0464
1141.75,0.0465
1141.50,0.0466
1141.25,0.0467
1141.00,0.0468
1140.75,0.0468
1140.50,0.0469
1140.25,0.0471
1140.00,0.0473
1139.75,0.0476
1139.50,0.0480
1139.25,0.0484
1139.00,0.0487
1138.75,0.0490
1138.50,0.0492
1138.25,0.0495
1138.00,0.0497
1137.75,0.0499
1137.50,0.0502
1137.25,0.0505
1137.00,0.0507
1136.75,0.0509
1136.50,0.0510
1136.25,0.0511
1136.00,0.0510
1135.75,0.0510
1135.50,0.0511
1135.25,0.0513
1135.00,0.0516
1134.75,0.0520
1134.50,0.0522
1134.25,0.0523
1134.00,0.0523
1133.75,0.0524
1133.50,0.0525
1133.25,0.0528
1133.00,0.0530
1132.75,0.0533
1132.50,0.0536
1132.25,0.0539
1132.00,0.0542
1131.75,0.0546
1131.50,0.0548
1131.25,0.0551
1131.00,0.0553
1130.75,0.0557
1130.50,0.0562
1130.25,0.0566
1130.00,0.0569
1129.75,0.0570
1129.50,0.0572
1129.25,0.0573
1129.00,0.0575
1128.75,0.0578
1128.50,0.0581
1128.25,0.0586
1128.00,0.0591
1127.75,0.0595
1127.50,0.0598
1127.25,0.0600
1127.00,0.0602
1126.75,0.0604
1126.50,0.0607
1126.25,0.0610
1126.00,0.0614
1125.75,0.0620
1125.50,0.0627
1125.25,0.0634
1125.00,0.0639
1124.75,0.0643
1124.50,0.0646
1124.25,0.0649
1124.00,0.0653
1123.75,0.0659
1123.50,0.0665
1123.25,0.0673
1123.00,0.0680
1122.75,0.0687
1122.50,0.0693
1122.25,0.0698
1122.00,0.0704
1121.75,0.0710
1121.50,0.0715
1121.25,0.0719
1121.00,0.0722
1120.75,0.0726
1120.50,0.0732
1120.25,0.0740
1120.00,0.0749
1119.75,0.0757
1119.50,0.0764
1119.25,0.0770
1119.00,0.0775
1118.75,0.0780
1118.50,0.0786
1118.25,0.0791
1118.00,0.0797
1117.75,0.0805
1117.50,0.0814
1117.25,0.0824
1117.00,0.0832
1116.75,0.0839
1116.50,0.0845
1116.25,0.0852
1116.00,0.0859
1115.75,0.0869
1115.50,0.0879
1115.25,0.0888
1115.00,0.0897
1114.75,0.0904
1114.50,0.0910
1114.25,0.0918
1114.00,0.0926
1113.75,0.0936
1113.50,0.0945
1113.25,0.0954
1113.00,0.0964
1112.75,0.0973
1112.50,0.0982
1112.25,0.0991
1112.00,0.0999
1111.75,0.1009
1111.50,0.1020
1111.25,0.1032
1111.00,0.1046
1110.75,0.1060
1110.50,0.1073
1110.25,0.1084
1110.00,0.1093
1109.75,0.1102
1109.50,0.1110
1109.25,0.1118
1109.00,0.1127
1108.75,0.1138
1108.50,0.1150
1108.25,0.1162
1108.00,0.1174
1107.75,0.1186
1107.50,0.1196
1107.25,0.1207
1107.00,0.1217
1106.75,0.1230
1106.50,0.1244
1106.25,0.1259
1106.00,0.1274
1105.75,0.1288
1105.50,0.1301
1105.25,0.1313
1105.00,0.1324
1104.75,0.1335
1104.50,0.1347
1104.25,0.1358
1104.00,0.1371
1103.75,0.1385
1103.50,0.1400
1103.25,0.1416
1103.00,0.1432
1102.75,0.1448
1102.50,0.1462
1102.25,0.1475
1102.00,0.1488
1101.75,0.1500
1101.50,0.1513
1101.25,0.1525
1101.00,0.1538
1100.75,0.1551
1100.50,0.1565
1100.25,0.1579
1100.00,0.1594
1099.75,0.1607
1099.50,0.1620
1099.25,0.1632
1099.00,0.1646
1098.75,0.1662
1098.50,0.1680
1098.25,0.1698
1098.00,0.1714
1097.75,0.1728
1097.50,0.1740
1097.25,0.1753
1097.00,0.1766
1096.75,0.1780
1096.50,0.1794
1096.25,0.1808
1096.00,0.1822
1095.75,0.1837
1095.50,0.1852
1095.25,0.1867
1095.00,0.1883
1094.75,0.1899
1094.50,0.1915
1094.25,0.1932
1094.00,0.1950
1093.75,0.1967
1093.50,0.1983
1093.25,0.1998
1093.00,0.2010
1092.75,0.2022
1092.50,0.2034
1092.25,0.2047
1092.00,0.2061
1091.75,0.2075
1091.50,0.2088
1091.25,0.2102
1091.00,0.2116
1090.75,0.2131
1090.50,0.2146
1090.25,0.2161
1090.00,0.2176
1089.75,0.2192
1089.50,0.2207
1089.25,0.2221
1089.00,0.2234
1088.75,0.2246
1088.50,0.2258
1088.25,0.2270
1088.00,0.2283
1087.75,0.2297
1087.50,0.2312
1087.25,0.2328
1087.00,0.2343
1086.75,0.2356
1086.50,0.2367
1086.25,0.2378
1086.00,0.2388
1085.75,0.2400
1085.50,0.2411
1085.25,0.2423
1085.00,0.2435
1084.75,0.2446
1084.50,0.2456
1084.25,0.2465
1084.00,0.2475
1083.75,0.2485
1083.50,0.2495
1083.25,0.2506
1083.00,0.2515
1082.75,0.2525
1082.50,0.2535
1082.25,0.2546
1082.00,0.2556
1081.75,0.2565
1081.50,0.2572
1081.25,0.2577
1081.00,0.2583
1080.75,0.2591
1080.50,0.2600
1080.25,0.2610
1080.00,0.2620
1079.75,0.2628
1079.50,0.2636
1079.25,0.2644
1079.00,0.2651
1078.75,0.2658
1078.50,0.2664
1078.25,0.2670
1078.00,0.2675
1077.75,0.2680
1077.50,0.2686
1077.25,0.2690
1077.00,0.2694
1076.75,0.2699
1076.50,0.2705
1076.25,0.2713
1076.00,0.2722
1075.75,0.2732
1075.50,0.2741
1075.25,0.2747
1075.00,0.2752
1074.75,0.2754
1074.50,0.2757
1074.25,0.2759
1074.00,0.2762
1073.75,0.2767
1073.50,0.2774
1073.25,0.2781
1073.00,0.2788
1072.75,0.2791
1072.50,0.2791
1072.25,0.2790
1072.00,0.2790
1071.75,0.2792
1071.50,0.2797
1071.25,0.2802
1071.00,0.2807
1070.75,0.2809
1070.50,0.2812
1070.25,0.2814
1070.00,0.2818
1069.75,0.2822
1069.50,0.2826
1069.25,0.2831
1069.00,0.2834
1068.75,0.2836
1068.50,0.2836
1068.25,0.2837
1068.00,0.2838
1067.75,0.2840
1067.50,0.2842
1067.25,0.2846
1067.00,0.2851
1066.75,0.2857
1066.50,0.2862
1066.25,0.2865
1066.00,0.2865
1065.75,0.2865
1065.50,0.2865
1065.25,0.2866
1065.00,0.2866
1064.75,0.2865
1064.50,0.2863
1064.25,0.2861
1064.00,0.2862
1063.75,0.2865
1063.50,0.2868
1063.25,0.2871
1063.00,0.2872
1062.75,0.2871
1062.50,0.2870
1062.25,0.2868
1062.00,0.2866
1061.75,0.2865
1061.50,0.2863
1061.25,0.2863
1061.00,0.2863
1060.75,0.2863
1060.50,0.2863
1060.25,0.2862
1060.00,0.2863
1059.75,0.2864
1059.50,0.2867
1059.25,0.2870
1059.00,0.2872
1058.75,0.2873
1058.50,0.2873
1058.25,0.2870
1058.00,0.2867
1057.75,0.2864
1057.50,0.2860
1057.25,0.2857
1057.00,0.2855
1056.75,0.2854
1056.50,0.2853
1056.25,0.2854
1056.00,0.2854
1055.75,0.2853
1055.50,0.2852
1055.25,0.2850
1055.00,0.2848
1054.75,0.2845
1054.50,0.2843
1054.25,0.2842
1054.00,0.2842
1053.75,0.2842
1053.50,0.2839
1053.25,0.2834
1053.00,0.2827
1052.75,0.2819
1052.50,0.2814
1052.25,0.2812
1052.00,0.2812
1051.75,0.2813
1051.50,0.2815
1051.25,0.2817
1051.00,0.2819
1050.75,0.2820
1050.50,0.2819
1050.25,0.2815
1050.00,0.2810
1049.75,0.2804
1049.50,0.2798
1049.25,0.2792
1049.00,0.2789
1048.75,0.2788
1048.50,0.2788
1048.25,0.2788
1048.00,0.2786
1047.75,0.2785
1047.50,0.2785
1047.25,0.2786
1047.00,0.2787
1046.75,0.2788
1046.50,0.2788
1046.25,0.2787
1046.00,0.2785
1045.75,0.2782
1045.50,0.2779
1045.25,0.2776
1045.00,0.2772
1044.75,0.2768
1044.50,0.2765
1044.25,0.2763
1044.00,0.2762
1043.75,0.2762
1043.50,0.2761
1043.25,0.2759
1043.00,0.2757
1042.75,0.2756
1042.50,0.2758
1042.25,0.2762
1042.00,0.2767
1041.75,0.2770
1041.50,0.2771
1041.25,0.2771
1041.00,0.2771
1040.75,0.2772
1040.50,0.2773
1040.25,0.2774
1040.00,0.2774
1039.75,0.2774
1039.50,0.2774
1039.25,0.2774
1039.00,0.2774
1038.75,0.2776
1038.50,0.2778
1038.25,0.2781
1038.00,0.2785
1037.75,0.2789
1037.50,0.2792
1037.25,0.2796
1037.00,0.2798
1036.75,0.2801
1036.50,0.2805
1036.25,0.2809
1036.00,0.2815
1035.75,0.2820
1035.50,0.2826
1035.25,0.2832
1035.00,0.2837
1034.75,0.2841
1034.50,0.2846
1034.25,0.2852
1034.00,0.2858
1033.75,0.2864
1033.50,0.2868
1033.25,0.2872
1033.00,0.2877
1032.75,0.2883
1032.50,0.2890
1032.25,0.2897
1032.00,0.2905
1031.75,0.2912
1031.50,0.2921
1031.25,0.2931
1031.00,0.2941
1030.75,0.2949
1030.50,0.2955
1030.25,0.2959
1030.00,0.2964
1029.75,0.2971
1029.50,0.2981
1029.25,0.2992
1029.00,0.3006
1028.75,0.3018
1028.50,0.3030
1028.25,0.3040
1028.00,0.3050
1027.75,0.3061
1027.50,0.3071
1027.25,0.3082
1027.00,0.3092
1026.75,0.3101
1026.50,0.3111
1026.25,0.3122
1026.00,0.3135
1025.75,0.3150
1025.50,0.3167
1025.25,0.3183
1025.00,0.3199
1024.75,0.3213
1024.50,0.3227
1024.25,0.3241
1024.00,0.3255
1023.75,0.3271
1023.50,0.3286
1023.25,0.3303
1023.00,0.3321
1022.75,0.3339
1022.50,0.3355
1022.25,0.3369
1022.00,0.3381
1021.75,0.3394
1021.50,0.3409
1021.25,0.3427
1021.00,0.3445
1020.75,0.3463
1020.50,0.3479
1020.25,0.3494
1020.00,0.3509
1019.75,0.3524
1019.50,0.3541
1019.25,0.3560
1019.00,0.3582
1018.75,0.3604
1018.50,0.3626
1018.25,0.3645
1018.00,0.3663
1017.75,0.3678
1017.50,0.3692
1017.25,0.3707
1017.00,0.3723
1016.75,0.3741
1016.50,0.3759
1016.25,0.3776
1016.00,0.3792
1015.75,0.3807
1015.50,0.3820
1015.25,0.3832
1015.00,0.3842
1014.75,0.3853
1014.50,0.3863
1014.25,0.3873
1014.00,0.3881
1013.75,0.3886
1013.50,0.3887
1013.25,0.3887
1013.00,0.3886
1012.75,0.3884
1012.50,0.3881
1012.25,0.3876
1012.00,0.3869
1011.75,0.3860
1011.50,0.3850
1011.25,0.3837
1011.00,0.3823
1010.75,0.3806
1010.50,0.3788
1010.25,0.3767
1010.00,0.3744
1009.75,0.3716
1009.50,0.3685
1009.25,0.3650
1009.00,0.3613
1008.75,0.3577
1008.50,0.3540
1008.25,0.3503
1008.00,0.3465
1007.75,0.3424
1007.50,0.3382
1007.25,0.3338
1007.00,0.3292
1006.75,0.3245
1006.50,0.3196
1006.25,0.3146
1006.00,0.3096
1005.75,0.3046
1005.50,0.2993
1005.25,0.2937
1005.00,0.2880
1004.75,0.2824
1004.50,0.2770
1004.25,0.2719
1004.00,0.2671
1003.75,0.2623
1003.50,0.2575
1003.25,0.2528
1003.00,0.2480
1002.75,0.2432
1002.50,0.2382
1002.25,0.2332
1002.00,0.2280
1001.75,0.2230
1001.50,0.2182
1001.25,0.2137
1001.00,0.2093
1000.75,0.2050
1000.50,0.2007
1000.25,0.1963
1000.00,0.1919
999.75,0.1875
999.50,0.1833
999.25,0.1793
999.00,0.1756
998.75,0.1721
998.50,0.1687
998.25,0.1653
998.00,0.1620
997.75,0.1587
997.50,0.1555
997.25,0.1524
997.00,0.1495
996.75,0.1467
996.50,0.1440
996.25,0.1412
996.00,0.1383
995.75,0.1353
995.50,0.1324
995.25,0.1296
995.00,0.1269
994.75,0.1245
994.50,0.1221
994.25,0.1199
994.00,0.1177
993.75,0.1155
993.50,0.1135
993.25,0.1115
993.00,0.1096
992.75,0.1078
992.50,0.1060
992.25,0.1041
992.00,0.1021
991.75,0.1000
991.50,0.0981
991.25,0.0964
991.00,0.0949
990.75,0.0935
990.50,0.0922
990.25,0.0908
990.00,0.0893
989.75,0.0878
989.50,0.0862
989.25,0.0847
989.00,0.0834
988.75,0.0822
988.50,0.0810
988.25,0.0798
988.00,0.0786
987.75,0.0774
987.50,0.0761
987.25,0.0748
987.00,0.0736
986.75,0.0725
986.50,0.0714
986.25,0.0703
986.00,0.0693
985.75,0.0684
985.50,0.0675
985.25,0.0667
985.00,0.0658
984.75,0.0649
984.50,0.0640
984.25,0.0631
984.00,0.0623
983.75,0.0615
983.50,0.0607
983.25,0.0598
983.00,0.0589
982.75,0.0580
982.50,0.0570
982.25,0.0561
982.00,0.0554
981.75,0.0548
981.50,0.0543
981.25,0.0539
981.00,0.0535
980.75,0.0530
980.50,0.0525
980.25,0.0519
980.00,0.0512
979.75,0.0504
979.50,0.0496
979.25,0.0490
979.00,0.0485
978.75,0.0482
978.50,0.0479
978.25,0.0476
978.00,0.0471
977.75,0.0465
977.50,0.0459
977.25,0.0453
977.00,0.0446
976.75,0.0439
976.50,0.0433
976.25,0.0429
976.00,0.0427
975.75,0.0424
975.50,0.0420
975.25,0.0414
975.00,0.0409
974.75,0.0405
974.50,0.0402
974.25,0.0400
974.00,0.0397
973.75,0.0395
973.50,0.0393
973.25,0.0390
973.00,0.0385
972.75,0.0381
972.50,0.0375
972.25,0.0371
972.00,0.0368
971.75,0.0366
971.50,0.0366
971.25,0.0366
971.00,0.0366
970.75,0.0364
970.50,0.0360
970.25,0.0356
970.00,0.0352
969.75,0.0349
969.50,0.0347
969.25,0.0346
969.00,0.0343
968.75,0.0340
968.50,0.0336
968.25,0.0332
968.00,0.0328
967.75,0.0325
967.50,0.0325
967.25,0.0326
967.00,0.0327
966.75,0.0325
966.50,0.0323
966.25,0.0319
966.00,0.0316
965.75,0.0313
965.50,0.0310
965.25,0.0307
965.00,0.0305
964.75,0.0302
964.50,0.0299
964.25,0.0297
964.00,0.0296
963.75,0.0295
963.50,0.0295
963.25,0.0293
963.00,0.0290
962.75,0.0287
962.50,0.0285
962.25,0.0283
962.00,0.0283
961.75,0.0282
961.50,0.0281
961.25,0.0280
961.00,0.0279
960.75,0.0279
960.50,0.0278
960.25,0.0277
960.00,0.0275
959.75,0.0274
959.50,0.0272
959.25,0.0270
959.00,0.0268
958.75,0.0266
958.50,0.0264
958.25,0.0263
958.00,0.0264
957.75,0.0264
957.50,0.0263
957.25,0.0262
957.00,0.0261
956.75,0.0261
956.50,0.0262
956.25,0.0262
956.00,0.0262
955.75,0.0260
955.50,0.0258
955.25,0.0256
955.00,0.0255
954.75,0.0255
954.50,0.0254
954.25,0.0252
954.00,0.0250
953.75,0.0248
953.50,0.0247
953.25,0.0247
953.00,0.0247
952.75,0.0247
952.50,0.0245
952.25,0.0243
952.00,0.0241
951.75,0.0240
951.50,0.0240
951.25,0.0239
951.00,0.0238
950.75,0.0236
950.50,0.0235
950.25,0.0236
950.00,0.0237
949.75,0.0238
949.50,0.0240
949.25,0.0240
949.00,0.0239
948.75,0.0238
948.50,0.0237
948.25,0.0236
948.00,0.0236
947.75,0.0234
947.50,0.0232
947.25,0.0230
947.00,0.0228
946.75,0.0227
946.50,0.0227
946.25,0.0226
946.00,0.0226
945.75,0.0226
945.50,0.0226
945.25,0.0225
945.00,0.0224
944.75,0.0223
944.50,0.0222
944.25,0.0222
944.00,0.0223
943.75,0.0223
943.50,0.0224
943.25,0.0223
943.00,0.0224
942.75,0.0224
942.50,0.0225
942.25,0.0226
942.00,0.0225
941.75,0.0225
941.50,0.0224
941.25,0.0223
941.00,0.0223
940.75,0.0223
940.50,0.0223
940.25,0.0223
940.00,0.0222
939.75,0.0221
939.50,0.0220
939.25,0.0219
939.00,0.0219
938.75,0.0219
938.50,0.0218
938.25,0.0216
938.00,0.0215
937.75,0.0213
937.50,0.0212
937.25,0.0212
937.00,0.0213
936.75,0.0213
936.50,0.0214
936.25,0.0214
936.00,0.0215
935.75,0.0216
935.50,0.0216
935.25,0.0216
935.00,0.0215
934.75,0.0215
934.50,0.0216
934.25,0.0217
934.00,0.0218
933.75,0.0219
933.50,0.0220
933.25,0.0220
933.00,0.0220
932.75,0.0220
932.50,0.0221
932.25,0.0222
932.00,0.0223
931.75,0.0224
931.50,0.0224
931.25,0.0224
931.00,0.0225
930.75,0.0226
930.50,0.0227
930.25,0.0226
930.00,0.0225
929.75,0.0225
929.50,0.0226
929.25,0.0227
929.00,0.0228
928.75,0.0228
928.50,0.0227
928.25,0.0227
928.00,0.0228
927.75,0.0230
927.50,0.0232
927.25,0.0233
927.00,0.0234
926.75,0.0235
926.50,0.0236
926.25,0.0238
926.00,0.0239
925.75,0.0240
925.50,0.0239
925.25,0.0239
925.00,0.0238
924.75,0.0238
924.50,0.0238
924.25,0.0237
924.00,0.0235
923.75,0.0233
923.50,0.0232
923.25,0.0232
923.00,0.0233
922.75,0.0235
922.50,0.0237
922.25,0.0239
922.00,0.0242
921.75,0.0245
921.50,0.0247
921.25,0.0250
921.00,0.0252
920.75,0.0255
920.50,0.0257
920.25,0.0259
920.00,0.0261
919.75,0.0263
919.50,0.0266
919.25,0.0267
919.00,0.0267
918.75,0.0265
918.50,0.0264
918.25,0.0263
918.00,0.0265
917.75,0.0269
917.50,0.0274
917.25,0.0278
917.00,0.0282
916.75,0.0286
916.50,0.0289
916.25,0.0293
916.00,0.0298
915.75,0.0301
915.50,0.0302
915.25,0.0302
915.00,0.0302
914.75,0.0303
914.50,0.0304
914.25,0.0306
914.00,0.0309
913.75,0.0312
913.50,0.0314
913.25,0.0316
913.00,0.0318
912.75,0.0319
912.50,0.0321
912.25,0.0322
912.00,0.0323
911.75,0.0323
911.50,0.0322
911.25,0.0321
911.00,0.0321
910.75,0.0322
910.50,0.0323
910.25,0.0324
910.00,0.0324
909.75,0.0324
909.50,0.0325
909.25,0.0326
909.00,0.0327
908.75,0.0327
908.50,0.0328
908.25,0.0329
908.00,0.0329
907.75,0.0330
907.50,0.0329
907.25,0.0328
907.00,0.0326
906.75,0.0324
906.50,0.0324
906.25,0.0326
906.00,0.0328
905.75,0.0329
905.50,0.0328
905.25,0.0325
905.00,0.0322
904.75,0.0321
904.50,0.0321
904.25,0.0321
904.00,0.0322
903.75,0.0323
903.50,0.0324
903.25,0.0324
903.00,0.0323
902.75,0.0323
902.50,0.0323
902.25,0.0324
902.00,0.0325
901.75,0.0327
901.50,0.0329
901.25,0.0332
901.00,0.0334
900.75,0.0334
900.50,0.0334
900.25,0.0333
900.00,0.0334
899.75,0.0334
899.50,0.0333
899.25,0.0332
899.00,0.0330
898.75,0.0329
898.50,0.0330
898.25,0.0332
898.00,0.0334
897.75,0.0337
897.50,0.0340
897.25,0.0342
897.00,0.0343
896.75,0.0343
896.50,0.0343
896.25,0.0345
896.00,0.0348
895.75,0.0350
895.50,0.0353
895.25,0.0356
895.00,0.0361
894.75,0.0365
894.50,0.0367
894.25,0.0367
894.00,0.0366
893.75,0.0367
893.50,0.0370
893.25,0.0373
893.00,0.0377
892.75,0.0379
892.50,0.0380
892.25,0.0381
892.00,0.0381
891.75,0.0383
891.50,0.0385
891.25,0.0388
891.00,0.0392
890.75,0.0396
890.50,0.0399
890.25,0.0400
890.00,0.0400
889.75,0.0400
889.50,0.0402
889.25,0.0405
889.00,0.0411
888.75,0.0416
888.50,0.0421
888.25,0.0424
888.00,0.0426
887.75,0.0429
887.50,0.0433
887.25,0.0438
887.00,0.0443
886.75,0.0446
886.50,0.0449
886.25,0.0451
886.00,0.0453
885.75,0.0455
885.50,0.0458
885.25,0.0461
885.00,0.0466
884.75,0.0473
884.50,0.0480
884.25,0.0488
884.00,0.0495
883.75,0.0503
883.50,0.0510
883.25,0.0516
883.00,0.0519
882.75,0.0521
882.50,0.0522
882.25,0.0525
882.00,0.0533
881.75,0.0542
881.50,0.0551
881.25,0.0557
881.00,0.0563
880.75,0.0568
880.50,0.0575
880.25,0.0582
880.00,0.0589
879.75,0.0595
879.50,0.0600
879.25,0.0605
879.00,0.0611
878.75,0.0617
878.50,0.0624
878.25,0.0632
878.00,0.0642
877.75,0.0652
877.50,0.0663
877.25,0.0675
877.00,0.0687
876.75,0.0698
876.50,0.0707
876.25,0.0716
876.00,0.0724
875.75,0.0732
875.50,0.0742
875.25,0.0750
875.00,0.0759
874.75,0.0767
874.50,0.0776
874.25,0.0786
874.00,0.0796
873.75,0.0807
873.50,0.0818
873.25,0.0830
873.00,0.0843
872.75,0.0856
872.50,0.0870
872.25,0.0884
872.00,0.0899
871.75,0.0914
871.50,0.0928
871.25,0.0942
871.00,0.0956
870.75,0.0971
870.50,0.0987
870.25,0.1002
870.00,0.1014
869.75,0.1024
869.50,0.1032
869.25,0.1039
869.00,0.1047
868.75,0.1056
868.50,0.1066
868.25,0.1077
868.00,0.1088
867.75,0.1100
867.50,0.1110
867.25,0.1117
867.00,0.1122
866.75,0.1125
866.50,0.1127
866.25,0.1132
866.00,0.1138
865.75,0.1145
865.50,0.1152
865.25,0.1159
865.00,0.1164
864.75,0.1167
864.50,0.1169
864.25,0.1168
864.00,0.1167
863.75,0.1166
863.50,0.1166
863.25,0.1166
863.00,0.1165
862.75,0.1164
862.50,0.1161
862.25,0.1157
862.00,0.1151
861.75,0.1145
861.50,0.1138
861.25,0.1132
861.00,0.1128
860.75,0.1126
860.50,0.1125
860.25,0.1124
860.00,0.1121
859.75,0.1116
859.50,0.1108
859.25,0.1099
859.00,0.1091
858.75,0.1085
858.50,0.1083
858.25,0.1083
858.00,0.1083
857.75,0.1080
857.50,0.1076
857.25,0.1070
857.00,0.1065
856.75,0.1063
856.50,0.1064
856.25,0.1066
856.00,0.1069
855.75,0.1073
855.50,0.1076
855.25,0.1079
855.00,0.1081
854.75,0.1082
854.50,0.1082
854.25,0.1084
854.00,0.1088
853.75,0.1093
853.50,0.1098
853.25,0.1103
853.00,0.1108
852.75,0.1113
852.50,0.1119
852.25,0.1124
852.00,0.1131
851.75,0.1139
851.50,0.1148
851.25,0.1160
851.00,0.1172
850.75,0.1183
850.50,0.1192
850.25,0.1200
850.00,0.1207
849.75,0.1214
849.50,0.1224
849.25,0.1238
849.00,0.1255
848.75,0.1272
848.50,0.1287
848.25,0.1297
848.00,0.1305
847.75,0.1311
847.50,0.1317
847.25,0.1323
847.00,0.1329
846.75,0.1336
846.50,0.1343
846.25,0.1351
846.00,0.1360
845.75,0.1368
845.50,0.1375
845.25,0.1380
845.00,0.1382
844.75,0.1383
844.50,0.1384
844.25,0.1387
844.00,0.1391
843.75,0.1395
843.50,0.1396
843.25,0.1393
843.00,0.1388
842.75,0.1382
842.50,0.1377
842.25,0.1372
842.00,0.1367
841.75,0.1361
841.50,0.1355
841.25,0.1348
841.00,0.1340
840.75,0.1331
840.50,0.1321
840.25,0.1312
840.00,0.1303
839.75,0.1293
839.50,0.1280
839.25,0.1266
839.00,0.1251
838.75,0.1236
838.50,0.1224
838.25,0.1214
838.00,0.1204
837.75,0.1194
837.50,0.1181
837.25,0.1166
837.00,0.1150
836.75,0.1137
836.50,0.1128
836.25,0.1123
836.00,0.1118
835.75,0.1110
835.50,0.1096
835.25,0.1080
835.00,0.1064
834.75,0.1053
834.50,0.1048
834.25,0.1046
834.00,0.1045
833.75,0.1041
833.50,0.1034
833.25,0.1028
833.00,0.1023
832.75,0.1023
832.50,0.1025
832.25,0.1027
832.00,0.1026
831.75,0.1023
831.50,0.1020
831.25,0.1016
831.00,0.1013
830.75,0.1009
830.50,0.1008
830.25,0.1010
830.00,0.1017
829.75,0.1029
829.50,0.1042
829.25,0.1057
829.00,0.1069
828.75,0.1077
828.50,0.1081
828.25,0.1083
828.00,0.1086
827.75,0.1094
827.50,0.1106
827.25,0.1120
827.00,0.1135
826.75,0.1150
826.50,0.1167
826.25,0.1186
826.00,0.1208
825.75,0.1228
825.50,0.1247
825.25,0.1264
825.00,0.1279
824.75,0.1293
824.50,0.1308
824.25,0.1324
824.00,0.1343
823.75,0.1365
823.50,0.1388
823.25,0.1411
823.00,0.1432
822.75,0.1454
822.50,0.1478
822.25,0.1503
822.00,0.1527
821.75,0.1551
821.50,0.1573
821.25,0.1594
821.00,0.1615
820.75,0.1636
820.50,0.1657
820.25,0.1677
820.00,0.1694
819.75,0.1710
819.50,0.1725
819.25,0.1741
819.00,0.1758
818.75,0.1775
818.50,0.1790
818.25,0.1804
818.00,0.1817
817.75,0.1831
817.50,0.1845
817.25,0.1859
817.00,0.1872
816.75,0.1885
816.50,0.1900
816.25,0.1916
816.00,0.1933
815.75,0.1949
815.50,0.1961
815.25,0.1971
815.00,0.1980
814.75,0.1989
814.50,0.1999
814.25,0.2010
814.00,0.2022
813.75,0.2037
813.50,0.2052
813.25,0.2069
813.00,0.2087
812.75,0.2107
812.50,0.2128
812.25,0.2152
812.00,0.2177
811.75,0.2199
811.50,0.2218
811.25,0.2235
811.00,0.2253
810.75,0.2273
810.50,0.2296
810.25,0.2321
810.00,0.2348
809.75,0.2374
809.50,0.2400
809.25,0.2423
809.00,0.2446
808.75,0.2470
808.50,0.2497
808.25,0.2528
808.00,0.2563
807.75,0.2599
807.50,0.2636
807.25,0.2672
807.00,0.2707
806.75,0.2740
806.50,0.2773
806.25,0.2804
806.00,0.2836
805.75,0.2871
805.50,0.2909
805.25,0.2950
805.00,0.2995
804.75,0.3040
804.50,0.3084
804.25,0.3128
804.00,0.3171
803.75,0.3214
803.50,0.3255
803.25,0.3296
803.00,0.3336
802.75,0.3376
802.50,0.3417
802.25,0.3462
802.00,0.3511
801.75,0.3562
801.50,0.3613
801.25,0.3663
801.00,0.3710
800.75,0.3756
800.50,0.3799
800.25,0.3841
800.00,0.3881
