Created as New Dataset,Sample 038 By irlear Date Thursday, January 01 2009
cm-1,A
4000.00,0.0066
3999.75,0.0067
3999.50,0.0068
3999.25,0.0068
3999.00,0.0066
3998.75,0.0064
3998.50,0.0061
3998.25,0.0059
3998.00,0.0058
3997.75,0.0058
3997.50,0.0058
3997.25,0.0060
3997.00,0.0062
3996.75,0.0064
3996.50,0.0065
3996.25,0.0066
3996.00,0.0066
3995.75,0.0066
3995.50,0.0065
3995.25,0.0065
3995.00,0.0065
3994.75,0.0066
3994.50,0.0067
3994.25,0.0068
3994.00,0.0068
3993.75,0.0067
3993.50,0.0065
3993.25,0.0064
3993.00,0.0062
3992.75,0.0062
3992.50,0.0061
3992.25,0.0060
3992.00,0.0060
3991.75,0.0061
3991.50,0.0061
3991.25,0.0061
3991.00,0.0061
3990.75,0.0060
3990.50,0.0059
3990.25,0.0060
3990.00,0.0062
3989.75,0.0063
3989.50,0.0064
3989.25,0.0065
3989.00,0.0065
3988.75,0.0065
3988.50,0.0064
3988.25,0.0063
3988.00,0.0062
3987.75,0.0061
3987.50,0.0061
3987.25,0.0062
3987.00,0.0063
3986.75,0.0064
3986.50,0.0064
3986.25,0.0064
3986.00,0.0064
3985.75,0.0063
3985.50,0.0063
3985.25,0.0064
3985.00,0.0064
3984.75,0.0065
3984.50,0.0066
3984.25,0.0066
3984.00,0.0066
3983.75,0.0066
3983.50,0.0065
3983.25,0.0064
3983.00,0.0064
3982.75,0.0064
3982.50,0.0064
3982.25,0.0064
3982.00,0.0064
3981.75,0.0063
3981.50,0.0063
3981.25,0.0063
3981.00,0.0062
3980.75,0.0061
3980.50,0.0060
3980.25,0.0059
3980.00,0.0059
3979.75,0.0059
3979.50,0.0061
3979.25,0.0062
3979.00,0.0063
3978.75,0.0063
3978.50,0.0063
3978.25,0.0063
3978.00,0.0062
3977.75,0.0061
3977.50,0.0060
3977.25,0.0059
3977.00,0.0059
3976.75,0.0060
3976.50,0.0062
3976.25,0.0064
3976.00,0.0066
3975.75,0.0065
3975.50,0.0064
3975.25,0.0061
3975.00,0.0059
3974.75,0.0057
3974.50,0.0057
3974.25,0.0058
3974.00,0.0059
3973.75,0.0061
3973.50,0.0062
3973.25,0.0063
3973.00,0.0064
3972.75,0.0065
3972.50,0.0066
3972.25,0.0066
3972.00,0.0065
3971.75,0.0064
3971.50,0.0063
3971.25,0.0062
3971.00,0.0062
3970.75,0.0062
3970.50,0.0063
3970.25,0.0064
3970.00,0.0065
3969.75,0.0064
3969.50,0.0063
3969.25,0.0062
3969.00,0.0061
3968.75,0.0060
3968.50,0.0059
3968.25,0.0059
3968.00,0.0059
3967.75,0.0060
3967.50,0.0061
3967.25,0.0062
3967.00,0.0064
3966.75,0.0065
3966.50,0.0066
3966.25,0.0066
3966.00,0.0066
3965.75,0.0066
3965.50,0.0066
3965.25,0.0065
3965.00,0.0064
3964.75,0.0063
3964.50,0.0062
3964.25,0.0061
3964.00,0.0060
3963.75,0.0058
3963.50,0.0057
3963.25,0.0057
3963.00,0.0058
3962.75,0.0059
3962.50,0.0060
3962.25,0.0061
3962.00,0.0062
3961.75,0.0062
3961.50,0.0062
3961.25,0.0061
3961.00,0.0061
3960.75,0.0061
3960.50,0.0062
3960.25,0.0062
3960.00,0.0062
3959.75,0.0061
3959.50,0.0060
3959.25,0.0060
3959.00,0.0060
3958.75,0.0060
3958.50,0.0061
3958.25,0.0063
3958.00,0.0064
3957.75,0.0064
3957.50,0.0064
3957.25,0.0063
3957.00,0.0061
3956.75,0.0060
3956.50,0.0059
3956.25,0.0059
3956.00,0.0059
3955.75,0.0060
3955.50,0.0061
3955.25,0.0061
3955.00,0.0061
3954.75,0.0061
3954.50,0.0060
3954.25,0.0060
3954.00,0.0061
3953.75,0.0062
3953.50,0.0062
3953.25,0.0063
3953.00,0.0062
3952.75,0.0061
3952.50,0.0060
3952.25,0.0060
3952.00,0.0060
3951.75,0.0060
3951.50,0.0061
3951.25,0.0062
3951.00,0.0062
3950.75,0.0061
3950.50,0.0060
3950.25,0.0059
3950.00,0.0059
3949.75,0.0059
3949.50,0.0059
3949.25,0.0060
3949.00,0.0060
3948.75,0.0061
3948.50,0.0061
3948.25,0.0061
3948.00,0.0060
3947.75,0.0058
3947.50,0.0057
3947.25,0.0057
3947.00,0.0056
3946.75,0.0057
3946.50,0.0057
3946.25,0.0057
3946.00,0.0058
3945.75,0.0058
3945.50,0.0059
3945.25,0.0061
3945.00,0.0064
3944.75,0.0066
3944.50,0.0068
3944.25,0.0069
3944.00,0.0067
3943.75,0.0063
3943.50,0.0059
3943.25,0.0055
3943.00,0.0053
3942.75,0.0053
3942.50,0.0054
3942.25,0.0055
3942.00,0.0056
3941.75,0.0057
3941.50,0.0059
3941.25,0.0061
3941.00,0.0062
3940.75,0.0063
3940.50,0.0064
3940.25,0.0064
3940.00,0.0064
3939.75,0.0064
3939.50,0.0063
3939.25,0.0062
3939.00,0.0061
3938.75,0.0061
3938.50,0.0061
3938.25,0.0062
3938.00,0.0062
3937.75,0.0061
3937.50,0.0061
3937.25,0.0061
3937.00,0.0061
3936.75,0.0061
3936.50,0.0061
3936.25,0.0060
3936.00,0.0060
3935.75,0.0060
3935.50,0.0060
3935.25,0.0060
3935.00,0.0060
3934.75,0.0060
3934.50,0.0061
3934.25,0.0061
3934.00,0.0062
3933.75,0.0062
3933.50,0.0061
3933.25,0.0059
3933.00,0.0058
3932.75,0.0057
3932.50,0.0058
3932.25,0.0059
3932.00,0.0060
3931.75,0.0061
3931.50,0.0061
3931.25,0.0061
3931.00,0.0060
3930.75,0.0060
3930.50,0.0059
3930.25,0.0059
3930.00,0.0059
3929.75,0.0060
3929.50,0.0061
3929.25,0.0061
3929.00,0.0060
3928.75,0.0059
3928.50,0.0058
3928.25,0.0058
3928.00,0.0059
3927.75,0.0061
3927.50,0.0063
3927.25,0.0064
3927.00,0.0064
3926.75,0.0063
3926.50,0.0061
3926.25,0.0060
3926.00,0.0059
3925.75,0.0058
3925.50,0.0058
3925.25,0.0057
3925.00,0.0056
3924.75,0.0055
3924.50,0.0054
3924.25,0.0053
3924.00,0.0054
3923.75,0.0056
3923.50,0.0058
3923.25,0.0060
3923.00,0.0061
3922.75,0.0062
3922.50,0.0063
3922.25,0.0064
3922.00,0.0065
3921.75,0.0065
3921.50,0.0065
3921.25,0.0064
3921.00,0.0062
3920.75,0.0061
3920.50,0.0059
3920.25,0.0058
3920.00,0.0058
3919.75,0.0056
3919.50,0.0055
3919.25,0.0055
3919.00,0.0055
3918.75,0.0056
3918.50,0.0057
3918.25,0.0059
3918.00,0.0060
3917.75,0.0061
3917.50,0.0061
3917.25,0.0060
3917.00,0.0058
3916.75,0.0057
3916.50,0.0056
3916.25,0.0057
3916.00,0.0058
3915.75,0.0060
3915.50,0.0061
3915.25,0.0063
3915.00,0.0064
3914.75,0.0065
3914.50,0.0064
3914.25,0.0064
3914.00,0.0063
3913.75,0.0062
3913.50,0.0062
3913.25,0.0062
3913.00,0.0062
3912.75,0.0062
3912.50,0.0062
3912.25,0.0062
3912.00,0.0062
3911.75,0.0063
3911.50,0.0063
3911.25,0.0064
3911.00,0.0064
3910.75,0.0063
3910.50,0.0063
3910.25,0.0062
3910.00,0.0061
3909.75,0.0060
3909.50,0.0059
3909.25,0.0059
3909.00,0.0060
3908.75,0.0061
3908.50,0.0062
3908.25,0.0063
3908.00,0.0063
3907.75,0.0063
3907.50,0.0063
3907.25,0.0063
3907.00,0.0062
3906.75,0.0061
3906.50,0.0061
3906.25,0.0060
3906.00,0.0061
3905.75,0.0061
3905.50,0.0061
3905.25,0.0060
3905.00,0.0057
3904.75,0.0054
3904.50,0.0051
3904.25,0.0050
3904.00,0.0050
3903.75,0.0050
3903.50,0.0049
3903.25,0.0050
3903.00,0.0050
3902.75,0.0052
3902.50,0.0053
3902.25,0.0054
3902.00,0.0055
3901.75,0.0055
3901.50,0.0052
3901.25,0.0049
3901.00,0.0048
3900.75,0.0049
3900.50,0.0051
3900.25,0.0053
3900.00,0.0055
3899.75,0.0056
3899.50,0.0056
3899.25,0.0055
3899.00,0.0054
3898.75,0.0053
3898.50,0.0053
3898.25,0.0055
3898.00,0.0057
3897.75,0.0061
3897.50,0.0063
3897.25,0.0065
3897.00,0.0065
3896.75,0.0064
3896.50,0.0063
3896.25,0.0063
3896.00,0.0063
3895.75,0.0063
3895.50,0.0063
3895.25,0.0063
3895.00,0.0062
3894.75,0.0062
3894.50,0.0061
3894.25,0.0061
3894.00,0.0061
3893.75,0.0061
3893.50,0.0061
3893.25,0.0060
3893.00,0.0060
3892.75,0.0059
3892.50,0.0059
3892.25,0.0059
3892.00,0.0059
3891.75,0.0058
3891.50,0.0058
3891.25,0.0057
3891.00,0.0056
3890.75,0.0056
3890.50,0.0055
3890.25,0.0056
3890.00,0.0057
3889.75,0.0058
3889.50,0.0060
3889.25,0.0062
3889.00,0.0063
3888.75,0.0063
3888.50,0.0062
3888.25,0.0062
3888.00,0.0061
3887.75,0.0060
3887.50,0.0059
3887.25,0.0057
3887.00,0.0056
3886.75,0.0056
3886.50,0.0055
3886.25,0.0055
3886.00,0.0055
3885.75,0.0056
3885.50,0.0056
3885.25,0.0055
3885.00,0.0054
3884.75,0.0056
3884.50,0.0057
3884.25,0.0059
3884.00,0.0060
3883.75,0.0060
3883.50,0.0060
3883.25,0.0059
3883.00,0.0058
3882.75,0.0057
3882.50,0.0057
3882.25,0.0057
3882.00,0.0058
3881.75,0.0058
3881.50,0.0059
3881.25,0.0058
3881.00,0.0056
3880.75,0.0054
3880.50,0.0053
3880.25,0.0053
3880.00,0.0053
3879.75,0.0053
3879.50,0.0053
3879.25,0.0053
3879.00,0.0053
3878.75,0.0053
3878.50,0.0054
3878.25,0.0055
3878.00,0.0057
3877.75,0.0058
3877.50,0.0059
3877.25,0.0059
3877.00,0.0058
3876.75,0.0057
3876.50,0.0058
3876.25,0.0059
3876.00,0.0060
3875.75,0.0061
3875.50,0.0061
3875.25,0.0060
3875.00,0.0057
3874.75,0.0054
3874.50,0.0051
3874.25,0.0051
3874.00,0.0053
3873.75,0.0053
3873.50,0.0054
3873.25,0.0054
3873.00,0.0055
3872.75,0.0056
3872.50,0.0057
3872.25,0.0059
3872.00,0.0059
3871.75,0.0059
3871.50,0.0059
3871.25,0.0057
3871.00,0.0055
3870.75,0.0052
3870.50,0.0049
3870.25,0.0047
3870.00,0.0047
3869.75,0.0049
3869.50,0.0052
3869.25,0.0053
3869.00,0.0053
3868.75,0.0053
3868.50,0.0053
3868.25,0.0054
3868.00,0.0055
3867.75,0.0056
3867.50,0.0057
3867.25,0.0058
3867.00,0.0058
3866.75,0.0057
3866.50,0.0056
3866.25,0.0056
3866.00,0.0056
3865.75,0.0055
3865.50,0.0053
3865.25,0.0051
3865.00,0.0051
3864.75,0.0052
3864.50,0.0053
3864.25,0.0053
3864.00,0.0053
3863.75,0.0054
3863.50,0.0055
3863.25,0.0058
3863.00,0.0060
3862.75,0.0061
3862.50,0.0060
3862.25,0.0059
3862.00,0.0057
3861.75,0.0057
3861.50,0.0057
3861.25,0.0057
3861.00,0.0057
3860.75,0.0055
3860.50,0.0055
3860.25,0.0055
3860.00,0.0056
3859.75,0.0058
3859.50,0.0060
3859.25,0.0061
3859.00,0.0061
3858.75,0.0061
3858.50,0.0061
3858.25,0.0061
3858.00,0.0060
3857.75,0.0057
3857.50,0.0055
3857.25,0.0053
3857.00,0.0053
3856.75,0.0054
3856.50,0.0054
3856.25,0.0054
3856.00,0.0053
3855.75,0.0051
3855.50,0.0050
3855.25,0.0050
3855.00,0.0049
3854.75,0.0048
3854.50,0.0045
3854.25,0.0041
3854.00,0.0042
3853.75,0.0041
3853.50,0.0042
3853.25,0.0044
3853.00,0.0046
3852.75,0.0046
3852.50,0.0046
3852.25,0.0046
3852.00,0.0047
3851.75,0.0048
3851.50,0.0048
3851.25,0.0048
3851.00,0.0049
3850.75,0.0051
3850.50,0.0053
3850.25,0.0055
3850.00,0.0058
3849.75,0.0061
3849.50,0.0062
3849.25,0.0063
3849.00,0.0062
3848.75,0.0061
3848.50,0.0061
3848.25,0.0061
3848.00,0.0062
3847.75,0.0062
3847.50,0.0063
3847.25,0.0062
3847.00,0.0061
3846.75,0.0060
3846.50,0.0060
3846.25,0.0060
3846.00,0.0061
3845.75,0.0061
3845.50,0.0061
3845.25,0.0061
3845.00,0.0060
3844.75,0.0059
3844.50,0.0059
3844.25,0.0058
3844.00,0.0057
3843.75,0.0057
3843.50,0.0056
3843.25,0.0055
3843.00,0.0054
3842.75,0.0054
3842.50,0.0054
3842.25,0.0055
3842.00,0.0057
3841.75,0.0057
3841.50,0.0055
3841.25,0.0051
3841.00,0.0047
3840.75,0.0043
3840.50,0.0041
3840.25,0.0042
3840.00,0.0044
3839.75,0.0048
3839.50,0.0050
3839.25,0.0052
3839.00,0.0051
3838.75,0.0050
3838.50,0.0049
3838.25,0.0048
3838.00,0.0051
3837.75,0.0056
3837.50,0.0058
3837.25,0.0056
3837.00,0.0055
3836.75,0.0054
3836.50,0.0053
3836.25,0.0054
3836.00,0.0054
3835.75,0.0053
3835.50,0.0052
3835.25,0.0051
3835.00,0.0051
3834.75,0.0054
3834.50,0.0056
3834.25,0.0057
3834.00,0.0056
3833.75,0.0055
3833.50,0.0054
3833.25,0.0054
3833.00,0.0054
3832.75,0.0054
3832.50,0.0055
3832.25,0.0055
3832.00,0.0055
3831.75,0.0056
3831.50,0.0059
3831.25,0.0061
3831.00,0.0061
3830.75,0.0060
3830.50,0.0059
3830.25,0.0059
3830.00,0.0059
3829.75,0.0060
3829.50,0.0060
3829.25,0.0061
3829.00,0.0061
3828.75,0.0060
3828.50,0.0059
3828.25,0.0059
3828.00,0.0059
3827.75,0.0059
3827.50,0.0059
3827.25,0.0058
3827.00,0.0057
3826.75,0.0057
3826.50,0.0058
3826.25,0.0058
3826.00,0.0058
3825.75,0.0057
3825.50,0.0057
3825.25,0.0058
3825.00,0.0060
3824.75,0.0062
3824.50,0.0064
3824.25,0.0065
3824.00,0.0066
3823.75,0.0066
3823.50,0.0063
3823.25,0.0061
3823.00,0.0058
3822.75,0.0056
3822.50,0.0054
3822.25,0.0052
3822.00,0.0049
3821.75,0.0047
3821.50,0.0044
3821.25,0.0041
3821.00,0.0037
3820.75,0.0036
3820.50,0.0038
3820.25,0.0043
3820.00,0.0049
3819.75,0.0052
3819.50,0.0054
3819.25,0.0053
3819.00,0.0053
3818.75,0.0053
3818.50,0.0055
3818.25,0.0057
3818.00,0.0059
3817.75,0.0060
3817.50,0.0061
3817.25,0.0060
3817.00,0.0060
3816.75,0.0057
3816.50,0.0054
3816.25,0.0052
3816.00,0.0053
3815.75,0.0055
3815.50,0.0057
3815.25,0.0057
3815.00,0.0057
3814.75,0.0057
3814.50,0.0058
3814.25,0.0060
3814.00,0.0062
3813.75,0.0064
3813.50,0.0065
3813.25,0.0065
3813.00,0.0065
3812.75,0.0066
3812.50,0.0066
3812.25,0.0066
3812.00,0.0066
3811.75,0.0065
3811.50,0.0064
3811.25,0.0063
3811.00,0.0062
3810.75,0.0061
3810.50,0.0061
3810.25,0.0061
3810.00,0.0062
3809.75,0.0062
3809.50,0.0061
3809.25,0.0060
3809.00,0.0059
3808.75,0.0058
3808.50,0.0057
3808.25,0.0058
3808.00,0.0060
3807.75,0.0061
3807.50,0.0062
3807.25,0.0062
3807.00,0.0063
3806.75,0.0062
3806.50,0.0058
3806.25,0.0054
3806.00,0.0051
3805.75,0.0051
3805.50,0.0052
3805.25,0.0055
3805.00,0.0058
3804.75,0.0061
3804.50,0.0062
3804.25,0.0062
3804.00,0.0060
3803.75,0.0056
3803.50,0.0053
3803.25,0.0052
3803.00,0.0052
3802.75,0.0055
3802.50,0.0057
3802.25,0.0056
3802.00,0.0053
3801.75,0.0047
3801.50,0.0044
3801.25,0.0044
3801.00,0.0048
3800.75,0.0051
3800.50,0.0052
3800.25,0.0053
3800.00,0.0053
3799.75,0.0054
3799.50,0.0055
3799.25,0.0056
3799.00,0.0058
3798.75,0.0059
3798.50,0.0060
3798.25,0.0060
3798.00,0.0059
3797.75,0.0058
3797.50,0.0057
3797.25,0.0057
3797.00,0.0056
3796.75,0.0056
3796.50,0.0058
3796.25,0.0059
3796.00,0.0059
3795.75,0.0057
3795.50,0.0056
3795.25,0.0056
3795.00,0.0057
3794.75,0.0058
3794.50,0.0060
3794.25,0.0062
3794.00,0.0063
3793.75,0.0064
3793.50,0.0064
3793.25,0.0063
3793.00,0.0062
3792.75,0.0062
3792.50,0.0063
3792.25,0.0064
3792.00,0.0065
3791.75,0.0066
3791.50,0.0066
3791.25,0.0065
3791.00,0.0064
3790.75,0.0064
3790.50,0.0063
3790.25,0.0062
3790.00,0.0061
3789.75,0.0061
3789.50,0.0060
3789.25,0.0060
3789.00,0.0060
3788.75,0.0060
3788.50,0.0061
3788.25,0.0061
3788.00,0.0062
3787.75,0.0063
3787.50,0.0064
3787.25,0.0065
3787.00,0.0065
3786.75,0.0066
3786.50,0.0066
3786.25,0.0066
3786.00,0.0066
3785.75,0.0065
3785.50,0.0064
3785.25,0.0063
3785.00,0.0062
3784.75,0.0061
3784.50,0.0061
3784.25,0.0060
3784.00,0.0061
3783.75,0.0062
3783.50,0.0063
3783.25,0.0064
3783.00,0.0065
3782.75,0.0066
3782.50,0.0066
3782.25,0.0066
3782.00,0.0066
3781.75,0.0065
3781.50,0.0065
3781.25,0.0064
3781.00,0.0063
3780.75,0.0062
3780.50,0.0062
3780.25,0.0060
3780.00,0.0058
3779.75,0.0056
3779.50,0.0055
3779.25,0.0055
3779.00,0.0055
3778.75,0.0056
3778.50,0.0058
3778.25,0.0060
3778.00,0.0062
3777.75,0.0064
3777.50,0.0065
3777.25,0.0065
3777.00,0.0064
3776.75,0.0064
3776.50,0.0063
3776.25,0.0064
3776.00,0.0064
3775.75,0.0064
3775.50,0.0064
3775.25,0.0063
3775.00,0.0062
3774.75,0.0061
3774.50,0.0059
3774.25,0.0058
3774.00,0.0059
3773.75,0.0060
3773.50,0.0062
3773.25,0.0064
3773.00,0.0066
3772.75,0.0066
3772.50,0.0065
3772.25,0.0064
3772.00,0.0063
3771.75,0.0062
3771.50,0.0062
3771.25,0.0061
3771.00,0.0059
3770.75,0.0058
3770.50,0.0057
3770.25,0.0056
3770.00,0.0057
3769.75,0.0060
3769.50,0.0061
3769.25,0.0061
3769.00,0.0061
3768.75,0.0061
3768.50,0.0061
3768.25,0.0061
3768.00,0.0061
3767.75,0.0062
3767.50,0.0063
3767.25,0.0063
3767.00,0.0063
3766.75,0.0062
3766.50,0.0062
3766.25,0.0061
3766.00,0.0062
3765.75,0.0062
3765.50,0.0062
3765.25,0.0059
3765.00,0.0057
3764.75,0.0056
3764.50,0.0057
3764.25,0.0058
3764.00,0.0060
3763.75,0.0062
3763.50,0.0064
3763.25,0.0066
3763.00,0.0067
3762.75,0.0067
3762.50,0.0066
3762.25,0.0064
3762.00,0.0063
3761.75,0.0063
3761.50,0.0063
3761.25,0.0064
3761.00,0.0064
3760.75,0.0064
3760.50,0.0063
3760.25,0.0061
3760.00,0.0058
3759.75,0.0057
3759.50,0.0057
3759.25,0.0058
3759.00,0.0059
3758.75,0.0060
3758.50,0.0061
3758.25,0.0062
3758.00,0.0063
3757.75,0.0064
3757.50,0.0064
3757.25,0.0064
3757.00,0.0063
3756.75,0.0063
3756.50,0.0062
3756.25,0.0061
3756.00,0.0059
3755.75,0.0059
3755.50,0.0060
3755.25,0.0063
3755.00,0.0066
3754.75,0.0068
3754.50,0.0068
3754.25,0.0066
3754.00,0.0064
3753.75,0.0061
3753.50,0.0059
3753.25,0.0058
3753.00,0.0058
3752.75,0.0059
3752.50,0.0060
3752.25,0.0063
3752.00,0.0063
3751.75,0.0057
3751.50,0.0050
3751.25,0.0046
3751.00,0.0044
3750.75,0.0044
3750.50,0.0047
3750.25,0.0051
3750.00,0.0054
3749.75,0.0057
3749.50,0.0061
3749.25,0.0063
3749.00,0.0060
3748.75,0.0055
3748.50,0.0053
3748.25,0.0052
3748.00,0.0054
3747.75,0.0056
3747.50,0.0059
3747.25,0.0061
3747.00,0.0062
3746.75,0.0061
3746.50,0.0060
3746.25,0.0058
3746.00,0.0057
3745.75,0.0056
3745.50,0.0054
3745.25,0.0051
3745.00,0.0045
3744.75,0.0036
3744.50,0.0032
3744.25,0.0032
3744.00,0.0034
3743.75,0.0039
3743.50,0.0046
3743.25,0.0050
3743.00,0.0054
3742.75,0.0057
3742.50,0.0059
3742.25,0.0060
3742.00,0.0059
3741.75,0.0058
3741.50,0.0058
3741.25,0.0060
3741.00,0.0063
3740.75,0.0065
3740.50,0.0066
3740.25,0.0065
3740.00,0.0064
3739.75,0.0063
3739.50,0.0062
3739.25,0.0061
3739.00,0.0060
3738.75,0.0059
3738.50,0.0060
3738.25,0.0061
3738.00,0.0062
3737.75,0.0063
3737.50,0.0063
3737.25,0.0063
3737.00,0.0062
3736.75,0.0061
3736.50,0.0059
3736.25,0.0057
3736.00,0.0053
3735.75,0.0047
3735.50,0.0042
3735.25,0.0039
3735.00,0.0040
3734.75,0.0046
3734.50,0.0051
3734.25,0.0054
3734.00,0.0057
3733.75,0.0058
3733.50,0.0060
3733.25,0.0061
3733.00,0.0062
3732.75,0.0064
3732.50,0.0066
3732.25,0.0070
3732.00,0.0073
3731.75,0.0072
3731.50,0.0068
3731.25,0.0063
3731.00,0.0061
3730.75,0.0060
3730.50,0.0060
3730.25,0.0061
3730.00,0.0062
3729.75,0.0062
3729.50,0.0063
3729.25,0.0063
3729.00,0.0063
3728.75,0.0063
3728.50,0.0063
3728.25,0.0063
3728.00,0.0062
3727.75,0.0061
3727.50,0.0058
3727.25,0.0056
3727.00,0.0054
3726.75,0.0054
3726.50,0.0054
3726.25,0.0056
3726.00,0.0057
3725.75,0.0058
3725.50,0.0059
3725.25,0.0060
3725.00,0.0061
3724.75,0.0062
3724.50,0.0063
3724.25,0.0063
3724.00,0.0062
3723.75,0.0061
3723.50,0.0061
3723.25,0.0063
3723.00,0.0065
3722.75,0.0067
3722.50,0.0067
3722.25,0.0066
3722.00,0.0065
3721.75,0.0063
3721.50,0.0063
3721.25,0.0063
3721.00,0.0064
3720.75,0.0064
3720.50,0.0065
3720.25,0.0065
3720.00,0.0064
3719.75,0.0062
3719.50,0.0060
3719.25,0.0059
3719.00,0.0058
3718.75,0.0058
3718.50,0.0058
3718.25,0.0058
3718.00,0.0059
3717.75,0.0061
3717.50,0.0063
3717.25,0.0064
3717.00,0.0064
3716.75,0.0064
3716.50,0.0065
3716.25,0.0066
3716.00,0.0067
3715.75,0.0069
3715.50,0.0069
3715.25,0.0068
3715.00,0.0066
3714.75,0.0063
3714.50,0.0061
3714.25,0.0059
3714.00,0.0059
3713.75,0.0058
3713.50,0.0059
3713.25,0.0059
3713.00,0.0059
3712.75,0.0060
3712.50,0.0061
3712.25,0.0064
3712.00,0.0068
3711.75,0.0066
3711.50,0.0062
3711.25,0.0059
3711.00,0.0057
3710.75,0.0057
3710.50,0.0058
3710.25,0.0058
3710.00,0.0057
3709.75,0.0055
3709.50,0.0054
3709.25,0.0055
3709.00,0.0058
3708.75,0.0062
3708.50,0.0065
3708.25,0.0067
3708.00,0.0069
3707.75,0.0069
3707.50,0.0069
3707.25,0.0068
3707.00,0.0067
3706.75,0.0068
3706.50,0.0069
3706.25,0.0071
3706.00,0.0073
3705.75,0.0073
3705.50,0.0072
3705.25,0.0072
3705.00,0.0071
3704.75,0.0071
3704.50,0.0070
3704.25,0.0069
3704.00,0.0067
3703.75,0.0065
3703.50,0.0064
3703.25,0.0063
3703.00,0.0063
3702.75,0.0063
3702.50,0.0063
3702.25,0.0062
3702.00,0.0061
3701.75,0.0060
3701.50,0.0059
3701.25,0.0058
3701.00,0.0058
3700.75,0.0060
3700.50,0.0062
3700.25,0.0064
3700.00,0.0066
3699.75,0.0068
3699.50,0.0069
3699.25,0.0069
3699.00,0.0069
3698.75,0.0068
3698.50,0.0068
3698.25,0.0067
3698.00,0.0066
3697.75,0.0066
3697.50,0.0065
3697.25,0.0065
3697.00,0.0065
3696.75,0.0066
3696.50,0.0068
3696.25,0.0069
3696.00,0.0069
3695.75,0.0068
3695.50,0.0066
3695.25,0.0064
3695.00,0.0063
3694.75,0.0063
3694.50,0.0065
3694.25,0.0067
3694.00,0.0068
3693.75,0.0070
3693.50,0.0071
3693.25,0.0071
3693.00,0.0071
3692.75,0.0071
3692.50,0.0070
3692.25,0.0069
3692.00,0.0067
3691.75,0.0065
3691.50,0.0064
3691.25,0.0065
3691.00,0.0065
3690.75,0.0063
3690.50,0.0058
3690.25,0.0054
3690.00,0.0051
3689.75,0.0050
3689.50,0.0049
3689.25,0.0049
3689.00,0.0048
3688.75,0.0047
3688.50,0.0051
3688.25,0.0057
3688.00,0.0060
3687.75,0.0060
3687.50,0.0060
3687.25,0.0060
3687.00,0.0061
3686.75,0.0063
3686.50,0.0064
3686.25,0.0065
3686.00,0.0064
3685.75,0.0062
3685.50,0.0061
3685.25,0.0062
3685.00,0.0063
3684.75,0.0065
3684.50,0.0067
3684.25,0.0068
3684.00,0.0069
3683.75,0.0069
3683.50,0.0069
3683.25,0.0069
3683.00,0.0069
3682.75,0.0069
3682.50,0.0068
3682.25,0.0067
3682.00,0.0066
3681.75,0.0066
3681.50,0.0065
3681.25,0.0064
3681.00,0.0063
3680.75,0.0063
3680.50,0.0062
3680.25,0.0062
3680.00,0.0061
3679.75,0.0061
3679.50,0.0060
3679.25,0.0059
3679.00,0.0058
3678.75,0.0057
3678.50,0.0057
3678.25,0.0057
3678.00,0.0058
3677.75,0.0059
3677.50,0.0059
3677.25,0.0059
3677.00,0.0057
3676.75,0.0055
3676.50,0.0053
3676.25,0.0052
3676.00,0.0054
3675.75,0.0056
3675.50,0.0055
3675.25,0.0049
3675.00,0.0043
3674.75,0.0040
3674.50,0.0042
3674.25,0.0046
3674.00,0.0050
3673.75,0.0053
3673.50,0.0056
3673.25,0.0058
3673.00,0.0059
3672.75,0.0060
3672.50,0.0060
3672.25,0.0060
3672.00,0.0060
3671.75,0.0060
3671.50,0.0060
3671.25,0.0058
3671.00,0.0056
3670.75,0.0056
3670.50,0.0057
3670.25,0.0058
3670.00,0.0058
3669.75,0.0057
3669.50,0.0055
3669.25,0.0054
3669.00,0.0054
3668.75,0.0056
3668.50,0.0058
3668.25,0.0058
3668.00,0.0059
3667.75,0.0060
3667.50,0.0062
3667.25,0.0064
3667.00,0.0066
3666.75,0.0067
3666.50,0.0067
3666.25,0.0066
3666.00,0.0066
3665.75,0.0068
3665.50,0.0070
3665.25,0.0072
3665.00,0.0073
3664.75,0.0073
3664.50,0.0072
3664.25,0.0070
3664.00,0.0069
3663.75,0.0068
3663.50,0.0068
3663.25,0.0067
3663.00,0.0067
3662.75,0.0067
3662.50,0.0066
3662.25,0.0065
3662.00,0.0065
3661.75,0.0064
3661.50,0.0064
3661.25,0.0065
3661.00,0.0065
3660.75,0.0066
3660.50,0.0066
3660.25,0.0066
3660.00,0.0067
3659.75,0.0066
3659.50,0.0066
3659.25,0.0067
3659.00,0.0068
3658.75,0.0068
3658.50,0.0068
3658.25,0.0067
3658.00,0.0065
3657.75,0.0063
3657.50,0.0063
3657.25,0.0063
3657.00,0.0064
3656.75,0.0065
3656.50,0.0065
3656.25,0.0064
3656.00,0.0062
3655.75,0.0060
3655.50,0.0060
3655.25,0.0061
3655.00,0.0062
3654.75,0.0062
3654.50,0.0063
3654.25,0.0064
3654.00,0.0065
3653.75,0.0066
3653.50,0.0066
3653.25,0.0067
3653.00,0.0067
3652.75,0.0066
3652.50,0.0065
3652.25,0.0063
3652.00,0.0061
3651.75,0.0059
3651.50,0.0058
3651.25,0.0057
3651.00,0.0056
3650.75,0.0054
3650.50,0.0050
3650.25,0.0047
3650.00,0.0046
3649.75,0.0044
3649.50,0.0042
3649.25,0.0042
3649.00,0.0045
3648.75,0.0050
3648.50,0.0054
3648.25,0.0055
3648.00,0.0055
3647.75,0.0054
3647.50,0.0053
3647.25,0.0054
3647.00,0.0054
3646.75,0.0054
3646.50,0.0055
3646.25,0.0056
3646.00,0.0057
3645.75,0.0059
3645.50,0.0061
3645.25,0.0063
3645.00,0.0065
3644.75,0.0067
3644.50,0.0068
3644.25,0.0069
3644.00,0.0070
3643.75,0.0070
3643.50,0.0068
3643.25,0.0067
3643.00,0.0066
3642.75,0.0066
3642.50,0.0067
3642.25,0.0067
3642.00,0.0067
3641.75,0.0065
3641.50,0.0064
3641.25,0.0063
3641.00,0.0063
3640.75,0.0064
3640.50,0.0065
3640.25,0.0066
3640.00,0.0066
3639.75,0.0067
3639.50,0.0068
3639.25,0.0070
3639.00,0.0071
3638.75,0.0072
3638.50,0.0073
3638.25,0.0072
3638.00,0.0072
3637.75,0.0070
3637.50,0.0068
3637.25,0.0067
3637.00,0.0066
3636.75,0.0066
3636.50,0.0068
3636.25,0.0069
3636.00,0.0069
3635.75,0.0070
3635.50,0.0070
3635.25,0.0069
3635.00,0.0068
3634.75,0.0067
3634.50,0.0066
3634.25,0.0066
3634.00,0.0067
3633.75,0.0069
3633.50,0.0070
3633.25,0.0070
3633.00,0.0068
3632.75,0.0066
3632.50,0.0065
3632.25,0.0066
3632.00,0.0067
3631.75,0.0068
3631.50,0.0069
3631.25,0.0068
3631.00,0.0068
3630.75,0.0067
3630.50,0.0066
3630.25,0.0064
3630.00,0.0061
3629.75,0.0059
3629.50,0.0058
3629.25,0.0056
3629.00,0.0050
3628.75,0.0042
3628.50,0.0038
3628.25,0.0039
3628.00,0.0044
3627.75,0.0051
3627.50,0.0057
3627.25,0.0061
3627.00,0.0064
3626.75,0.0065
3626.50,0.0066
3626.25,0.0066
3626.00,0.0066
3625.75,0.0065
3625.50,0.0065
3625.25,0.0065
3625.00,0.0065
3624.75,0.0066
3624.50,0.0067
3624.25,0.0068
3624.00,0.0069
3623.75,0.0069
3623.50,0.0070
3623.25,0.0070
3623.00,0.0069
3622.75,0.0068
3622.50,0.0067
3622.25,0.0067
3622.00,0.0067
3621.75,0.0068
3621.50,0.0069
3621.25,0.0070
3621.00,0.0069
3620.75,0.0067
3620.50,0.0063
3620.25,0.0059
3620.00,0.0056
3619.75,0.0055
3619.50,0.0058
3619.25,0.0063
3619.00,0.0067
3618.75,0.0069
3618.50,0.0068
3618.25,0.0065
3618.00,0.0063
3617.75,0.0063
3617.50,0.0064
3617.25,0.0065
3617.00,0.0065
3616.75,0.0065
3616.50,0.0065
3616.25,0.0065
3616.00,0.0066
3615.75,0.0068
3615.50,0.0070
3615.25,0.0071
3615.00,0.0070
3614.75,0.0069
3614.50,0.0066
3614.25,0.0063
3614.00,0.0060
3613.75,0.0058
3613.50,0.0057
3613.25,0.0056
3613.00,0.0056
3612.75,0.0059
3612.50,0.0062
3612.25,0.0064
3612.00,0.0065
3611.75,0.0065
3611.50,0.0065
3611.25,0.0066
3611.00,0.0066
3610.75,0.0065
3610.50,0.0065
3610.25,0.0064
3610.00,0.0063
3609.75,0.0061
3609.50,0.0060
3609.25,0.0061
3609.00,0.0063
3608.75,0.0065
3608.50,0.0066
3608.25,0.0065
3608.00,0.0064
3607.75,0.0063
3607.50,0.0062
3607.25,0.0062
3607.00,0.0064
3606.75,0.0065
3606.50,0.0066
3606.25,0.0065
3606.00,0.0064
3605.75,0.0064
3605.50,0.0063
3605.25,0.0063
3605.00,0.0064
3604.75,0.0065
3604.50,0.0067
3604.25,0.0069
3604.00,0.0070
3603.75,0.0071
3603.50,0.0071
3603.25,0.0070
3603.00,0.0068
3602.75,0.0067
3602.50,0.0066
3602.25,0.0065
3602.00,0.0065
3601.75,0.0065
3601.50,0.0065
3601.25,0.0065
3601.00,0.0065
3600.75,0.0065
3600.50,0.0066
3600.25,0.0067
3600.00,0.0068
3599.75,0.0069
3599.50,0.0070
3599.25,0.0070
3599.00,0.0070
3598.75,0.0070
3598.50,0.0069
3598.25,0.0067
3598.00,0.0066
3597.75,0.0065
3597.50,0.0065
3597.25,0.0066
3597.00,0.0067
3596.75,0.0068
3596.50,0.0068
3596.25,0.0068
3596.00,0.0068
3595.75,0.0066
3595.50,0.0064
3595.25,0.0063
3595.00,0.0063
3594.75,0.0064
3594.50,0.0065
3594.25,0.0066
3594.00,0.0067
3593.75,0.0066
3593.50,0.0065
3593.25,0.0065
3593.00,0.0064
3592.75,0.0064
3592.50,0.0065
3592.25,0.0066
3592.00,0.0068
3591.75,0.0069
3591.50,0.0070
3591.25,0.0071
3591.00,0.0071
3590.75,0.0072
3590.50,0.0071
3590.25,0.0070
3590.00,0.0068
3589.75,0.0066
3589.50,0.0064
3589.25,0.0063
3589.00,0.0062
3588.75,0.0062
3588.50,0.0061
3588.25,0.0060
3588.00,0.0058
3587.75,0.0057
3587.50,0.0057
3587.25,0.0057
3587.00,0.0057
3586.75,0.0057
3586.50,0.0056
3586.25,0.0055
3586.00,0.0055
3585.75,0.0056
3585.50,0.0059
3585.25,0.0062
3585.00,0.0064
3584.75,0.0065
3584.50,0.0065
3584.25,0.0066
3584.00,0.0068
3583.75,0.0069
3583.50,0.0070
3583.25,0.0070
3583.00,0.0068
3582.75,0.0067
3582.50,0.0068
3582.25,0.0069
3582.00,0.0071
3581.75,0.0072
3581.50,0.0072
3581.25,0.0071
3581.00,0.0070
3580.75,0.0069
3580.50,0.0069
3580.25,0.0069
3580.00,0.0069
3579.75,0.0069
3579.50,0.0068
3579.25,0.0068
3579.00,0.0067
3578.75,0.0066
3578.50,0.0066
3578.25,0.0067
3578.00,0.0069
3577.75,0.0070
3577.50,0.0071
3577.25,0.0071
3577.00,0.0070
3576.75,0.0069
3576.50,0.0068
3576.25,0.0067
3576.00,0.0067
3575.75,0.0067
3575.50,0.0068
3575.25,0.0069
3575.00,0.0069
3574.75,0.0070
3574.50,0.0071
3574.25,0.0073
3574.00,0.0075
3573.75,0.0075
3573.50,0.0075
3573.25,0.0074
3573.00,0.0072
3572.75,0.0070
3572.50,0.0069
3572.25,0.0068
3572.00,0.0068
3571.75,0.0069
3571.50,0.0071
3571.25,0.0072
3571.00,0.0072
3570.75,0.0071
3570.50,0.0069
3570.25,0.0066
3570.00,0.0065
3569.75,0.0065
3569.50,0.0065
3569.25,0.0065
3569.00,0.0065
3568.75,0.0063
3568.50,0.0062
3568.25,0.0061
3568.00,0.0060
3567.75,0.0058
3567.50,0.0056
3567.25,0.0055
3567.00,0.0056
3566.75,0.0057
3566.50,0.0058
3566.25,0.0059
3566.00,0.0058
3565.75,0.0058
3565.50,0.0058
3565.25,0.0060
3565.00,0.0063
3564.75,0.0065
3564.50,0.0066
3564.25,0.0068
3564.00,0.0069
3563.75,0.0070
3563.50,0.0070
3563.25,0.0069
3563.00,0.0067
3562.75,0.0066
3562.50,0.0065
3562.25,0.0065
3562.00,0.0066
3561.75,0.0066
3561.50,0.0067
3561.25,0.0069
3561.00,0.0070
3560.75,0.0071
3560.50,0.0072
3560.25,0.0073
3560.00,0.0074
3559.75,0.0073
3559.50,0.0072
3559.25,0.0071
3559.00,0.0070
3558.75,0.0070
3558.50,0.0070
3558.25,0.0070
3558.00,0.0069
3557.75,0.0068
3557.50,0.0067
3557.25,0.0067
3557.00,0.0068
3556.75,0.0069
3556.50,0.0070
3556.25,0.0070
3556.00,0.0070
3555.75,0.0070
3555.50,0.0070
3555.25,0.0070
3555.00,0.0069
3554.75,0.0068
3554.50,0.0067
3554.25,0.0066
3554.00,0.0066
3553.75,0.0066
3553.50,0.0067
3553.25,0.0068
3553.00,0.0068
3552.75,0.0069
3552.50,0.0069
3552.25,0.0070
3552.00,0.0069
3551.75,0.0068
3551.50,0.0067
3551.25,0.0066
3551.00,0.0065
3550.75,0.0066
3550.50,0.0067
3550.25,0.0068
3550.00,0.0069
3549.75,0.0071
3549.50,0.0072
3549.25,0.0072
3549.00,0.0071
3548.75,0.0070
3548.50,0.0070
3548.25,0.0071
3548.00,0.0071
3547.75,0.0070
3547.50,0.0068
3547.25,0.0065
3547.00,0.0062
3546.75,0.0061
3546.50,0.0062
3546.25,0.0064
3546.00,0.0067
3545.75,0.0069
3545.50,0.0071
3545.25,0.0071
3545.00,0.0071
3544.75,0.0070
3544.50,0.0069
3544.25,0.0069
3544.00,0.0069
3543.75,0.0068
3543.50,0.0068
3543.25,0.0067
3543.00,0.0067
3542.75,0.0067
3542.50,0.0067
3542.25,0.0067
3542.00,0.0068
3541.75,0.0068
3541.50,0.0069
3541.25,0.0069
3541.00,0.0070
3540.75,0.0070
3540.50,0.0071
3540.25,0.0070
3540.00,0.0069
3539.75,0.0068
3539.50,0.0066
3539.25,0.0065
3539.00,0.0065
3538.75,0.0065
3538.50,0.0066
3538.25,0.0068
3538.00,0.0070
3537.75,0.0071
3537.50,0.0071
3537.25,0.0071
3537.00,0.0071
3536.75,0.0071
3536.50,0.0071
3536.25,0.0070
3536.00,0.0068
3535.75,0.0066
3535.50,0.0065
3535.25,0.0064
3535.00,0.0065
3534.75,0.0067
3534.50,0.0069
3534.25,0.0071
3534.00,0.0072
3533.75,0.0073
3533.50,0.0073
3533.25,0.0073
3533.00,0.0073
3532.75,0.0073
3532.50,0.0073
3532.25,0.0073
3532.00,0.0073
3531.75,0.0073
3531.50,0.0072
3531.25,0.0070
3531.00,0.0068
3530.75,0.0066
3530.50,0.0066
3530.25,0.0066
3530.00,0.0067
3529.75,0.0068
3529.50,0.0069
3529.25,0.0069
3529.00,0.0068
3528.75,0.0066
3528.50,0.0064
3528.25,0.0063
3528.00,0.0063
3527.75,0.0063
3527.50,0.0064
3527.25,0.0065
3527.00,0.0065
3526.75,0.0064
3526.50,0.0064
3526.25,0.0065
3526.00,0.0067
3525.75,0.0069
3525.50,0.0070
3525.25,0.0070
3525.00,0.0070
3524.75,0.0069
3524.50,0.0068
3524.25,0.0068
3524.00,0.0068
3523.75,0.0069
3523.50,0.0070
3523.25,0.0070
3523.00,0.0071
3522.75,0.0071
3522.50,0.0070
3522.25,0.0069
3522.00,0.0069
3521.75,0.0070
3521.50,0.0072
3521.25,0.0073
3521.00,0.0074
3520.75,0.0074
3520.50,0.0072
3520.25,0.0070
3520.00,0.0068
3519.75,0.0067
3519.50,0.0067
3519.25,0.0067
3519.00,0.0069
3518.75,0.0070
3518.50,0.0071
3518.25,0.0070
3518.00,0.0069
3517.75,0.0068
3517.50,0.0067
3517.25,0.0066
3517.00,0.0066
3516.75,0.0067
3516.50,0.0067
3516.25,0.0069
3516.00,0.0070
3515.75,0.0071
3515.50,0.0072
3515.25,0.0071
3515.00,0.0071
3514.75,0.0070
3514.50,0.0070
3514.25,0.0070
3514.00,0.0069
3513.75,0.0068
3513.50,0.0068
3513.25,0.0067
3513.00,0.0067
3512.75,0.0067
3512.50,0.0067
3512.25,0.0067
3512.00,0.0067
3511.75,0.0068
3511.50,0.0069
3511.25,0.0070
3511.00,0.0070
3510.75,0.0070
3510.50,0.0068
3510.25,0.0066
3510.00,0.0065
3509.75,0.0065
3509.50,0.0066
3509.25,0.0067
3509.00,0.0068
3508.75,0.0068
3508.50,0.0068
3508.25,0.0069
3508.00,0.0070
3507.75,0.0072
3507.50,0.0073
3507.25,0.0074
3507.00,0.0074
3506.75,0.0073
3506.50,0.0071
3506.25,0.0069
3506.00,0.0067
3505.75,0.0066
3505.50,0.0066
3505.25,0.0067
3505.00,0.0069
3504.75,0.0070
3504.50,0.0071
3504.25,0.0071
3504.00,0.0070
3503.75,0.0069
3503.50,0.0068
3503.25,0.0067
3503.00,0.0067
3502.75,0.0067
3502.50,0.0068
3502.25,0.0070
3502.00,0.0072
3501.75,0.0074
3501.50,0.0074
3501.25,0.0072
3501.00,0.0068
3500.75,0.0065
3500.50,0.0062
3500.25,0.0061
3500.00,0.0062
3499.75,0.0064
3499.50,0.0066
3499.25,0.0068
3499.00,0.0070
3498.75,0.0072
3498.50,0.0073
3498.25,0.0073
3498.00,0.0072
3497.75,0.0070
3497.50,0.0069
3497.25,0.0067
3497.00,0.0065
3496.75,0.0065
3496.50,0.0066
3496.25,0.0068
3496.00,0.0070
3495.75,0.0072
3495.50,0.0073
3495.25,0.0073
3495.00,0.0072
3494.75,0.0070
3494.50,0.0069
3494.25,0.0067
3494.00,0.0067
3493.75,0.0068
3493.50,0.0070
3493.25,0.0072
3493.00,0.0074
3492.75,0.0074
3492.50,0.0073
3492.25,0.0072
3492.00,0.0071
3491.75,0.0071
3491.50,0.0070
3491.25,0.0069
3491.00,0.0068
3490.75,0.0067
3490.50,0.0067
3490.25,0.0068
3490.00,0.0069
3489.75,0.0070
3489.50,0.0071
3489.25,0.0071
3489.00,0.0071
3488.75,0.0070
3488.50,0.0070
3488.25,0.0070
3488.00,0.0070
3487.75,0.0070
3487.50,0.0069
3487.25,0.0069
3487.00,0.0068
3486.75,0.0067
3486.50,0.0067
3486.25,0.0067
3486.00,0.0068
3485.75,0.0070
3485.50,0.0071
3485.25,0.0072
3485.00,0.0072
3484.75,0.0072
3484.50,0.0072
3484.25,0.0072
3484.00,0.0071
3483.75,0.0070
3483.50,0.0068
3483.25,0.0067
3483.00,0.0067
3482.75,0.0067
3482.50,0.0069
3482.25,0.0070
3482.00,0.0070
3481.75,0.0070
3481.50,0.0070
3481.25,0.0070
3481.00,0.0071
3480.75,0.0070
3480.50,0.0070
3480.25,0.0069
3480.00,0.0068
3479.75,0.0067
3479.50,0.0067
3479.25,0.0067
3479.00,0.0068
3478.75,0.0069
3478.50,0.0070
3478.25,0.0071
3478.00,0.0072
3477.75,0.0073
3477.50,0.0074
3477.25,0.0074
3477.00,0.0073
3476.75,0.0072
3476.50,0.0071
3476.25,0.0070
3476.00,0.0069
3475.75,0.0068
3475.50,0.0067
3475.25,0.0066
3475.00,0.0065
3474.75,0.0065
3474.50,0.0066
3474.25,0.0067
3474.00,0.0068
3473.75,0.0069
3473.50,0.0070
3473.25,0.0070
3473.00,0.0070
3472.75,0.0071
3472.50,0.0072
3472.25,0.0073
3472.00,0.0075
3471.75,0.0076
3471.50,0.0076
3471.25,0.0076
3471.00,0.0075
3470.75,0.0074
3470.50,0.0074
3470.25,0.0073
3470.00,0.0072
3469.75,0.0070
3469.50,0.0067
3469.25,0.0065
3469.00,0.0065
3468.75,0.0067
3468.50,0.0069
3468.25,0.0071
3468.00,0.0073
3467.75,0.0074
3467.50,0.0075
3467.25,0.0075
3467.00,0.0075
3466.75,0.0074
3466.50,0.0073
3466.25,0.0072
3466.00,0.0071
3465.75,0.0072
3465.50,0.0072
3465.25,0.0071
3465.00,0.0070
3464.75,0.0069
3464.50,0.0068
3464.25,0.0068
3464.00,0.0069
3463.75,0.0070
3463.50,0.0070
3463.25,0.0069
3463.00,0.0069
3462.75,0.0069
3462.50,0.0070
3462.25,0.0070
3462.00,0.0071
3461.75,0.0072
3461.50,0.0073
3461.25,0.0073
3461.00,0.0072
3460.75,0.0071
3460.50,0.0070
3460.25,0.0069
3460.00,0.0069
3459.75,0.0069
3459.50,0.0069
3459.25,0.0070
3459.00,0.0071
3458.75,0.0072
3458.50,0.0072
3458.25,0.0072
3458.00,0.0072
3457.75,0.0072
3457.50,0.0072
3457.25,0.0072
3457.00,0.0072
3456.75,0.0071
3456.50,0.0071
3456.25,0.0070
3456.00,0.0070
3455.75,0.0068
3455.50,0.0067
3455.25,0.0066
3455.00,0.0065
3454.75,0.0066
3454.50,0.0067
3454.25,0.0068
3454.00,0.0068
3453.75,0.0069
3453.50,0.0069
3453.25,0.0070
3453.00,0.0070
3452.75,0.0070
3452.50,0.0070
3452.25,0.0069
3452.00,0.0069
3451.75,0.0069
3451.50,0.0070
3451.25,0.0071
3451.00,0.0072
3450.75,0.0072
3450.50,0.0072
3450.25,0.0072
3450.00,0.0072
3449.75,0.0072
3449.50,0.0073
3449.25,0.0073
3449.00,0.0073
3448.75,0.0072
3448.50,0.0071
3448.25,0.0070
3448.00,0.0070
3447.75,0.0071
3447.50,0.0072
3447.25,0.0074
3447.00,0.0075
3446.75,0.0075
3446.50,0.0075
3446.25,0.0073
3446.00,0.0071
3445.75,0.0070
3445.50,0.0070
3445.25,0.0070
3445.00,0.0071
3444.75,0.0073
3444.50,0.0074
3444.25,0.0075
3444.00,0.0074
3443.75,0.0072
3443.50,0.0071
3443.25,0.0070
3443.00,0.0070
3442.75,0.0071
3442.50,0.0072
3442.25,0.0071
3442.00,0.0071
3441.75,0.0070
3441.50,0.0069
3441.25,0.0068
3441.00,0.0067
3440.75,0.0067
3440.50,0.0067
3440.25,0.0067
3440.00,0.0067
3439.75,0.0067
3439.50,0.0067
3439.25,0.0068
3439.00,0.0070
3438.75,0.0071
3438.50,0.0071
3438.25,0.0072
3438.00,0.0072
3437.75,0.0072
3437.50,0.0071
3437.25,0.0070
3437.00,0.0068
3436.75,0.0067
3436.50,0.0068
3436.25,0.0070
3436.00,0.0072
3435.75,0.0073
3435.50,0.0074
3435.25,0.0073
3435.00,0.0073
3434.75,0.0072
3434.50,0.0072
3434.25,0.0071
3434.00,0.0070
3433.75,0.0069
3433.50,0.0068
3433.25,0.0067
3433.00,0.0067
3432.75,0.0069
3432.50,0.0070
3432.25,0.0070
3432.00,0.0070
3431.75,0.0069
3431.50,0.0068
3431.25,0.0068
3431.00,0.0069
3430.75,0.0070
3430.50,0.0071
3430.25,0.0072
3430.00,0.0071
3429.75,0.0071
3429.50,0.0070
3429.25,0.0070
3429.00,0.0069
3428.75,0.0069
3428.50,0.0069
3428.25,0.0069
3428.00,0.0069
3427.75,0.0069
3427.50,0.0069
3427.25,0.0069
3427.00,0.0070
3426.75,0.0070
3426.50,0.0071
3426.25,0.0072
3426.00,0.0073
3425.75,0.0074
3425.50,0.0075
3425.25,0.0075
3425.00,0.0075
3424.75,0.0075
3424.50,0.0075
3424.25,0.0075
3424.00,0.0074
3423.75,0.0073
3423.50,0.0072
3423.25,0.0071
3423.00,0.0070
3422.75,0.0068
3422.50,0.0068
3422.25,0.0068
3422.00,0.0068
3421.75,0.0069
3421.50,0.0070
3421.25,0.0070
3421.00,0.0069
3420.75,0.0069
3420.50,0.0068
3420.25,0.0067
3420.00,0.0067
3419.75,0.0066
3419.50,0.0065
3419.25,0.0065
3419.00,0.0065
3418.75,0.0065
3418.50,0.0065
3418.25,0.0064
3418.00,0.0064
3417.75,0.0064
3417.50,0.0066
3417.25,0.0067
3417.00,0.0068
3416.75,0.0069
3416.50,0.0070
3416.25,0.0071
3416.00,0.0071
3415.75,0.0071
3415.50,0.0071
3415.25,0.0071
3415.00,0.0071
3414.75,0.0072
3414.50,0.0073
3414.25,0.0073
3414.00,0.0073
3413.75,0.0071
3413.50,0.0069
3413.25,0.0068
3413.00,0.0067
3412.75,0.0066
3412.50,0.0066
3412.25,0.0067
3412.00,0.0067
3411.75,0.0068
3411.50,0.0068
3411.25,0.0069
3411.00,0.0070
3410.75,0.0070
3410.50,0.0070
3410.25,0.0070
3410.00,0.0071
3409.75,0.0073
3409.50,0.0074
3409.25,0.0076
3409.00,0.0076
3408.75,0.0075
3408.50,0.0073
3408.25,0.0071
3408.00,0.0070
3407.75,0.0070
3407.50,0.0071
3407.25,0.0071
3407.00,0.0071
3406.75,0.0071
3406.50,0.0070
3406.25,0.0070
3406.00,0.0069
3405.75,0.0069
3405.50,0.0069
3405.25,0.0070
3405.00,0.0071
3404.75,0.0071
3404.50,0.0072
3404.25,0.0072
3404.00,0.0073
3403.75,0.0074
3403.50,0.0075
3403.25,0.0075
3403.00,0.0075
3402.75,0.0073
3402.50,0.0071
3402.25,0.0070
3402.00,0.0069
3401.75,0.0069
3401.50,0.0069
3401.25,0.0069
3401.00,0.0069
3400.75,0.0069
3400.50,0.0068
3400.25,0.0068
3400.00,0.0068
3399.75,0.0068
3399.50,0.0068
3399.25,0.0068
3399.00,0.0068
3398.75,0.0068
3398.50,0.0068
3398.25,0.0068
3398.00,0.0068
3397.75,0.0069
3397.50,0.0070
3397.25,0.0071
3397.00,0.0072
3396.75,0.0072
3396.50,0.0073
3396.25,0.0075
3396.00,0.0076
3395.75,0.0077
3395.50,0.0076
3395.25,0.0075
3395.00,0.0072
3394.75,0.0070
3394.50,0.0068
3394.25,0.0067
3394.00,0.0066
3393.75,0.0067
3393.50,0.0068
3393.25,0.0069
3393.00,0.0069
3392.75,0.0070
3392.50,0.0070
3392.25,0.0069
3392.00,0.0069
3391.75,0.0069
3391.50,0.0069
3391.25,0.0070
3391.00,0.0071
3390.75,0.0071
3390.50,0.0071
3390.25,0.0071
3390.00,0.0071
3389.75,0.0072
3389.50,0.0073
3389.25,0.0073
3389.00,0.0073
3388.75,0.0071
3388.50,0.0070
3388.25,0.0070
3388.00,0.0070
3387.75,0.0070
3387.50,0.0071
3387.25,0.0071
3387.00,0.0072
3386.75,0.0072
3386.50,0.0073
3386.25,0.0073
3386.00,0.0073
3385.75,0.0073
3385.50,0.0072
3385.25,0.0072
3385.00,0.0072
3384.75,0.0072
3384.50,0.0072
3384.25,0.0072
3384.00,0.0070
3383.75,0.0068
3383.50,0.0067
3383.25,0.0066
3383.00,0.0066
3382.75,0.0066
3382.50,0.0066
3382.25,0.0066
3382.00,0.0066
3381.75,0.0068
3381.50,0.0071
3381.25,0.0074
3381.00,0.0075
3380.75,0.0075
3380.50,0.0074
3380.25,0.0072
3380.00,0.0070
3379.75,0.0068
3379.50,0.0067
3379.25,0.0067
3379.00,0.0068
3378.75,0.0069
3378.50,0.0070
3378.25,0.0072
3378.00,0.0072
3377.75,0.0073
3377.50,0.0073
3377.25,0.0072
3377.00,0.0071
3376.75,0.0071
3376.50,0.0071
3376.25,0.0071
3376.00,0.0071
3375.75,0.0070
3375.50,0.0068
3375.25,0.0067
3375.00,0.0067
3374.75,0.0067
3374.50,0.0067
3374.25,0.0067
3374.00,0.0067
3373.75,0.0067
3373.50,0.0067
3373.25,0.0068
3373.00,0.0069
3372.75,0.0070
3372.50,0.0071
3372.25,0.0072
3372.00,0.0072
3371.75,0.0072
3371.50,0.0072
3371.25,0.0072
3371.00,0.0071
3370.75,0.0070
3370.50,0.0069
3370.25,0.0068
3370.00,0.0068
3369.75,0.0068
3369.50,0.0068
3369.25,0.0069
3369.00,0.0069
3368.75,0.0069
3368.50,0.0069
3368.25,0.0069
3368.00,0.0069
3367.75,0.0070
3367.50,0.0072
3367.25,0.0074
3367.00,0.0076
3366.75,0.0077
3366.50,0.0077
3366.25,0.0076
3366.00,0.0076
3365.75,0.0075
3365.50,0.0074
3365.25,0.0072
3365.00,0.0070
3364.75,0.0069
3364.50,0.0069
3364.25,0.0071
3364.00,0.0072
3363.75,0.0073
3363.50,0.0073
3363.25,0.0073
3363.00,0.0073
3362.75,0.0073
3362.50,0.0073
3362.25,0.0072
3362.00,0.0072
3361.75,0.0071
3361.50,0.0070
3361.25,0.0069
3361.00,0.0068
3360.75,0.0067
3360.50,0.0067
3360.25,0.0069
3360.00,0.0070
3359.75,0.0071
3359.50,0.0072
3359.25,0.0071
3359.00,0.0071
3358.75,0.0071
3358.50,0.0073
3358.25,0.0074
3358.00,0.0075
3357.75,0.0074
3357.50,0.0072
3357.25,0.0071
3357.00,0.0070
3356.75,0.0071
3356.50,0.0072
3356.25,0.0074
3356.00,0.0076
3355.75,0.0077
3355.50,0.0078
3355.25,0.0078
3355.00,0.0077
3354.75,0.0075
3354.50,0.0074
3354.25,0.0073
3354.00,0.0072
3353.75,0.0072
3353.50,0.0071
3353.25,0.0071
3353.00,0.0070
3352.75,0.0069
3352.50,0.0069
3352.25,0.0069
3352.00,0.0070
3351.75,0.0071
3351.50,0.0072
3351.25,0.0073
3351.00,0.0073
3350.75,0.0072
3350.50,0.0071
3350.25,0.0070
3350.00,0.0070
3349.75,0.0071
3349.50,0.0072
3349.25,0.0072
3349.00,0.0072
3348.75,0.0072
3348.50,0.0072
3348.25,0.0072
3348.00,0.0072
3347.75,0.0071
3347.50,0.0070
3347.25,0.0069
3347.00,0.0068
3346.75,0.0067
3346.50,0.0067
3346.25,0.0068
3346.00,0.0070
3345.75,0.0071
3345.50,0.0071
3345.25,0.0071
3345.00,0.0071
3344.75,0.0071
3344.50,0.0071
3344.25,0.0071
3344.00,0.0071
3343.75,0.0070
3343.50,0.0070
3343.25,0.0069
3343.00,0.0069
3342.75,0.0069
3342.50,0.0070
3342.25,0.0071
3342.00,0.0072
3341.75,0.0072
3341.50,0.0073
3341.25,0.0073
3341.00,0.0073
3340.75,0.0072
3340.50,0.0072
3340.25,0.0071
3340.00,0.0070
3339.75,0.0070
3339.50,0.0070
3339.25,0.0069
3339.00,0.0068
3338.75,0.0067
3338.50,0.0067
3338.25,0.0067
3338.00,0.0069
3337.75,0.0071
3337.50,0.0073
3337.25,0.0073
3337.00,0.0072
3336.75,0.0070
3336.50,0.0069
3336.25,0.0069
3336.00,0.0070
3335.75,0.0071
3335.50,0.0071
3335.25,0.0070
3335.00,0.0069
3334.75,0.0068
3334.50,0.0067
3334.25,0.0067
3334.00,0.0068
3333.75,0.0068
3333.50,0.0069
3333.25,0.0069
3333.00,0.0070
3332.75,0.0071
3332.50,0.0071
3332.25,0.0072
3332.00,0.0072
3331.75,0.0071
3331.50,0.0070
3331.25,0.0070
3331.00,0.0069
3330.75,0.0069
3330.50,0.0070
3330.25,0.0070
3330.00,0.0071
3329.75,0.0071
3329.50,0.0072
3329.25,0.0072
3329.00,0.0072
3328.75,0.0072
3328.50,0.0072
3328.25,0.0072
3328.00,0.0071
3327.75,0.0070
3327.50,0.0069
3327.25,0.0069
3327.00,0.0070
3326.75,0.0071
3326.50,0.0071
3326.25,0.0071
3326.00,0.0071
3325.75,0.0071
3325.50,0.0072
3325.25,0.0071
3325.00,0.0071
3324.75,0.0070
3324.50,0.0070
3324.25,0.0070
3324.00,0.0070
3323.75,0.0070
3323.50,0.0070
3323.25,0.0070
3323.00,0.0070
3322.75,0.0069
3322.50,0.0069
3322.25,0.0069
3322.00,0.0070
3321.75,0.0071
3321.50,0.0071
3321.25,0.0071
3321.00,0.0071
3320.75,0.0070
3320.50,0.0069
3320.25,0.0069
3320.00,0.0069
3319.75,0.0069
3319.50,0.0070
3319.25,0.0071
3319.00,0.0071
3318.75,0.0072
3318.50,0.0072
3318.25,0.0072
3318.00,0.0073
3317.75,0.0073
3317.50,0.0073
3317.25,0.0072
3317.00,0.0070
3316.75,0.0068
3316.50,0.0066
3316.25,0.0065
3316.00,0.0065
3315.75,0.0066
3315.50,0.0067
3315.25,0.0068
3315.00,0.0069
3314.75,0.0070
3314.50,0.0071
3314.25,0.0071
3314.00,0.0071
3313.75,0.0071
3313.50,0.0071
3313.25,0.0072
3313.00,0.0072
3312.75,0.0071
3312.50,0.0070
3312.25,0.0069
3312.00,0.0069
3311.75,0.0070
3311.50,0.0070
3311.25,0.0071
3311.00,0.0071
3310.75,0.0071
3310.50,0.0072
3310.25,0.0072
3310.00,0.0072
3309.75,0.0072
3309.50,0.0071
3309.25,0.0069
3309.00,0.0068
3308.75,0.0067
3308.50,0.0066
3308.25,0.0067
3308.00,0.0068
3307.75,0.0069
3307.50,0.0070
3307.25,0.0071
3307.00,0.0072
3306.75,0.0073
3306.50,0.0074
3306.25,0.0074
3306.00,0.0073
3305.75,0.0072
3305.50,0.0071
3305.25,0.0070
3305.00,0.0070
3304.75,0.0071
3304.50,0.0071
3304.25,0.0072
3304.00,0.0072
3303.75,0.0072
3303.50,0.0072
3303.25,0.0072
3303.00,0.0072
3302.75,0.0072
3302.50,0.0072
3302.25,0.0072
3302.00,0.0071
3301.75,0.0070
3301.50,0.0068
3301.25,0.0067
3301.00,0.0065
3300.75,0.0064
3300.50,0.0064
3300.25,0.0064
3300.00,0.0065
3299.75,0.0067
3299.50,0.0069
3299.25,0.0071
3299.00,0.0071
3298.75,0.0071
3298.50,0.0070
3298.25,0.0069
3298.00,0.0067
3297.75,0.0066
3297.50,0.0065
3297.25,0.0065
3297.00,0.0065
3296.75,0.0067
3296.50,0.0068
3296.25,0.0070
3296.00,0.0072
3295.75,0.0072
3295.50,0.0072
3295.25,0.0071
3295.00,0.0071
3294.75,0.0072
3294.50,0.0073
3294.25,0.0074
3294.00,0.0075
3293.75,0.0075
3293.50,0.0074
3293.25,0.0072
3293.00,0.0070
3292.75,0.0069
3292.50,0.0068
3292.25,0.0067
3292.00,0.0067
3291.75,0.0067
3291.50,0.0067
3291.25,0.0068
3291.00,0.0069
3290.75,0.0070
3290.50,0.0071
3290.25,0.0072
3290.00,0.0073
3289.75,0.0074
3289.50,0.0074
3289.25,0.0072
3289.00,0.0070
3288.75,0.0068
3288.50,0.0066
3288.25,0.0066
3288.00,0.0066
3287.75,0.0067
3287.50,0.0068
3287.25,0.0069
3287.00,0.0071
3286.75,0.0072
3286.50,0.0072
3286.25,0.0071
3286.00,0.0070
3285.75,0.0069
3285.50,0.0068
3285.25,0.0067
3285.00,0.0067
3284.75,0.0067
3284.50,0.0069
3284.25,0.0070
3284.00,0.0071
3283.75,0.0071
3283.50,0.0071
3283.25,0.0070
3283.00,0.0070
3282.75,0.0069
3282.50,0.0070
3282.25,0.0071
3282.00,0.0072
3281.75,0.0073
3281.50,0.0073
3281.25,0.0073
3281.00,0.0073
3280.75,0.0072
3280.50,0.0072
3280.25,0.0072
3280.00,0.0072
3279.75,0.0072
3279.50,0.0072
3279.25,0.0071
3279.00,0.0070
3278.75,0.0071
3278.50,0.0071
3278.25,0.0073
3278.00,0.0074
3277.75,0.0074
3277.50,0.0073
3277.25,0.0071
3277.00,0.0070
3276.75,0.0068
3276.50,0.0067
3276.25,0.0067
3276.00,0.0067
3275.75,0.0067
3275.50,0.0068
3275.25,0.0068
3275.00,0.0068
3274.75,0.0069
3274.50,0.0070
3274.25,0.0071
3274.00,0.0072
3273.75,0.0072
3273.50,0.0072
3273.25,0.0071
3273.00,0.0069
3272.75,0.0068
3272.50,0.0068
3272.25,0.0068
3272.00,0.0069
3271.75,0.0070
3271.50,0.0070
3271.25,0.0069
3271.00,0.0068
3270.75,0.0067
3270.50,0.0067
3270.25,0.0067
3270.00,0.0068
3269.75,0.0069
3269.50,0.0070
3269.25,0.0071
3269.00,0.0071
3268.75,0.0071
3268.50,0.0070
3268.25,0.0070
3268.00,0.0070
3267.75,0.0070
3267.50,0.0071
3267.25,0.0071
3267.00,0.0072
3266.75,0.0072
3266.50,0.0072
3266.25,0.0072
3266.00,0.0072
3265.75,0.0072
3265.50,0.0072
3265.25,0.0072
3265.00,0.0072
3264.75,0.0071
3264.50,0.0071
3264.25,0.0071
3264.00,0.0072
3263.75,0.0072
3263.50,0.0071
3263.25,0.0071
3263.00,0.0070
3262.75,0.0069
3262.50,0.0069
3262.25,0.0069
3262.00,0.0070
3261.75,0.0070
3261.50,0.0070
3261.25,0.0070
3261.00,0.0069
3260.75,0.0069
3260.50,0.0069
3260.25,0.0069
3260.00,0.0070
3259.75,0.0070
3259.50,0.0070
3259.25,0.0070
3259.00,0.0071
3258.75,0.0072
3258.50,0.0073
3258.25,0.0074
3258.00,0.0075
3257.75,0.0074
3257.50,0.0073
3257.25,0.0071
3257.00,0.0070
3256.75,0.0069
3256.50,0.0070
3256.25,0.0071
3256.00,0.0073
3255.75,0.0074
3255.50,0.0073
3255.25,0.0072
3255.00,0.0071
3254.75,0.0070
3254.50,0.0070
3254.25,0.0071
3254.00,0.0072
3253.75,0.0072
3253.50,0.0072
3253.25,0.0071
3253.00,0.0072
3252.75,0.0072
3252.50,0.0073
3252.25,0.0073
3252.00,0.0074
3251.75,0.0074
3251.50,0.0074
3251.25,0.0073
3251.00,0.0073
3250.75,0.0072
3250.50,0.0071
3250.25,0.0071
3250.00,0.0071
3249.75,0.0072
3249.50,0.0072
3249.25,0.0073
3249.00,0.0072
3248.75,0.0072
3248.50,0.0072
3248.25,0.0072
3248.00,0.0071
3247.75,0.0071
3247.50,0.0071
3247.25,0.0071
3247.00,0.0070
3246.75,0.0070
3246.50,0.0070
3246.25,0.0070
3246.00,0.0069
3245.75,0.0068
3245.50,0.0067
3245.25,0.0067
3245.00,0.0068
3244.75,0.0069
3244.50,0.0070
3244.25,0.0071
3244.00,0.0071
3243.75,0.0071
3243.50,0.0070
3243.25,0.0070
3243.00,0.0069
3242.75,0.0069
3242.50,0.0068
3242.25,0.0068
3242.00,0.0067
3241.75,0.0066
3241.50,0.0066
3241.25,0.0067
3241.00,0.0068
3240.75,0.0069
3240.50,0.0070
3240.25,0.0070
3240.00,0.0069
3239.75,0.0069
3239.50,0.0070
3239.25,0.0070
3239.00,0.0070
3238.75,0.0069
3238.50,0.0068
3238.25,0.0068
3238.00,0.0069
3237.75,0.0069
3237.50,0.0069
3237.25,0.0068
3237.00,0.0066
3236.75,0.0065
3236.50,0.0064
3236.25,0.0065
3236.00,0.0067
3235.75,0.0069
3235.50,0.0070
3235.25,0.0070
3235.00,0.0070
3234.75,0.0069
3234.50,0.0069
3234.25,0.0069
3234.00,0.0069
3233.75,0.0068
3233.50,0.0068
3233.25,0.0067
3233.00,0.0068
3232.75,0.0068
3232.50,0.0067
3232.25,0.0066
3232.00,0.0066
3231.75,0.0065
3231.50,0.0065
3231.25,0.0065
3231.00,0.0065
3230.75,0.0065
3230.50,0.0066
3230.25,0.0067
3230.00,0.0068
3229.75,0.0070
3229.50,0.0071
3229.25,0.0072
3229.00,0.0073
3228.75,0.0073
3228.50,0.0073
3228.25,0.0073
3228.00,0.0072
3227.75,0.0071
3227.50,0.0070
3227.25,0.0069
3227.00,0.0068
3226.75,0.0068
3226.50,0.0068
3226.25,0.0069
3226.00,0.0069
3225.75,0.0070
3225.50,0.0071
3225.25,0.0072
3225.00,0.0073
3224.75,0.0072
3224.50,0.0071
3224.25,0.0070
3224.00,0.0069
3223.75,0.0068
3223.50,0.0067
3223.25,0.0067
3223.00,0.0067
3222.75,0.0067
3222.50,0.0068
3222.25,0.0070
3222.00,0.0071
3221.75,0.0072
3221.50,0.0072
3221.25,0.0073
3221.00,0.0073
3220.75,0.0072
3220.50,0.0070
3220.25,0.0069
3220.00,0.0068
3219.75,0.0068
3219.50,0.0068
3219.25,0.0068
3219.00,0.0068
3218.75,0.0068
3218.50,0.0067
3218.25,0.0066
3218.00,0.0066
3217.75,0.0065
3217.50,0.0065
3217.25,0.0066
3217.00,0.0067
3216.75,0.0069
3216.50,0.0070
3216.25,0.0070
3216.00,0.0070
3215.75,0.0070
3215.50,0.0070
3215.25,0.0070
3215.00,0.0071
3214.75,0.0071
3214.50,0.0071
3214.25,0.0071
3214.00,0.0071
3213.75,0.0069
3213.50,0.0068
3213.25,0.0067
3213.00,0.0067
3212.75,0.0067
3212.50,0.0067
3212.25,0.0068
3212.00,0.0069
3211.75,0.0070
3211.50,0.0071
3211.25,0.0071
3211.00,0.0070
3210.75,0.0069
3210.50,0.0068
3210.25,0.0068
3210.00,0.0068
3209.75,0.0069
3209.50,0.0071
3209.25,0.0071
3209.00,0.0071
3208.75,0.0071
3208.50,0.0070
3208.25,0.0069
3208.00,0.0068
3207.75,0.0068
3207.50,0.0068
3207.25,0.0068
3207.00,0.0068
3206.75,0.0068
3206.50,0.0068
3206.25,0.0068
3206.00,0.0068
3205.75,0.0068
3205.50,0.0067
3205.25,0.0068
3205.00,0.0068
3204.75,0.0069
3204.50,0.0069
3204.25,0.0070
3204.00,0.0070
3203.75,0.0070
3203.50,0.0070
3203.25,0.0069
3203.00,0.0069
3202.75,0.0069
3202.50,0.0069
3202.25,0.0070
3202.00,0.0070
3201.75,0.0070
3201.50,0.0069
3201.25,0.0069
3201.00,0.0069
3200.75,0.0070
3200.50,0.0070
3200.25,0.0070
3200.00,0.0069
3199.75,0.0068
3199.50,0.0066
3199.25,0.0064
3199.00,0.0063
3198.75,0.0062
3198.50,0.0062
3198.25,0.0063
3198.00,0.0065
3197.75,0.0067
3197.50,0.0068
3197.25,0.0068
3197.00,0.0067
3196.75,0.0065
3196.50,0.0065
3196.25,0.0064
3196.00,0.0064
3195.75,0.0065
3195.50,0.0066
3195.25,0.0068
3195.00,0.0070
3194.75,0.0071
3194.50,0.0071
3194.25,0.0071
3194.00,0.0071
3193.75,0.0071
3193.50,0.0071
3193.25,0.0071
3193.00,0.0070
3192.75,0.0069
3192.50,0.0068
3192.25,0.0068
3192.00,0.0067
3191.75,0.0067
3191.50,0.0067
3191.25,0.0067
3191.00,0.0068
3190.75,0.0068
3190.50,0.0067
3190.25,0.0066
3190.00,0.0066
3189.75,0.0066
3189.50,0.0067
3189.25,0.0068
3189.00,0.0069
3188.75,0.0069
3188.50,0.0069
3188.25,0.0069
3188.00,0.0069
3187.75,0.0069
3187.50,0.0069
3187.25,0.0069
3187.00,0.0070
3186.75,0.0070
3186.50,0.0070
3186.25,0.0070
3186.00,0.0068
3185.75,0.0067
3185.50,0.0067
3185.25,0.0067
3185.00,0.0068
3184.75,0.0068
3184.50,0.0068
3184.25,0.0068
3184.00,0.0068
3183.75,0.0068
3183.50,0.0068
3183.25,0.0067
3183.00,0.0066
3182.75,0.0065
3182.50,0.0064
3182.25,0.0064
3182.00,0.0064
3181.75,0.0065
3181.50,0.0068
3181.25,0.0070
3181.00,0.0071
3180.75,0.0071
3180.50,0.0070
3180.25,0.0069
3180.00,0.0068
3179.75,0.0068
3179.50,0.0067
3179.25,0.0066
3179.00,0.0065
3178.75,0.0065
3178.50,0.0066
3178.25,0.0067
3178.00,0.0068
3177.75,0.0069
3177.50,0.0070
3177.25,0.0070
3177.00,0.0070
3176.75,0.0070
3176.50,0.0070
3176.25,0.0070
3176.00,0.0070
3175.75,0.0071
3175.50,0.0072
3175.25,0.0073
3175.00,0.0073
3174.75,0.0073
3174.50,0.0072
3174.25,0.0071
3174.00,0.0070
3173.75,0.0069
3173.50,0.0068
3173.25,0.0067
3173.00,0.0068
3172.75,0.0068
3172.50,0.0069
3172.25,0.0069
3172.00,0.0069
3171.75,0.0068
3171.50,0.0067
3171.25,0.0067
3171.00,0.0067
3170.75,0.0068
3170.50,0.0068
3170.25,0.0067
3170.00,0.0066
3169.75,0.0065
3169.50,0.0065
3169.25,0.0066
3169.00,0.0067
3168.75,0.0068
3168.50,0.0069
3168.25,0.0068
3168.00,0.0068
3167.75,0.0067
3167.50,0.0067
3167.25,0.0066
3167.00,0.0066
3166.75,0.0067
3166.50,0.0068
3166.25,0.0069
3166.00,0.0070
3165.75,0.0070
3165.50,0.0070
3165.25,0.0070
3165.00,0.0070
3164.75,0.0070
3164.50,0.0069
3164.25,0.0067
3164.00,0.0066
3163.75,0.0064
3163.50,0.0063
3163.25,0.0063
3163.00,0.0063
3162.75,0.0064
3162.50,0.0064
3162.25,0.0065
3162.00,0.0065
3161.75,0.0065
3161.50,0.0064
3161.25,0.0065
3161.00,0.0066
3160.75,0.0067
3160.50,0.0069
3160.25,0.0071
3160.00,0.0072
3159.75,0.0072
3159.50,0.0071
3159.25,0.0071
3159.00,0.0071
3158.75,0.0070
3158.50,0.0070
3158.25,0.0069
3158.00,0.0068
3157.75,0.0067
3157.50,0.0066
3157.25,0.0066
3157.00,0.0067
3156.75,0.0069
3156.50,0.0070
3156.25,0.0071
3156.00,0.0071
3155.75,0.0071
3155.50,0.0071
3155.25,0.0072
3155.00,0.0073
3154.75,0.0073
3154.50,0.0073
3154.25,0.0073
3154.00,0.0072
3153.75,0.0071
3153.50,0.0070
3153.25,0.0070
3153.00,0.0070
3152.75,0.0070
3152.50,0.0071
3152.25,0.0071
3152.00,0.0071
3151.75,0.0070
3151.50,0.0070
3151.25,0.0069
3151.00,0.0068
3150.75,0.0068
3150.50,0.0069
3150.25,0.0069
3150.00,0.0070
3149.75,0.0070
3149.50,0.0070
3149.25,0.0071
3149.00,0.0071
3148.75,0.0071
3148.50,0.0071
3148.25,0.0071
3148.00,0.0070
3147.75,0.0069
3147.50,0.0068
3147.25,0.0067
3147.00,0.0067
3146.75,0.0068
3146.50,0.0069
3146.25,0.0070
3146.00,0.0071
3145.75,0.0072
3145.50,0.0072
3145.25,0.0071
3145.00,0.0070
3144.75,0.0069
3144.50,0.0067
3144.25,0.0066
3144.00,0.0065
3143.75,0.0064
3143.50,0.0064
3143.25,0.0065
3143.00,0.0066
3142.75,0.0066
3142.50,0.0066
3142.25,0.0067
3142.00,0.0068
3141.75,0.0069
3141.50,0.0070
3141.25,0.0070
3141.00,0.0071
3140.75,0.0072
3140.50,0.0072
3140.25,0.0072
3140.00,0.0071
3139.75,0.0070
3139.50,0.0069
3139.25,0.0069
3139.00,0.0069
3138.75,0.0069
3138.50,0.0069
3138.25,0.0068
3138.00,0.0068
3137.75,0.0067
3137.50,0.0067
3137.25,0.0067
3137.00,0.0068
3136.75,0.0069
3136.50,0.0069
3136.25,0.0069
3136.00,0.0069
3135.75,0.0068
3135.50,0.0068
3135.25,0.0068
3135.00,0.0069
3134.75,0.0069
3134.50,0.0069
3134.25,0.0069
3134.00,0.0068
3133.75,0.0067
3133.50,0.0066
3133.25,0.0066
3133.00,0.0065
3132.75,0.0066
3132.50,0.0068
3132.25,0.0069
3132.00,0.0070
3131.75,0.0071
3131.50,0.0071
3131.25,0.0072
3131.00,0.0072
3130.75,0.0071
3130.50,0.0071
3130.25,0.0071
3130.00,0.0070
3129.75,0.0069
3129.50,0.0068
3129.25,0.0067
3129.00,0.0066
3128.75,0.0066
3128.50,0.0066
3128.25,0.0066
3128.00,0.0067
3127.75,0.0067
3127.50,0.0068
3127.25,0.0069
3127.00,0.0069
3126.75,0.0070
3126.50,0.0071
3126.25,0.0071
3126.00,0.0070
3125.75,0.0069
3125.50,0.0069
3125.25,0.0068
3125.00,0.0068
3124.75,0.0068
3124.50,0.0068
3124.25,0.0068
3124.00,0.0069
3123.75,0.0069
3123.50,0.0069
3123.25,0.0069
3123.00,0.0069
3122.75,0.0069
3122.50,0.0068
3122.25,0.0068
3122.00,0.0067
3121.75,0.0067
3121.50,0.0068
3121.25,0.0069
3121.00,0.0070
3120.75,0.0070
3120.50,0.0070
3120.25,0.0070
3120.00,0.0070
3119.75,0.0069
3119.50,0.0069
3119.25,0.0068
3119.00,0.0068
3118.75,0.0068
3118.50,0.0068
3118.25,0.0068
3118.00,0.0067
3117.75,0.0066
3117.50,0.0066
3117.25,0.0066
3117.00,0.0066
3116.75,0.0066
3116.50,0.0066
3116.25,0.0067
3116.00,0.0068
3115.75,0.0068
3115.50,0.0068
3115.25,0.0069
3115.00,0.0070
3114.75,0.0071
3114.50,0.0071
3114.25,0.0070
3114.00,0.0068
3113.75,0.0067
3113.50,0.0065
3113.25,0.0064
3113.00,0.0065
3112.75,0.0065
3112.50,0.0066
3112.25,0.0067
3112.00,0.0068
3111.75,0.0068
3111.50,0.0068
3111.25,0.0068
3111.00,0.0068
3110.75,0.0069
3110.50,0.0071
3110.25,0.0072
3110.00,0.0073
3109.75,0.0073
3109.50,0.0071
3109.25,0.0070
3109.00,0.0069
3108.75,0.0068
3108.50,0.0067
3108.25,0.0066
3108.00,0.0066
3107.75,0.0066
3107.50,0.0067
3107.25,0.0068
3107.00,0.0069
3106.75,0.0069
3106.50,0.0068
3106.25,0.0068
3106.00,0.0068
3105.75,0.0068
3105.50,0.0067
3105.25,0.0066
3105.00,0.0064
3104.75,0.0063
3104.50,0.0063
3104.25,0.0063
3104.00,0.0064
3103.75,0.0065
3103.50,0.0065
3103.25,0.0065
3103.00,0.0065
3102.75,0.0065
3102.50,0.0065
3102.25,0.0064
3102.00,0.0064
3101.75,0.0064
3101.50,0.0064
3101.25,0.0066
3101.00,0.0067
3100.75,0.0067
3100.50,0.0067
3100.25,0.0067
3100.00,0.0067
3099.75,0.0066
3099.50,0.0066
3099.25,0.0065
3099.00,0.0065
3098.75,0.0064
3098.50,0.0064
3098.25,0.0063
3098.00,0.0064
3097.75,0.0065
3097.50,0.0067
3097.25,0.0069
3097.00,0.0070
3096.75,0.0069
3096.50,0.0069
3096.25,0.0068
3096.00,0.0068
3095.75,0.0068
3095.50,0.0067
3095.25,0.0066
3095.00,0.0066
3094.75,0.0065
3094.50,0.0065
3094.25,0.0064
3094.00,0.0063
3093.75,0.0063
3093.50,0.0063
3093.25,0.0064
3093.00,0.0065
3092.75,0.0065
3092.50,0.0066
3092.25,0.0066
3092.00,0.0066
3091.75,0.0065
3091.50,0.0065
3091.25,0.0065
3091.00,0.0066
3090.75,0.0066
3090.50,0.0065
3090.25,0.0064
3090.00,0.0062
3089.75,0.0060
3089.50,0.0059
3089.25,0.0060
3089.00,0.0061
3088.75,0.0063
3088.50,0.0065
3088.25,0.0068
3088.00,0.0069
3087.75,0.0068
3087.50,0.0067
3087.25,0.0065
3087.00,0.0064
3086.75,0.0063
3086.50,0.0064
3086.25,0.0065
3086.00,0.0066
3085.75,0.0065
3085.50,0.0064
3085.25,0.0063
3085.00,0.0062
3084.75,0.0062
3084.50,0.0062
3084.25,0.0062
3084.00,0.0062
3083.75,0.0062
3083.50,0.0063
3083.25,0.0063
3083.00,0.0064
3082.75,0.0063
3082.50,0.0063
3082.25,0.0063
3082.00,0.0063
3081.75,0.0064
3081.50,0.0065
3081.25,0.0065
3081.00,0.0065
3080.75,0.0065
3080.50,0.0064
3080.25,0.0063
3080.00,0.0062
3079.75,0.0062
3079.50,0.0062
3079.25,0.0062
3079.00,0.0063
3078.75,0.0063
3078.50,0.0064
3078.25,0.0064
3078.00,0.0065
3077.75,0.0066
3077.50,0.0067
3077.25,0.0067
3077.00,0.0067
3076.75,0.0067
3076.50,0.0065
3076.25,0.0064
3076.00,0.0064
3075.75,0.0064
3075.50,0.0064
3075.25,0.0064
3075.00,0.0064
3074.75,0.0064
3074.50,0.0063
3074.25,0.0062
3074.00,0.0062
3073.75,0.0062
3073.50,0.0062
3073.25,0.0062
3073.00,0.0061
3072.75,0.0060
3072.50,0.0060
3072.25,0.0061
3072.00,0.0062
3071.75,0.0064
3071.50,0.0066
3071.25,0.0068
3071.00,0.0068
3070.75,0.0067
3070.50,0.0067
3070.25,0.0066
3070.00,0.0066
3069.75,0.0065
3069.50,0.0063
3069.25,0.0062
3069.00,0.0061
3068.75,0.0061
3068.50,0.0061
3068.25,0.0062
3068.00,0.0063
3067.75,0.0063
3067.50,0.0064
3067.25,0.0064
3067.00,0.0065
3066.75,0.0065
3066.50,0.0064
3066.25,0.0064
3066.00,0.0063
3065.75,0.0062
3065.50,0.0062
3065.25,0.0063
3065.00,0.0063
3064.75,0.0063
3064.50,0.0063
3064.25,0.0063
3064.00,0.0064
3063.75,0.0065
3063.50,0.0065
3063.25,0.0066
3063.00,0.0066
3062.75,0.0065
3062.50,0.0063
3062.25,0.0062
3062.00,0.0062
3061.75,0.0062
3061.50,0.0063
3061.25,0.0064
3061.00,0.0066
3060.75,0.0066
3060.50,0.0067
3060.25,0.0066
3060.00,0.0065
3059.75,0.0065
3059.50,0.0065
3059.25,0.0065
3059.00,0.0065
3058.75,0.0065
3058.50,0.0065
3058.25,0.0064
3058.00,0.0064
3057.75,0.0064
3057.50,0.0065
3057.25,0.0066
3057.00,0.0066
3056.75,0.0066
3056.50,0.0065
3056.25,0.0064
3056.00,0.0063
3055.75,0.0063
3055.50,0.0063
3055.25,0.0064
3055.00,0.0065
3054.75,0.0065
3054.50,0.0065
3054.25,0.0065
3054.00,0.0065
3053.75,0.0064
3053.50,0.0064
3053.25,0.0063
3053.00,0.0062
3052.75,0.0062
3052.50,0.0062
3052.25,0.0063
3052.00,0.0065
3051.75,0.0066
3051.50,0.0067
3051.25,0.0066
3051.00,0.0065
3050.75,0.0063
3050.50,0.0061
3050.25,0.0059
3050.00,0.0059
3049.75,0.0059
3049.50,0.0060
3049.25,0.0060
3049.00,0.0060
3048.75,0.0060
3048.50,0.0059
3048.25,0.0059
3048.00,0.0060
3047.75,0.0062
3047.50,0.0063
3047.25,0.0064
3047.00,0.0063
3046.75,0.0061
3046.50,0.0059
3046.25,0.0058
3046.00,0.0058
3045.75,0.0058
3045.50,0.0058
3045.25,0.0058
3045.00,0.0059
3044.75,0.0060
3044.50,0.0060
3044.25,0.0060
3044.00,0.0058
3043.75,0.0055
3043.50,0.0053
3043.25,0.0051
3043.00,0.0051
3042.75,0.0052
3042.50,0.0053
3042.25,0.0055
3042.00,0.0057
3041.75,0.0058
3041.50,0.0059
3041.25,0.0059
3041.00,0.0059
3040.75,0.0058
3040.50,0.0058
3040.25,0.0058
3040.00,0.0059
3039.75,0.0059
3039.50,0.0059
3039.25,0.0058
3039.00,0.0057
3038.75,0.0057
3038.50,0.0057
3038.25,0.0058
3038.00,0.0059
3037.75,0.0059
3037.50,0.0060
3037.25,0.0060
3037.00,0.0059
3036.75,0.0059
3036.50,0.0059
3036.25,0.0059
3036.00,0.0059
3035.75,0.0060
3035.50,0.0061
3035.25,0.0061
3035.00,0.0060
3034.75,0.0059
3034.50,0.0057
3034.25,0.0056
3034.00,0.0056
3033.75,0.0056
3033.50,0.0056
3033.25,0.0056
3033.00,0.0055
3032.75,0.0054
3032.50,0.0054
3032.25,0.0054
3032.00,0.0056
3031.75,0.0057
3031.50,0.0057
3031.25,0.0057
3031.00,0.0056
3030.75,0.0055
3030.50,0.0055
3030.25,0.0056
3030.00,0.0057
3029.75,0.0059
3029.50,0.0059
3029.25,0.0058
3029.00,0.0058
3028.75,0.0058
3028.50,0.0059
3028.25,0.0060
3028.00,0.0061
3027.75,0.0062
3027.50,0.0062
3027.25,0.0061
3027.00,0.0060
3026.75,0.0059
3026.50,0.0059
3026.25,0.0058
3026.00,0.0058
3025.75,0.0059
3025.50,0.0059
3025.25,0.0060
3025.00,0.0061
3024.75,0.0062
3024.50,0.0064
3024.25,0.0065
3024.00,0.0066
3023.75,0.0067
3023.50,0.0067
3023.25,0.0066
3023.00,0.0066
3022.75,0.0065
3022.50,0.0065
3022.25,0.0065
3022.00,0.0064
3021.75,0.0064
3021.50,0.0064
3021.25,0.0063
3021.00,0.0064
3020.75,0.0064
3020.50,0.0065
3020.25,0.0065
3020.00,0.0065
3019.75,0.0065
3019.50,0.0065
3019.25,0.0066
3019.00,0.0067
3018.75,0.0067
3018.50,0.0068
3018.25,0.0069
3018.00,0.0070
3017.75,0.0070
3017.50,0.0071
3017.25,0.0071
3017.00,0.0070
3016.75,0.0070
3016.50,0.0069
3016.25,0.0068
3016.00,0.0066
3015.75,0.0065
3015.50,0.0064
3015.25,0.0063
3015.00,0.0064
3014.75,0.0065
3014.50,0.0067
3014.25,0.0068
3014.00,0.0069
3013.75,0.0070
3013.50,0.0069
3013.25,0.0069
3013.00,0.0068
3012.75,0.0067
3012.50,0.0066
3012.25,0.0065
3012.00,0.0064
3011.75,0.0064
3011.50,0.0065
3011.25,0.0067
3011.00,0.0068
3010.75,0.0070
3010.50,0.0071
3010.25,0.0071
3010.00,0.0071
3009.75,0.0069
3009.50,0.0068
3009.25,0.0068
3009.00,0.0067
3008.75,0.0067
3008.50,0.0068
3008.25,0.0068
3008.00,0.0069
3007.75,0.0071
3007.50,0.0072
3007.25,0.0073
3007.00,0.0072
3006.75,0.0071
3006.50,0.0070
3006.25,0.0069
3006.00,0.0070
3005.75,0.0070
3005.50,0.0071
3005.25,0.0071
3005.00,0.0070
3004.75,0.0069
3004.50,0.0068
3004.25,0.0067
3004.00,0.0067
3003.75,0.0068
3003.50,0.0070
3003.25,0.0072
3003.00,0.0074
3002.75,0.0075
3002.50,0.0075
3002.25,0.0075
3002.00,0.0075
3001.75,0.0075
3001.50,0.0076
3001.25,0.0076
3001.00,0.0076
3000.75,0.0075
3000.50,0.0073
3000.25,0.0072
3000.00,0.0072
2999.75,0.0071
2999.50,0.0070
2999.25,0.0069
2999.00,0.0069
2998.75,0.0070
2998.50,0.0072
2998.25,0.0074
2998.00,0.0075
2997.75,0.0075
2997.50,0.0075
2997.25,0.0076
2997.00,0.0077
2996.75,0.0078
2996.50,0.0079
2996.25,0.0079
2996.00,0.0079
2995.75,0.0078
2995.50,0.0079
2995.25,0.0080
2995.00,0.0080
2994.75,0.0080
2994.50,0.0079
2994.25,0.0077
2994.00,0.0077
2993.75,0.0077
2993.50,0.0078
2993.25,0.0078
2993.00,0.0079
2992.75,0.0079
2992.50,0.0080
2992.25,0.0081
2992.00,0.0082
2991.75,0.0083
2991.50,0.0083
2991.25,0.0082
2991.00,0.0081
2990.75,0.0079
2990.50,0.0078
2990.25,0.0078
2990.00,0.0079
2989.75,0.0081
2989.50,0.0083
2989.25,0.0086
2989.00,0.0088
2988.75,0.0088
2988.50,0.0087
2988.25,0.0086
2988.00,0.0086
2987.75,0.0086
2987.50,0.0087
2987.25,0.0089
2987.00,0.0090
2986.75,0.0091
2986.50,0.0092
2986.25,0.0092
2986.00,0.0093
2985.75,0.0093
2985.50,0.0094
2985.25,0.0094
2985.00,0.0096
2984.75,0.0097
2984.50,0.0098
2984.25,0.0099
2984.00,0.0099
2983.75,0.0099
2983.50,0.0099
2983.25,0.0099
2983.00,0.0100
2982.75,0.0102
2982.50,0.0103
2982.25,0.0105
2982.00,0.0107
2981.75,0.0108
2981.50,0.0109
2981.25,0.0110
2981.00,0.0110
2980.75,0.0110
2980.50,0.0111
2980.25,0.0112
2980.00,0.0114
2979.75,0.0117
2979.50,0.0120
2979.25,0.0124
2979.00,0.0127
2978.75,0.0129
2978.50,0.0131
2978.25,0.0133
2978.00,0.0133
2977.75,0.0133
2977.50,0.0134
2977.25,0.0135
2977.00,0.0137
2976.75,0.0140
2976.50,0.0142
2976.25,0.0144
2976.00,0.0145
2975.75,0.0147
2975.50,0.0149
2975.25,0.0152
2975.00,0.0155
2974.75,0.0159
2974.50,0.0163
2974.25,0.0167
2974.00,0.0170
2973.75,0.0173
2973.50,0.0176
2973.25,0.0179
2973.00,0.0182
2972.75,0.0186
2972.50,0.0189
2972.25,0.0194
2972.00,0.0199
2971.75,0.0204
2971.50,0.0209
2971.25,0.0215
2971.00,0.0220
2970.75,0.0225
2970.50,0.0231
2970.25,0.0236
2970.00,0.0241
2969.75,0.0244
2969.50,0.0248
2969.25,0.0251
2969.00,0.0255
2968.75,0.0260
2968.50,0.0265
2968.25,0.0271
2968.00,0.0277
2967.75,0.0282
2967.50,0.0288
2967.25,0.0293
2967.00,0.0299
2966.75,0.0304
2966.50,0.0309
2966.25,0.0313
2966.00,0.0318
2965.75,0.0323
2965.50,0.0328
2965.25,0.0332
2965.00,0.0337
2964.75,0.0341
2964.50,0.0346
2964.25,0.0350
2964.00,0.0354
2963.75,0.0357
2963.50,0.0360
2963.25,0.0361
2963.00,0.0363
2962.75,0.0364
2962.50,0.0364
2962.25,0.0365
2962.00,0.0366
2961.75,0.0367
2961.50,0.0367
2961.25,0.0367
2961.00,0.0365
2960.75,0.0361
2960.50,0.0357
2960.25,0.0352
2960.00,0.0348
2959.75,0.0343
2959.50,0.0338
2959.25,0.0333
2959.00,0.0328
2958.75,0.0323
2958.50,0.0317
2958.25,0.0310
2958.00,0.0304
2957.75,0.0299
2957.50,0.0294
2957.25,0.0289
2957.00,0.0283
2956.75,0.0278
2956.50,0.0272
2956.25,0.0266
2956.00,0.0260
2955.75,0.0255
2955.50,0.0249
2955.25,0.0243
2955.00,0.0238
2954.75,0.0232
2954.50,0.0226
2954.25,0.0220
2954.00,0.0214
2953.75,0.0208
2953.50,0.0204
2953.25,0.0200
2953.00,0.0195
2952.75,0.0190
2952.50,0.0185
2952.25,0.0180
2952.00,0.0177
2951.75,0.0174
2951.50,0.0172
2951.25,0.0169
2951.00,0.0167
2950.75,0.0165
2950.50,0.0162
2950.25,0.0159
2950.00,0.0154
2949.75,0.0149
2949.50,0.0144
2949.25,0.0140
2949.00,0.0138
2948.75,0.0136
2948.50,0.0134
2948.25,0.0132
2948.00,0.0130
2947.75,0.0129
2947.50,0.0129
2947.25,0.0128
2947.00,0.0127
2946.75,0.0126
2946.50,0.0126
2946.25,0.0125
2946.00,0.0125
2945.75,0.0123
2945.50,0.0121
2945.25,0.0118
2945.00,0.0115
2944.75,0.0112
2944.50,0.0109
2944.25,0.0107
2944.00,0.0106
2943.75,0.0105
2943.50,0.0105
2943.25,0.0105
2943.00,0.0106
2942.75,0.0106
2942.50,0.0107
2942.25,0.0106
2942.00,0.0105
2941.75,0.0103
2941.50,0.0101
2941.25,0.0100
2941.00,0.0099
2940.75,0.0097
2940.50,0.0095
2940.25,0.0094
2940.00,0.0092
2939.75,0.0092
2939.50,0.0092
2939.25,0.0092
2939.00,0.0092
2938.75,0.0092
2938.50,0.0091
2938.25,0.0091
2938.00,0.0091
2937.75,0.0091
2937.50,0.0090
2937.25,0.0089
2937.00,0.0089
2936.75,0.0088
2936.50,0.0089
2936.25,0.0089
2936.00,0.0089
2935.75,0.0088
2935.50,0.0088
2935.25,0.0088
2935.00,0.0088
2934.75,0.0088
2934.50,0.0087
2934.25,0.0086
2934.00,0.0086
2933.75,0.0085
2933.50,0.0085
2933.25,0.0085
2933.00,0.0084
2932.75,0.0084
2932.50,0.0084
2932.25,0.0084
2932.00,0.0083
2931.75,0.0083
2931.50,0.0084
2931.25,0.0084
2931.00,0.0084
2930.75,0.0084
2930.50,0.0084
2930.25,0.0083
2930.00,0.0081
2929.75,0.0080
2929.50,0.0080
2929.25,0.0080
2929.00,0.0080
2928.75,0.0081
2928.50,0.0081
2928.25,0.0082
2928.00,0.0083
2927.75,0.0083
2927.50,0.0083
2927.25,0.0082
2927.00,0.0081
2926.75,0.0081
2926.50,0.0081
2926.25,0.0082
2926.00,0.0083
2925.75,0.0083
2925.50,0.0082
2925.25,0.0081
2925.00,0.0080
2924.75,0.0079
2924.50,0.0080
2924.25,0.0080
2924.00,0.0081
2923.75,0.0080
2923.50,0.0080
2923.25,0.0079
2923.00,0.0079
2922.75,0.0080
2922.50,0.0081
2922.25,0.0082
2922.00,0.0083
2921.75,0.0084
2921.50,0.0084
2921.25,0.0084
2921.00,0.0084
2920.75,0.0083
2920.50,0.0083
2920.25,0.0082
2920.00,0.0082
2919.75,0.0081
2919.50,0.0082
2919.25,0.0083
2919.00,0.0084
2918.75,0.0085
2918.50,0.0086
2918.25,0.0086
2918.00,0.0086
2917.75,0.0086
2917.50,0.0086
2917.25,0.0087
2917.00,0.0087
2916.75,0.0088
2916.50,0.0088
2916.25,0.0087
2916.00,0.0087
2915.75,0.0088
2915.50,0.0089
2915.25,0.0090
2915.00,0.0090
2914.75,0.0090
2914.50,0.0090
2914.25,0.0090
2914.00,0.0090
2913.75,0.0091
2913.50,0.0091
2913.25,0.0092
2913.00,0.0093
2912.75,0.0095
2912.50,0.0096
2912.25,0.0096
2912.00,0.0097
2911.75,0.0098
2911.50,0.0098
2911.25,0.0098
2911.00,0.0098
2910.75,0.0097
2910.50,0.0097
2910.25,0.0097
2910.00,0.0098
2909.75,0.0099
2909.50,0.0101
2909.25,0.0102
2909.00,0.0103
2908.75,0.0103
2908.50,0.0103
2908.25,0.0103
2908.00,0.0104
2907.75,0.0105
2907.50,0.0106
2907.25,0.0107
2907.00,0.0107
2906.75,0.0108
2906.50,0.0109
2906.25,0.0110
2906.00,0.0110
2905.75,0.0109
2905.50,0.0108
2905.25,0.0107
2905.00,0.0107
2904.75,0.0107
2904.50,0.0108
2904.25,0.0109
2904.00,0.0110
2903.75,0.0110
2903.50,0.0110
2903.25,0.0110
2903.00,0.0108
2902.75,0.0107
2902.50,0.0106
2902.25,0.0105
2902.00,0.0105
2901.75,0.0106
2901.50,0.0105
2901.25,0.0105
2901.00,0.0105
2900.75,0.0105
2900.50,0.0105
2900.25,0.0105
2900.00,0.0105
2899.75,0.0104
2899.50,0.0102
2899.25,0.0100
2899.00,0.0098
2898.75,0.0097
2898.50,0.0096
2898.25,0.0096
2898.00,0.0096
2897.75,0.0097
2897.50,0.0098
2897.25,0.0098
2897.00,0.0097
2896.75,0.0096
2896.50,0.0095
2896.25,0.0094
2896.00,0.0093
2895.75,0.0093
2895.50,0.0094
2895.25,0.0093
2895.00,0.0092
2894.75,0.0091
2894.50,0.0090
2894.25,0.0089
2894.00,0.0089
2893.75,0.0088
2893.50,0.0088
2893.25,0.0087
2893.00,0.0088
2892.75,0.0088
2892.50,0.0088
2892.25,0.0088
2892.00,0.0086
2891.75,0.0084
2891.50,0.0084
2891.25,0.0084
2891.00,0.0084
2890.75,0.0084
2890.50,0.0083
2890.25,0.0082
2890.00,0.0080
2889.75,0.0080
2889.50,0.0080
2889.25,0.0081
2889.00,0.0081
2888.75,0.0082
2888.50,0.0083
2888.25,0.0083
2888.00,0.0083
2887.75,0.0082
2887.50,0.0082
2887.25,0.0081
2887.00,0.0080
2886.75,0.0079
2886.50,0.0078
2886.25,0.0077
2886.00,0.0077
2885.75,0.0077
2885.50,0.0077
2885.25,0.0077
2885.00,0.0077
2884.75,0.0078
2884.50,0.0079
2884.25,0.0080
2884.00,0.0080
2883.75,0.0079
2883.50,0.0079
2883.25,0.0078
2883.00,0.0078
2882.75,0.0078
2882.50,0.0078
2882.25,0.0079
2882.00,0.0079
2881.75,0.0079
2881.50,0.0078
2881.25,0.0077
2881.00,0.0077
2880.75,0.0077
2880.50,0.0078
2880.25,0.0079
2880.00,0.0080
2879.75,0.0080
2879.50,0.0080
2879.25,0.0079
2879.00,0.0077
2878.75,0.0076
2878.50,0.0076
2878.25,0.0077
2878.00,0.0077
2877.75,0.0077
2877.50,0.0076
2877.25,0.0075
2877.00,0.0074
2876.75,0.0073
2876.50,0.0073
2876.25,0.0074
2876.00,0.0074
2875.75,0.0075
2875.50,0.0075
2875.25,0.0076
2875.00,0.0077
2874.75,0.0076
2874.50,0.0076
2874.25,0.0074
2874.00,0.0073
2873.75,0.0072
2873.50,0.0072
2873.25,0.0071
2873.00,0.0072
2872.75,0.0072
2872.50,0.0072
2872.25,0.0071
2872.00,0.0071
2871.75,0.0072
2871.50,0.0072
2871.25,0.0072
2871.00,0.0072
2870.75,0.0071
2870.50,0.0071
2870.25,0.0071
2870.00,0.0072
2869.75,0.0072
2869.50,0.0073
2869.25,0.0073
2869.00,0.0074
2868.75,0.0074
2868.50,0.0074
2868.25,0.0074
2868.00,0.0073
2867.75,0.0072
2867.50,0.0072
2867.25,0.0072
2867.00,0.0072
2866.75,0.0071
2866.50,0.0070
2866.25,0.0069
2866.00,0.0069
2865.75,0.0070
2865.50,0.0071
2865.25,0.0073
2865.00,0.0074
2864.75,0.0075
2864.50,0.0074
2864.25,0.0073
2864.00,0.0072
2863.75,0.0071
2863.50,0.0072
2863.25,0.0072
2863.00,0.0072
2862.75,0.0071
2862.50,0.0070
2862.25,0.0069
2862.00,0.0068
2861.75,0.0068
2861.50,0.0068
2861.25,0.0069
2861.00,0.0069
2860.75,0.0069
2860.50,0.0069
2860.25,0.0068
2860.00,0.0068
2859.75,0.0068
2859.50,0.0069
2859.25,0.0070
2859.00,0.0069
2858.75,0.0068
2858.50,0.0067
2858.25,0.0066
2858.00,0.0067
2857.75,0.0069
2857.50,0.0071
2857.25,0.0073
2857.00,0.0074
2856.75,0.0073
2856.50,0.0071
2856.25,0.0069
2856.00,0.0067
2855.75,0.0067
2855.50,0.0066
2855.25,0.0067
2855.00,0.0067
2854.75,0.0067
2854.50,0.0068
2854.25,0.0068
2854.00,0.0068
2853.75,0.0068
2853.50,0.0069
2853.25,0.0069
2853.00,0.0069
2852.75,0.0069
2852.50,0.0068
2852.25,0.0066
2852.00,0.0065
2851.75,0.0065
2851.50,0.0065
2851.25,0.0066
2851.00,0.0067
2850.75,0.0068
2850.50,0.0068
2850.25,0.0069
2850.00,0.0070
2849.75,0.0071
2849.50,0.0071
2849.25,0.0071
2849.00,0.0070
2848.75,0.0069
2848.50,0.0068
2848.25,0.0068
2848.00,0.0067
2847.75,0.0067
2847.50,0.0067
2847.25,0.0068
2847.00,0.0069
2846.75,0.0070
2846.50,0.0071
2846.25,0.0071
2846.00,0.0071
2845.75,0.0071
2845.50,0.0070
2845.25,0.0069
2845.00,0.0067
2844.75,0.0067
2844.50,0.0067
2844.25,0.0068
2844.00,0.0069
2843.75,0.0069
2843.50,0.0069
2843.25,0.0069
2843.00,0.0069
2842.75,0.0069
2842.50,0.0069
2842.25,0.0069
2842.00,0.0068
2841.75,0.0067
2841.50,0.0067
2841.25,0.0067
2841.00,0.0068
2840.75,0.0069
2840.50,0.0070
2840.25,0.0071
2840.00,0.0071
2839.75,0.0072
2839.50,0.0071
2839.25,0.0070
2839.00,0.0070
2838.75,0.0069
2838.50,0.0068
2838.25,0.0068
2838.00,0.0069
2837.75,0.0070
2837.50,0.0071
2837.25,0.0071
2837.00,0.0071
2836.75,0.0070
2836.50,0.0069
2836.25,0.0068
2836.00,0.0068
2835.75,0.0068
2835.50,0.0069
2835.25,0.0070
2835.00,0.0070
2834.75,0.0070
2834.50,0.0070
2834.25,0.0070
2834.00,0.0070
2833.75,0.0070
2833.50,0.0070
2833.25,0.0070
2833.00,0.0070
2832.75,0.0069
2832.50,0.0069
2832.25,0.0070
2832.00,0.0070
2831.75,0.0070
2831.50,0.0069
2831.25,0.0068
2831.00,0.0067
2830.75,0.0067
2830.50,0.0067
2830.25,0.0067
2830.00,0.0068
2829.75,0.0069
2829.50,0.0070
2829.25,0.0071
2829.00,0.0072
2828.75,0.0072
2828.50,0.0071
2828.25,0.0071
2828.00,0.0070
2827.75,0.0070
2827.50,0.0069
2827.25,0.0068
2827.00,0.0068
2826.75,0.0067
2826.50,0.0067
2826.25,0.0068
2826.00,0.0069
2825.75,0.0070
2825.50,0.0071
2825.25,0.0072
2825.00,0.0073
2824.75,0.0073
2824.50,0.0073
2824.25,0.0071
2824.00,0.0070
2823.75,0.0068
2823.50,0.0066
2823.25,0.0066
2823.00,0.0066
2822.75,0.0067
2822.50,0.0068
2822.25,0.0069
2822.00,0.0070
2821.75,0.0071
2821.50,0.0072
2821.25,0.0072
2821.00,0.0072
2820.75,0.0071
2820.50,0.0071
2820.25,0.0071
2820.00,0.0071
2819.75,0.0071
2819.50,0.0071
2819.25,0.0071
2819.00,0.0071
2818.75,0.0071
2818.50,0.0070
2818.25,0.0069
2818.00,0.0068
2817.75,0.0067
2817.50,0.0067
2817.25,0.0067
2817.00,0.0068
2816.75,0.0069
2816.50,0.0069
2816.25,0.0070
2816.00,0.0070
2815.75,0.0069
2815.50,0.0069
2815.25,0.0069
2815.00,0.0068
2814.75,0.0069
2814.50,0.0069
2814.25,0.0070
2814.00,0.0071
2813.75,0.0071
2813.50,0.0071
2813.25,0.0070
2813.00,0.0069
2812.75,0.0068
2812.50,0.0067
2812.25,0.0067
2812.00,0.0068
2811.75,0.0069
2811.50,0.0069
2811.25,0.0070
2811.00,0.0070
2810.75,0.0070
2810.50,0.0069
2810.25,0.0068
2810.00,0.0068
2809.75,0.0069
2809.50,0.0070
2809.25,0.0071
2809.00,0.0071
2808.75,0.0071
2808.50,0.0070
2808.25,0.0068
2808.00,0.0067
2807.75,0.0067
2807.50,0.0068
2807.25,0.0068
2807.00,0.0069
2806.75,0.0069
2806.50,0.0069
2806.25,0.0068
2806.00,0.0069
2805.75,0.0071
2805.50,0.0072
2805.25,0.0073
2805.00,0.0072
2804.75,0.0071
2804.50,0.0070
2804.25,0.0070
2804.00,0.0070
2803.75,0.0069
2803.50,0.0069
2803.25,0.0068
2803.00,0.0067
2802.75,0.0067
2802.50,0.0068
2802.25,0.0070
2802.00,0.0072
2801.75,0.0072
2801.50,0.0072
2801.25,0.0071
2801.00,0.0070
2800.75,0.0070
2800.50,0.0069
2800.25,0.0068
2800.00,0.0068
2799.75,0.0069
2799.50,0.0070
2799.25,0.0070
2799.00,0.0071
2798.75,0.0071
2798.50,0.0070
2798.25,0.0069
2798.00,0.0069
2797.75,0.0069
2797.50,0.0069
2797.25,0.0070
2797.00,0.0070
2796.75,0.0071
2796.50,0.0071
2796.25,0.0071
2796.00,0.0071
2795.75,0.0070
2795.50,0.0070
2795.25,0.0069
2795.00,0.0069
2794.75,0.0070
2794.50,0.0071
2794.25,0.0072
2794.00,0.0072
2793.75,0.0072
2793.50,0.0070
2793.25,0.0069
2793.00,0.0068
2792.75,0.0068
2792.50,0.0070
2792.25,0.0071
2792.00,0.0072
2791.75,0.0072
2791.50,0.0071
2791.25,0.0071
2791.00,0.0071
2790.75,0.0071
2790.50,0.0071
2790.25,0.0070
2790.00,0.0070
2789.75,0.0069
2789.50,0.0069
2789.25,0.0069
2789.00,0.0070
2788.75,0.0070
2788.50,0.0070
2788.25,0.0069
2788.00,0.0069
2787.75,0.0068
2787.50,0.0068
2787.25,0.0068
2787.00,0.0069
2786.75,0.0069
2786.50,0.0069
2786.25,0.0069
2786.00,0.0069
2785.75,0.0067
2785.50,0.0066
2785.25,0.0065
2785.00,0.0064
2784.75,0.0065
2784.50,0.0066
2784.25,0.0067
2784.00,0.0067
2783.75,0.0067
2783.50,0.0067
2783.25,0.0067
2783.00,0.0067
2782.75,0.0067
2782.50,0.0066
2782.25,0.0066
2782.00,0.0065
2781.75,0.0065
2781.50,0.0065
2781.25,0.0065
2781.00,0.0066
2780.75,0.0067
2780.50,0.0068
2780.25,0.0068
2780.00,0.0068
2779.75,0.0067
2779.50,0.0066
2779.25,0.0065
2779.00,0.0064
2778.75,0.0064
2778.50,0.0064
2778.25,0.0065
2778.00,0.0065
2777.75,0.0066
2777.50,0.0066
2777.25,0.0066
2777.00,0.0066
2776.75,0.0066
2776.50,0.0067
2776.25,0.0067
2776.00,0.0066
2775.75,0.0066
2775.50,0.0065
2775.25,0.0065
2775.00,0.0065
2774.75,0.0065
2774.50,0.0065
2774.25,0.0065
2774.00,0.0064
2773.75,0.0064
2773.50,0.0063
2773.25,0.0064
2773.00,0.0064
2772.75,0.0065
2772.50,0.0066
2772.25,0.0066
2772.00,0.0066
2771.75,0.0066
2771.50,0.0066
2771.25,0.0065
2771.00,0.0065
2770.75,0.0064
2770.50,0.0063
2770.25,0.0063
2770.00,0.0063
2769.75,0.0064
2769.50,0.0064
2769.25,0.0064
2769.00,0.0064
2768.75,0.0064
2768.50,0.0064
2768.25,0.0064
2768.00,0.0064
2767.75,0.0064
2767.50,0.0063
2767.25,0.0063
2767.00,0.0062
2766.75,0.0062
2766.50,0.0061
2766.25,0.0062
2766.00,0.0062
2765.75,0.0064
2765.50,0.0065
2765.25,0.0066
2765.00,0.0067
2764.75,0.0067
2764.50,0.0067
2764.25,0.0066
2764.00,0.0066
2763.75,0.0065
2763.50,0.0065
2763.25,0.0064
2763.00,0.0064
2762.75,0.0064
2762.50,0.0064
2762.25,0.0063
2762.00,0.0062
2761.75,0.0062
2761.50,0.0062
2761.25,0.0062
2761.00,0.0063
2760.75,0.0064
2760.50,0.0064
2760.25,0.0065
2760.00,0.0064
2759.75,0.0063
2759.50,0.0062
2759.25,0.0061
2759.00,0.0061
2758.75,0.0061
2758.50,0.0061
2758.25,0.0061
2758.00,0.0062
2757.75,0.0062
2757.50,0.0063
2757.25,0.0063
2757.00,0.0063
2756.75,0.0063
2756.50,0.0063
2756.25,0.0063
2756.00,0.0063
2755.75,0.0063
2755.50,0.0063
2755.25,0.0063
2755.00,0.0063
2754.75,0.0063
2754.50,0.0063
2754.25,0.0063
2754.00,0.0062
2753.75,0.0062
2753.50,0.0062
2753.25,0.0062
2753.00,0.0061
2752.75,0.0061
2752.50,0.0061
2752.25,0.0061
2752.00,0.0062
2751.75,0.0063
2751.50,0.0063
2751.25,0.0064
2751.00,0.0063
2750.75,0.0063
2750.50,0.0062
2750.25,0.0061
2750.00,0.0060
2749.75,0.0059
2749.50,0.0058
2749.25,0.0057
2749.00,0.0057
2748.75,0.0058
2748.50,0.0060
2748.25,0.0062
2748.00,0.0064
2747.75,0.0065
2747.50,0.0065
2747.25,0.0064
2747.00,0.0063
2746.75,0.0063
2746.50,0.0063
2746.25,0.0063
2746.00,0.0062
2745.75,0.0062
2745.50,0.0062
2745.25,0.0063
2745.00,0.0063
2744.75,0.0063
2744.50,0.0063
2744.25,0.0062
2744.00,0.0061
2743.75,0.0060
2743.50,0.0060
2743.25,0.0060
2743.00,0.0060
2742.75,0.0061
2742.50,0.0062
2742.25,0.0063
2742.00,0.0064
2741.75,0.0064
2741.50,0.0064
2741.25,0.0063
2741.00,0.0062
2740.75,0.0061
2740.50,0.0061
2740.25,0.0062
2740.00,0.0062
2739.75,0.0063
2739.50,0.0063
2739.25,0.0063
2739.00,0.0063
2738.75,0.0063
2738.50,0.0063
2738.25,0.0063
2738.00,0.0063
2737.75,0.0063
2737.50,0.0064
2737.25,0.0063
2737.00,0.0063
2736.75,0.0063
2736.50,0.0062
2736.25,0.0063
2736.00,0.0063
2735.75,0.0064
2735.50,0.0064
2735.25,0.0064
2735.00,0.0064
2734.75,0.0064
2734.50,0.0064
2734.25,0.0065
2734.00,0.0066
2733.75,0.0066
2733.50,0.0065
2733.25,0.0064
2733.00,0.0063
2732.75,0.0062
2732.50,0.0061
2732.25,0.0061
2732.00,0.0061
2731.75,0.0061
2731.50,0.0062
2731.25,0.0062
2731.00,0.0063
2730.75,0.0064
2730.50,0.0064
2730.25,0.0065
2730.00,0.0065
2729.75,0.0065
2729.50,0.0064
2729.25,0.0063
2729.00,0.0062
2728.75,0.0062
2728.50,0.0061
2728.25,0.0061
2728.00,0.0061
2727.75,0.0060
2727.50,0.0059
2727.25,0.0059
2727.00,0.0060
2726.75,0.0061
2726.50,0.0062
2726.25,0.0063
2726.00,0.0064
2725.75,0.0065
2725.50,0.0065
2725.25,0.0065
2725.00,0.0064
2724.75,0.0063
2724.50,0.0062
2724.25,0.0061
2724.00,0.0061
2723.75,0.0060
2723.50,0.0060
2723.25,0.0060
2723.00,0.0061
2722.75,0.0062
2722.50,0.0063
2722.25,0.0063
2722.00,0.0063
2721.75,0.0062
2721.50,0.0062
2721.25,0.0061
2721.00,0.0060
2720.75,0.0060
2720.50,0.0060
2720.25,0.0062
2720.00,0.0063
2719.75,0.0063
2719.50,0.0063
2719.25,0.0063
2719.00,0.0062
2718.75,0.0063
2718.50,0.0063
2718.25,0.0064
2718.00,0.0064
2717.75,0.0063
2717.50,0.0061
2717.25,0.0060
2717.00,0.0059
2716.75,0.0059
2716.50,0.0060
2716.25,0.0062
2716.00,0.0063
2715.75,0.0064
2715.50,0.0064
2715.25,0.0064
2715.00,0.0064
2714.75,0.0064
2714.50,0.0064
2714.25,0.0064
2714.00,0.0065
2713.75,0.0065
2713.50,0.0064
2713.25,0.0064
2713.00,0.0064
2712.75,0.0063
2712.50,0.0063
2712.25,0.0063
2712.00,0.0062
2711.75,0.0062
2711.50,0.0061
2711.25,0.0061
2711.00,0.0060
2710.75,0.0060
2710.50,0.0060
2710.25,0.0061
2710.00,0.0061
2709.75,0.0061
2709.50,0.0062
2709.25,0.0063
2709.00,0.0064
2708.75,0.0064
2708.50,0.0064
2708.25,0.0063
2708.00,0.0062
2707.75,0.0061
2707.50,0.0060
2707.25,0.0060
2707.00,0.0061
2706.75,0.0061
2706.50,0.0061
2706.25,0.0060
2706.00,0.0060
2705.75,0.0060
2705.50,0.0061
2705.25,0.0062
2705.00,0.0062
2704.75,0.0062
2704.50,0.0062
2704.25,0.0062
2704.00,0.0062
2703.75,0.0062
2703.50,0.0062
2703.25,0.0062
2703.00,0.0063
2702.75,0.0063
2702.50,0.0063
2702.25,0.0063
2702.00,0.0062
2701.75,0.0062
2701.50,0.0063
2701.25,0.0063
2701.00,0.0063
2700.75,0.0063
2700.50,0.0063
2700.25,0.0062
2700.00,0.0061
2699.75,0.0060
2699.50,0.0059
2699.25,0.0058
2699.00,0.0058
2698.75,0.0060
2698.50,0.0061
2698.25,0.0063
2698.00,0.0064
2697.75,0.0064
2697.50,0.0064
2697.25,0.0063
2697.00,0.0062
2696.75,0.0061
2696.50,0.0061
2696.25,0.0061
2696.00,0.0061
2695.75,0.0061
2695.50,0.0060
2695.25,0.0060
2695.00,0.0061
2694.75,0.0062
2694.50,0.0063
2694.25,0.0064
2694.00,0.0064
2693.75,0.0064
2693.50,0.0064
2693.25,0.0063
2693.00,0.0063
2692.75,0.0063
2692.50,0.0063
2692.25,0.0063
2692.00,0.0063
2691.75,0.0062
2691.50,0.0062
2691.25,0.0061
2691.00,0.0061
2690.75,0.0061
2690.50,0.0061
2690.25,0.0061
2690.00,0.0062
2689.75,0.0063
2689.50,0.0064
2689.25,0.0065
2689.00,0.0065
2688.75,0.0065
2688.50,0.0063
2688.25,0.0062
2688.00,0.0062
2687.75,0.0062
2687.50,0.0063
2687.25,0.0063
2687.00,0.0063
2686.75,0.0063
2686.50,0.0063
2686.25,0.0063
2686.00,0.0063
2685.75,0.0063
2685.50,0.0063
2685.25,0.0062
2685.00,0.0060
2684.75,0.0059
2684.50,0.0058
2684.25,0.0058
2684.00,0.0059
2683.75,0.0060
2683.50,0.0062
2683.25,0.0063
2683.00,0.0064
2682.75,0.0064
2682.50,0.0064
2682.25,0.0063
2682.00,0.0063
2681.75,0.0062
2681.50,0.0062
2681.25,0.0062
2681.00,0.0062
2680.75,0.0062
2680.50,0.0062
2680.25,0.0061
2680.00,0.0060
2679.75,0.0060
2679.50,0.0060
2679.25,0.0061
2679.00,0.0062
2678.75,0.0062
2678.50,0.0062
2678.25,0.0062
2678.00,0.0062
2677.75,0.0061
2677.50,0.0062
2677.25,0.0062
2677.00,0.0063
2676.75,0.0063
2676.50,0.0064
2676.25,0.0064
2676.00,0.0064
2675.75,0.0064
2675.50,0.0063
2675.25,0.0063
2675.00,0.0063
2674.75,0.0063
2674.50,0.0063
2674.25,0.0063
2674.00,0.0062
2673.75,0.0062
2673.50,0.0061
2673.25,0.0061
2673.00,0.0062
2672.75,0.0064
2672.50,0.0065
2672.25,0.0065
2672.00,0.0065
2671.75,0.0064
2671.50,0.0063
2671.25,0.0062
2671.00,0.0062
2670.75,0.0062
2670.50,0.0062
2670.25,0.0063
2670.00,0.0063
2669.75,0.0063
2669.50,0.0063
2669.25,0.0062
2669.00,0.0062
2668.75,0.0062
2668.50,0.0061
2668.25,0.0061
2668.00,0.0061
2667.75,0.0060
2667.50,0.0060
2667.25,0.0060
2667.00,0.0061
2666.75,0.0061
2666.50,0.0061
2666.25,0.0062
2666.00,0.0062
2665.75,0.0062
2665.50,0.0063
2665.25,0.0063
2665.00,0.0063
2664.75,0.0063
2664.50,0.0063
2664.25,0.0063
2664.00,0.0064
2663.75,0.0064
2663.50,0.0063
2663.25,0.0062
2663.00,0.0061
2662.75,0.0061
2662.50,0.0061
2662.25,0.0062
2662.00,0.0063
2661.75,0.0064
2661.50,0.0064
2661.25,0.0065
2661.00,0.0065
2660.75,0.0065
2660.50,0.0064
2660.25,0.0063
2660.00,0.0062
2659.75,0.0062
2659.50,0.0062
2659.25,0.0062
2659.00,0.0062
2658.75,0.0062
2658.50,0.0064
2658.25,0.0065
2658.00,0.0066
2657.75,0.0067
2657.50,0.0066
2657.25,0.0066
2657.00,0.0065
2656.75,0.0064
2656.50,0.0064
2656.25,0.0063
2656.00,0.0063
2655.75,0.0063
2655.50,0.0063
2655.25,0.0063
2655.00,0.0062
2654.75,0.0061
2654.50,0.0062
2654.25,0.0063
2654.00,0.0065
2653.75,0.0067
2653.50,0.0068
2653.25,0.0068
2653.00,0.0067
2652.75,0.0067
2652.50,0.0066
2652.25,0.0065
2652.00,0.0064
2651.75,0.0062
2651.50,0.0061
2651.25,0.0060
2651.00,0.0060
2650.75,0.0060
2650.50,0.0060
2650.25,0.0061
2650.00,0.0061
2649.75,0.0062
2649.50,0.0063
2649.25,0.0063
2649.00,0.0064
2648.75,0.0064
2648.50,0.0064
2648.25,0.0064
2648.00,0.0063
2647.75,0.0063
2647.50,0.0063
2647.25,0.0063
2647.00,0.0064
2646.75,0.0064
2646.50,0.0064
2646.25,0.0064
2646.00,0.0063
2645.75,0.0063
2645.50,0.0062
2645.25,0.0062
2645.00,0.0062
2644.75,0.0063
2644.50,0.0063
2644.25,0.0062
2644.00,0.0061
2643.75,0.0059
2643.50,0.0058
2643.25,0.0059
2643.00,0.0060
2642.75,0.0062
2642.50,0.0063
2642.25,0.0063
2642.00,0.0063
2641.75,0.0063
2641.50,0.0064
2641.25,0.0065
2641.00,0.0065
2640.75,0.0064
2640.50,0.0063
2640.25,0.0062
2640.00,0.0062
2639.75,0.0063
2639.50,0.0063
2639.25,0.0064
2639.00,0.0064
2638.75,0.0063
2638.50,0.0062
2638.25,0.0061
2638.00,0.0061
2637.75,0.0062
2637.50,0.0063
2637.25,0.0063
2637.00,0.0063
2636.75,0.0063
2636.50,0.0062
2636.25,0.0062
2636.00,0.0061
2635.75,0.0060
2635.50,0.0059
2635.25,0.0058
2635.00,0.0059
2634.75,0.0060
2634.50,0.0061
2634.25,0.0061
2634.00,0.0061
2633.75,0.0061
2633.50,0.0061
2633.25,0.0061
2633.00,0.0062
2632.75,0.0063
2632.50,0.0063
2632.25,0.0064
2632.00,0.0064
2631.75,0.0064
2631.50,0.0063
2631.25,0.0063
2631.00,0.0063
2630.75,0.0061
2630.50,0.0060
2630.25,0.0059
2630.00,0.0058
2629.75,0.0058
2629.50,0.0058
2629.25,0.0059
2629.00,0.0060
2628.75,0.0062
2628.50,0.0063
2628.25,0.0063
2628.00,0.0063
2627.75,0.0063
2627.50,0.0063
2627.25,0.0063
2627.00,0.0064
2626.75,0.0065
2626.50,0.0065
2626.25,0.0066
2626.00,0.0065
2625.75,0.0064
2625.50,0.0063
2625.25,0.0062
2625.00,0.0062
2624.75,0.0063
2624.50,0.0064
2624.25,0.0064
2624.00,0.0064
2623.75,0.0062
2623.50,0.0060
2623.25,0.0059
2623.00,0.0058
2622.75,0.0059
2622.50,0.0061
2622.25,0.0063
2622.00,0.0064
2621.75,0.0064
2621.50,0.0063
2621.25,0.0062
2621.00,0.0062
2620.75,0.0063
2620.50,0.0064
2620.25,0.0064
2620.00,0.0064
2619.75,0.0064
2619.50,0.0064
2619.25,0.0064
2619.00,0.0063
2618.75,0.0063
2618.50,0.0062
2618.25,0.0061
2618.00,0.0060
2617.75,0.0060
2617.50,0.0060
2617.25,0.0060
2617.00,0.0060
2616.75,0.0059
2616.50,0.0058
2616.25,0.0059
2616.00,0.0061
2615.75,0.0063
2615.50,0.0065
2615.25,0.0066
2615.00,0.0067
2614.75,0.0067
2614.50,0.0067
2614.25,0.0066
2614.00,0.0065
2613.75,0.0065
2613.50,0.0064
2613.25,0.0063
2613.00,0.0061
2612.75,0.0059
2612.50,0.0057
2612.25,0.0056
2612.00,0.0056
2611.75,0.0057
2611.50,0.0058
2611.25,0.0059
2611.00,0.0061
2610.75,0.0062
2610.50,0.0062
2610.25,0.0062
2610.00,0.0062
2609.75,0.0062
2609.50,0.0062
2609.25,0.0062
2609.00,0.0062
2608.75,0.0062
2608.50,0.0061
2608.25,0.0059
2608.00,0.0057
2607.75,0.0056
2607.50,0.0057
2607.25,0.0059
2607.00,0.0061
2606.75,0.0063
2606.50,0.0064
2606.25,0.0064
2606.00,0.0064
2605.75,0.0065
2605.50,0.0066
2605.25,0.0068
2605.00,0.0069
2604.75,0.0069
2604.50,0.0068
2604.25,0.0067
2604.00,0.0066
2603.75,0.0065
2603.50,0.0064
2603.25,0.0064
2603.00,0.0063
2602.75,0.0063
2602.50,0.0063
2602.25,0.0063
2602.00,0.0063
2601.75,0.0063
2601.50,0.0062
2601.25,0.0061
2601.00,0.0059
2600.75,0.0058
2600.50,0.0057
2600.25,0.0057
2600.00,0.0058
2599.75,0.0059
2599.50,0.0060
2599.25,0.0060
2599.00,0.0059
2598.75,0.0058
2598.50,0.0057
2598.25,0.0058
2598.00,0.0058
2597.75,0.0059
2597.50,0.0060
2597.25,0.0060
2597.00,0.0060
2596.75,0.0060
2596.50,0.0061
2596.25,0.0061
2596.00,0.0060
2595.75,0.0058
2595.50,0.0056
2595.25,0.0054
2595.00,0.0054
2594.75,0.0055
2594.50,0.0057
2594.25,0.0058
2594.00,0.0060
2593.75,0.0060
2593.50,0.0061
2593.25,0.0060
2593.00,0.0060
2592.75,0.0060
2592.50,0.0061
2592.25,0.0061
2592.00,0.0061
2591.75,0.0060
2591.50,0.0057
2591.25,0.0056
2591.00,0.0057
2590.75,0.0059
2590.50,0.0062
2590.25,0.0065
2590.00,0.0065
2589.75,0.0065
2589.50,0.0064
2589.25,0.0064
2589.00,0.0064
2588.75,0.0063
2588.50,0.0063
2588.25,0.0062
2588.00,0.0062
2587.75,0.0062
2587.50,0.0062
2587.25,0.0062
2587.00,0.0060
2586.75,0.0058
2586.50,0.0056
2586.25,0.0056
2586.00,0.0057
2585.75,0.0060
2585.50,0.0061
2585.25,0.0061
2585.00,0.0059
2584.75,0.0058
2584.50,0.0059
2584.25,0.0060
2584.00,0.0060
2583.75,0.0060
2583.50,0.0058
2583.25,0.0057
2583.00,0.0059
2582.75,0.0061
2582.50,0.0063
2582.25,0.0063
2582.00,0.0061
2581.75,0.0058
2581.50,0.0055
2581.25,0.0054
2581.00,0.0054
2580.75,0.0055
2580.50,0.0056
2580.25,0.0057
2580.00,0.0058
2579.75,0.0059
2579.50,0.0061
2579.25,0.0063
2579.00,0.0064
2578.75,0.0064
2578.50,0.0064
2578.25,0.0062
2578.00,0.0060
2577.75,0.0057
2577.50,0.0054
2577.25,0.0052
2577.00,0.0052
2576.75,0.0053
2576.50,0.0055
2576.25,0.0056
2576.00,0.0057
2575.75,0.0058
2575.50,0.0059
2575.25,0.0060
2575.00,0.0061
2574.75,0.0062
2574.50,0.0063
2574.25,0.0062
2574.00,0.0062
2573.75,0.0062
2573.50,0.0063
2573.25,0.0064
2573.00,0.0065
2572.75,0.0063
2572.50,0.0061
2572.25,0.0058
2572.00,0.0057
2571.75,0.0057
2571.50,0.0057
2571.25,0.0058
2571.00,0.0058
2570.75,0.0058
2570.50,0.0057
2570.25,0.0056
2570.00,0.0055
2569.75,0.0055
2569.50,0.0056
2569.25,0.0058
2569.00,0.0060
2568.75,0.0061
2568.50,0.0061
2568.25,0.0061
2568.00,0.0059
2567.75,0.0058
2567.50,0.0056
2567.25,0.0056
2567.00,0.0056
2566.75,0.0058
2566.50,0.0061
2566.25,0.0064
2566.00,0.0066
2565.75,0.0067
2565.50,0.0067
2565.25,0.0066
2565.00,0.0063
2564.75,0.0061
2564.50,0.0058
2564.25,0.0057
2564.00,0.0057
2563.75,0.0058
2563.50,0.0061
2563.25,0.0063
2563.00,0.0063
2562.75,0.0063
2562.50,0.0061
2562.25,0.0059
2562.00,0.0059
2561.75,0.0059
2561.50,0.0059
2561.25,0.0058
2561.00,0.0057
2560.75,0.0056
2560.50,0.0056
2560.25,0.0056
2560.00,0.0056
2559.75,0.0057
2559.50,0.0058
2559.25,0.0058
2559.00,0.0058
2558.75,0.0058
2558.50,0.0058
2558.25,0.0059
2558.00,0.0060
2557.75,0.0060
2557.50,0.0060
2557.25,0.0059
2557.00,0.0060
2556.75,0.0062
2556.50,0.0064
2556.25,0.0066
2556.00,0.0066
2555.75,0.0066
2555.50,0.0066
2555.25,0.0064
2555.00,0.0062
2554.75,0.0059
2554.50,0.0056
2554.25,0.0053
2554.00,0.0053
2553.75,0.0054
2553.50,0.0056
2553.25,0.0058
2553.00,0.0060
2552.75,0.0061
2552.50,0.0060
2552.25,0.0059
2552.00,0.0058
2551.75,0.0057
2551.50,0.0057
2551.25,0.0057
2551.00,0.0059
2550.75,0.0060
2550.50,0.0062
2550.25,0.0063
2550.00,0.0063
2549.75,0.0063
2549.50,0.0061
2549.25,0.0060
2549.00,0.0058
2548.75,0.0057
2548.50,0.0055
2548.25,0.0055
2548.00,0.0055
2547.75,0.0055
2547.50,0.0056
2547.25,0.0056
2547.00,0.0056
2546.75,0.0056
2546.50,0.0055
2546.25,0.0055
2546.00,0.0055
2545.75,0.0055
2545.50,0.0055
2545.25,0.0056
2545.00,0.0058
2544.75,0.0059
2544.50,0.0060
2544.25,0.0060
2544.00,0.0058
2543.75,0.0056
2543.50,0.0053
2543.25,0.0051
2543.00,0.0050
2542.75,0.0050
2542.50,0.0051
2542.25,0.0054
2542.00,0.0057
2541.75,0.0060
2541.50,0.0060
2541.25,0.0060
2541.00,0.0058
2540.75,0.0056
2540.50,0.0054
2540.25,0.0053
2540.00,0.0052
2539.75,0.0051
2539.50,0.0051
2539.25,0.0051
2539.00,0.0051
2538.75,0.0052
2538.50,0.0052
2538.25,0.0052
2538.00,0.0052
2537.75,0.0053
2537.50,0.0054
2537.25,0.0056
2537.00,0.0058
2536.75,0.0061
2536.50,0.0063
2536.25,0.0065
2536.00,0.0064
2535.75,0.0062
2535.50,0.0058
2535.25,0.0055
2535.00,0.0054
2534.75,0.0056
2534.50,0.0059
2534.25,0.0063
2534.00,0.0064
2533.75,0.0063
2533.50,0.0060
2533.25,0.0057
2533.00,0.0054
2532.75,0.0053
2532.50,0.0052
2532.25,0.0052
2532.00,0.0052
2531.75,0.0052
2531.50,0.0052
2531.25,0.0053
2531.00,0.0054
2530.75,0.0054
2530.50,0.0053
2530.25,0.0052
2530.00,0.0053
2529.75,0.0054
2529.50,0.0055
2529.25,0.0056
2529.00,0.0056
2528.75,0.0055
2528.50,0.0054
2528.25,0.0053
2528.00,0.0051
2527.75,0.0050
2527.50,0.0049
2527.25,0.0049
2527.00,0.0049
2526.75,0.0050
2526.50,0.0051
2526.25,0.0053
2526.00,0.0054
2525.75,0.0054
2525.50,0.0054
2525.25,0.0053
2525.00,0.0052
2524.75,0.0052
2524.50,0.0052
2524.25,0.0051
2524.00,0.0049
2523.75,0.0047
2523.50,0.0045
2523.25,0.0045
2523.00,0.0046
2522.75,0.0048
2522.50,0.0048
2522.25,0.0048
2522.00,0.0047
2521.75,0.0047
2521.50,0.0049
2521.25,0.0050
2521.00,0.0051
2520.75,0.0050
2520.50,0.0049
2520.25,0.0047
2520.00,0.0045
2519.75,0.0045
2519.50,0.0044
2519.25,0.0045
2519.00,0.0046
2518.75,0.0047
2518.50,0.0049
2518.25,0.0050
2518.00,0.0051
2517.75,0.0051
2517.50,0.0050
2517.25,0.0050
2517.00,0.0049
2516.75,0.0049
2516.50,0.0048
2516.25,0.0047
2516.00,0.0047
2515.75,0.0047
2515.50,0.0045
2515.25,0.0043
2515.00,0.0042
2514.75,0.0040
2514.50,0.0041
2514.25,0.0042
2514.00,0.0045
2513.75,0.0047
2513.50,0.0049
2513.25,0.0049
2513.00,0.0048
2512.75,0.0046
2512.50,0.0045
2512.25,0.0044
2512.00,0.0046
2511.75,0.0047
2511.50,0.0049
2511.25,0.0051
2511.00,0.0051
2510.75,0.0051
2510.50,0.0051
2510.25,0.0050
2510.00,0.0050
2509.75,0.0050
2509.50,0.0049
2509.25,0.0049
2509.00,0.0049
2508.75,0.0049
2508.50,0.0049
2508.25,0.0050
2508.00,0.0050
2507.75,0.0050
2507.50,0.0050
2507.25,0.0050
2507.00,0.0049
2506.75,0.0048
2506.50,0.0048
2506.25,0.0048
2506.00,0.0048
2505.75,0.0048
2505.50,0.0048
2505.25,0.0047
2505.00,0.0048
2504.75,0.0048
2504.50,0.0048
2504.25,0.0048
2504.00,0.0047
2503.75,0.0047
2503.50,0.0048
2503.25,0.0050
2503.00,0.0054
2502.75,0.0057
2502.50,0.0058
2502.25,0.0057
2502.00,0.0055
2501.75,0.0054
2501.50,0.0052
2501.25,0.0052
2501.00,0.0053
2500.75,0.0054
2500.50,0.0055
2500.25,0.0056
2500.00,0.0056
2499.75,0.0056
2499.50,0.0055
2499.25,0.0055
2499.00,0.0055
2498.75,0.0056
2498.50,0.0057
2498.25,0.0058
2498.00,0.0058
2497.75,0.0058
2497.50,0.0058
2497.25,0.0056
2497.00,0.0055
2496.75,0.0053
2496.50,0.0053
2496.25,0.0053
2496.00,0.0055
2495.75,0.0057
2495.50,0.0060
2495.25,0.0061
2495.00,0.0060
2494.75,0.0059
2494.50,0.0057
2494.25,0.0056
2494.00,0.0055
2493.75,0.0054
2493.50,0.0053
2493.25,0.0053
2493.00,0.0053
2492.75,0.0053
2492.50,0.0053
2492.25,0.0054
2492.00,0.0055
2491.75,0.0056
2491.50,0.0058
2491.25,0.0060
2491.00,0.0060
2490.75,0.0060
2490.50,0.0060
2490.25,0.0059
2490.00,0.0059
2489.75,0.0059
2489.50,0.0059
2489.25,0.0059
2489.00,0.0058
2488.75,0.0058
2488.50,0.0057
2488.25,0.0058
2488.00,0.0058
2487.75,0.0059
2487.50,0.0060
2487.25,0.0060
2487.00,0.0059
2486.75,0.0057
2486.50,0.0055
2486.25,0.0052
2486.00,0.0050
2485.75,0.0050
2485.50,0.0051
2485.25,0.0053
2485.00,0.0056
2484.75,0.0060
2484.50,0.0063
2484.25,0.0066
2484.00,0.0066
2483.75,0.0066
2483.50,0.0064
2483.25,0.0061
2483.00,0.0060
2482.75,0.0059
2482.50,0.0059
2482.25,0.0060
2482.00,0.0061
2481.75,0.0061
2481.50,0.0060
2481.25,0.0059
2481.00,0.0058
2480.75,0.0058
2480.50,0.0059
2480.25,0.0059
2480.00,0.0059
2479.75,0.0059
2479.50,0.0059
2479.25,0.0059
2479.00,0.0060
2478.75,0.0061
2478.50,0.0060
2478.25,0.0059
2478.00,0.0058
2477.75,0.0057
2477.50,0.0057
2477.25,0.0057
2477.00,0.0057
2476.75,0.0058
2476.50,0.0058
2476.25,0.0059
2476.00,0.0060
2475.75,0.0061
2475.50,0.0062
2475.25,0.0062
2475.00,0.0061
2474.75,0.0059
2474.50,0.0056
2474.25,0.0053
2474.00,0.0051
2473.75,0.0051
2473.50,0.0052
2473.25,0.0055
2473.00,0.0059
2472.75,0.0062
2472.50,0.0064
2472.25,0.0065
2472.00,0.0065
2471.75,0.0063
2471.50,0.0061
2471.25,0.0058
2471.00,0.0056
2470.75,0.0056
2470.50,0.0056
2470.25,0.0058
2470.00,0.0060
2469.75,0.0060
2469.50,0.0060
2469.25,0.0060
2469.00,0.0058
2468.75,0.0056
2468.50,0.0055
2468.25,0.0055
2468.00,0.0057
2467.75,0.0058
2467.50,0.0058
2467.25,0.0057
2467.00,0.0055
2466.75,0.0053
2466.50,0.0053
2466.25,0.0055
2466.00,0.0058
2465.75,0.0061
2465.50,0.0063
2465.25,0.0064
2465.00,0.0063
2464.75,0.0062
2464.50,0.0060
2464.25,0.0058
2464.00,0.0057
2463.75,0.0056
2463.50,0.0054
2463.25,0.0053
2463.00,0.0053
2462.75,0.0054
2462.50,0.0056
2462.25,0.0058
2462.00,0.0061
2461.75,0.0062
2461.50,0.0063
2461.25,0.0063
2461.00,0.0061
2460.75,0.0059
2460.50,0.0057
2460.25,0.0056
2460.00,0.0057
2459.75,0.0058
2459.50,0.0060
2459.25,0.0061
2459.00,0.0061
2458.75,0.0061
2458.50,0.0061
2458.25,0.0060
2458.00,0.0059
2457.75,0.0057
2457.50,0.0056
2457.25,0.0055
2457.00,0.0055
2456.75,0.0054
2456.50,0.0054
2456.25,0.0054
2456.00,0.0054
2455.75,0.0055
2455.50,0.0055
2455.25,0.0055
2455.00,0.0055
2454.75,0.0054
2454.50,0.0053
2454.25,0.0053
2454.00,0.0054
2453.75,0.0056
2453.50,0.0058
2453.25,0.0059
2453.00,0.0060
2452.75,0.0060
2452.50,0.0060
2452.25,0.0059
2452.00,0.0059
2451.75,0.0060
2451.50,0.0060
2451.25,0.0061
2451.00,0.0062
2450.75,0.0062
2450.50,0.0063
2450.25,0.0063
2450.00,0.0063
2449.75,0.0061
2449.50,0.0058
2449.25,0.0056
2449.00,0.0054
2448.75,0.0054
2448.50,0.0055
2448.25,0.0058
2448.00,0.0060
2447.75,0.0060
2447.50,0.0058
2447.25,0.0057
2447.00,0.0056
2446.75,0.0057
2446.50,0.0059
2446.25,0.0061
2446.00,0.0061
2445.75,0.0059
2445.50,0.0056
2445.25,0.0054
2445.00,0.0051
2444.75,0.0050
2444.50,0.0050
2444.25,0.0052
2444.00,0.0054
2443.75,0.0056
2443.50,0.0057
2443.25,0.0057
2443.00,0.0055
2442.75,0.0053
2442.50,0.0053
2442.25,0.0054
2442.00,0.0056
2441.75,0.0059
2441.50,0.0062
2441.25,0.0064
2441.00,0.0064
2440.75,0.0063
2440.50,0.0061
2440.25,0.0061
2440.00,0.0060
2439.75,0.0060
2439.50,0.0061
2439.25,0.0061
2439.00,0.0061
2438.75,0.0060
2438.50,0.0059
2438.25,0.0058
2438.00,0.0059
2437.75,0.0061
2437.50,0.0063
2437.25,0.0063
2437.00,0.0061
2436.75,0.0058
2436.50,0.0055
2436.25,0.0051
2436.00,0.0049
2435.75,0.0049
2435.50,0.0050
2435.25,0.0051
2435.00,0.0051
2434.75,0.0051
2434.50,0.0051
2434.25,0.0052
2434.00,0.0054
2433.75,0.0057
2433.50,0.0059
2433.25,0.0060
2433.00,0.0060
2432.75,0.0060
2432.50,0.0059
2432.25,0.0060
2432.00,0.0061
2431.75,0.0061
2431.50,0.0061
2431.25,0.0060
2431.00,0.0057
2430.75,0.0055
2430.50,0.0053
2430.25,0.0053
2430.00,0.0054
2429.75,0.0055
2429.50,0.0056
2429.25,0.0057
2429.00,0.0058
2428.75,0.0060
2428.50,0.0062
2428.25,0.0063
2428.00,0.0062
2427.75,0.0061
2427.50,0.0060
2427.25,0.0060
2427.00,0.0060
2426.75,0.0061
2426.50,0.0061
2426.25,0.0062
2426.00,0.0062
2425.75,0.0061
2425.50,0.0061
2425.25,0.0060
2425.00,0.0059
2424.75,0.0059
2424.50,0.0059
2424.25,0.0059
2424.00,0.0058
2423.75,0.0056
2423.50,0.0054
2423.25,0.0052
2423.00,0.0052
2422.75,0.0054
2422.50,0.0056
2422.25,0.0058
2422.00,0.0060
2421.75,0.0060
2421.50,0.0058
2421.25,0.0056
2421.00,0.0054
2420.75,0.0053
2420.50,0.0054
2420.25,0.0055
2420.00,0.0056
2419.75,0.0056
2419.50,0.0055
2419.25,0.0053
2419.00,0.0051
2418.75,0.0050
2418.50,0.0051
2418.25,0.0053
2418.00,0.0056
2417.75,0.0059
2417.50,0.0062
2417.25,0.0063
2417.00,0.0062
2416.75,0.0060
2416.50,0.0058
2416.25,0.0055
2416.00,0.0054
2415.75,0.0054
2415.50,0.0054
2415.25,0.0056
2415.00,0.0059
2414.75,0.0061
2414.50,0.0061
2414.25,0.0061
2414.00,0.0061
2413.75,0.0061
2413.50,0.0062
2413.25,0.0062
2413.00,0.0062
2412.75,0.0061
2412.50,0.0061
2412.25,0.0061
2412.00,0.0061
2411.75,0.0062
2411.50,0.0062
2411.25,0.0061
2411.00,0.0059
2410.75,0.0056
2410.50,0.0055
2410.25,0.0055
2410.00,0.0056
2409.75,0.0057
2409.50,0.0058
2409.25,0.0058
2409.00,0.0058
2408.75,0.0058
2408.50,0.0058
2408.25,0.0058
2408.00,0.0058
2407.75,0.0058
2407.50,0.0058
2407.25,0.0059
2407.00,0.0059
2406.75,0.0060
2406.50,0.0060
2406.25,0.0059
2406.00,0.0058
2405.75,0.0056
2405.50,0.0055
2405.25,0.0055
2405.00,0.0056
2404.75,0.0057
2404.50,0.0057
2404.25,0.0056
2404.00,0.0055
2403.75,0.0054
2403.50,0.0054
2403.25,0.0054
2403.00,0.0055
2402.75,0.0055
2402.50,0.0056
2402.25,0.0057
2402.00,0.0058
2401.75,0.0059
2401.50,0.0060
2401.25,0.0059
2401.00,0.0058
2400.75,0.0057
2400.50,0.0056
2400.25,0.0055
2400.00,0.0055
2399.75,0.0054
2399.50,0.0054
2399.25,0.0054
2399.00,0.0055
2398.75,0.0057
2398.50,0.0058
2398.25,0.0059
2398.00,0.0059
2397.75,0.0058
2397.50,0.0055
2397.25,0.0054
2397.00,0.0053
2396.75,0.0053
2396.50,0.0055
2396.25,0.0057
2396.00,0.0057
2395.75,0.0056
2395.50,0.0054
2395.25,0.0052
2395.00,0.0052
2394.75,0.0053
2394.50,0.0056
2394.25,0.0058
2394.00,0.0059
2393.75,0.0059
2393.50,0.0059
2393.25,0.0058
2393.00,0.0057
2392.75,0.0056
2392.50,0.0055
2392.25,0.0055
2392.00,0.0055
2391.75,0.0056
2391.50,0.0056
2391.25,0.0055
2391.00,0.0054
2390.75,0.0053
2390.50,0.0054
2390.25,0.0056
2390.00,0.0059
2389.75,0.0061
2389.50,0.0062
2389.25,0.0062
2389.00,0.0060
2388.75,0.0059
2388.50,0.0057
2388.25,0.0056
2388.00,0.0055
2387.75,0.0055
2387.50,0.0056
2387.25,0.0056
2387.00,0.0056
2386.75,0.0055
2386.50,0.0053
2386.25,0.0052
2386.00,0.0052
2385.75,0.0054
2385.50,0.0056
2385.25,0.0058
2385.00,0.0059
2384.75,0.0058
2384.50,0.0057
2384.25,0.0057
2384.00,0.0056
2383.75,0.0056
2383.50,0.0056
2383.25,0.0056
2383.00,0.0056
2382.75,0.0056
2382.50,0.0057
2382.25,0.0057
2382.00,0.0056
2381.75,0.0055
2381.50,0.0054
2381.25,0.0053
2381.00,0.0052
2380.75,0.0051
2380.50,0.0049
2380.25,0.0047
2380.00,0.0046
2379.75,0.0045
2379.50,0.0044
2379.25,0.0045
2379.00,0.0047
2378.75,0.0049
2378.50,0.0049
2378.25,0.0049
2378.00,0.0049
2377.75,0.0049
2377.50,0.0050
2377.25,0.0053
2377.00,0.0056
2376.75,0.0058
2376.50,0.0059
2376.25,0.0060
2376.00,0.0059
2375.75,0.0058
2375.50,0.0058
2375.25,0.0057
2375.00,0.0054
2374.75,0.0051
2374.50,0.0047
2374.25,0.0045
2374.00,0.0044
2373.75,0.0044
2373.50,0.0044
2373.25,0.0043
2373.00,0.0043
2372.75,0.0043
2372.50,0.0044
2372.25,0.0045
2372.00,0.0046
2371.75,0.0047
2371.50,0.0047
2371.25,0.0047
2371.00,0.0045
2370.75,0.0042
2370.50,0.0041
2370.25,0.0041
2370.00,0.0044
2369.75,0.0047
2369.50,0.0048
2369.25,0.0050
2369.00,0.0051
2368.75,0.0052
2368.50,0.0052
2368.25,0.0052
2368.00,0.0052
2367.75,0.0052
2367.50,0.0050
2367.25,0.0046
2367.00,0.0042
2366.75,0.0040
2366.50,0.0043
2366.25,0.0047
2366.00,0.0049
2365.75,0.0048
2365.50,0.0044
2365.25,0.0042
2365.00,0.0043
2364.75,0.0048
2364.50,0.0054
2364.25,0.0059
2364.00,0.0062
2363.75,0.0061
2363.50,0.0057
2363.25,0.0051
2363.00,0.0045
2362.75,0.0042
2362.50,0.0043
2362.25,0.0049
2362.00,0.0053
2361.75,0.0054
2361.50,0.0052
2361.25,0.0050
2361.00,0.0051
2360.75,0.0053
2360.50,0.0053
2360.25,0.0052
2360.00,0.0050
2359.75,0.0048
2359.50,0.0048
2359.25,0.0049
2359.00,0.0051
2358.75,0.0054
2358.50,0.0058
2358.25,0.0059
2358.00,0.0059
2357.75,0.0058
2357.50,0.0056
2357.25,0.0055
2357.00,0.0053
2356.75,0.0053
2356.50,0.0052
2356.25,0.0052
2356.00,0.0055
2355.75,0.0059
2355.50,0.0062
2355.25,0.0062
2355.00,0.0060
2354.75,0.0055
2354.50,0.0051
2354.25,0.0049
2354.00,0.0049
2353.75,0.0051
2353.50,0.0052
2353.25,0.0052
2353.00,0.0052
2352.75,0.0052
2352.50,0.0053
2352.25,0.0055
2352.00,0.0058
2351.75,0.0061
2351.50,0.0063
2351.25,0.0063
2351.00,0.0059
2350.75,0.0055
2350.50,0.0053
2350.25,0.0053
2350.00,0.0054
2349.75,0.0055
2349.50,0.0054
2349.25,0.0053
2349.00,0.0053
2348.75,0.0053
2348.50,0.0054
2348.25,0.0056
2348.00,0.0057
2347.75,0.0057
2347.50,0.0058
2347.25,0.0058
2347.00,0.0058
2346.75,0.0058
2346.50,0.0058
2346.25,0.0056
2346.00,0.0054
2345.75,0.0053
2345.50,0.0054
2345.25,0.0056
2345.00,0.0058
2344.75,0.0059
2344.50,0.0057
2344.25,0.0051
2344.00,0.0043
2343.75,0.0039
2343.50,0.0040
2343.25,0.0045
2343.00,0.0051
2342.75,0.0057
2342.50,0.0061
2342.25,0.0060
2342.00,0.0058
2341.75,0.0057
2341.50,0.0056
2341.25,0.0054
2341.00,0.0054
2340.75,0.0053
2340.50,0.0052
2340.25,0.0052
2340.00,0.0051
2339.75,0.0049
2339.50,0.0045
2339.25,0.0043
2339.00,0.0043
2338.75,0.0045
2338.50,0.0049
2338.25,0.0053
2338.00,0.0055
2337.75,0.0057
2337.50,0.0057
2337.25,0.0055
2337.00,0.0053
2336.75,0.0051
2336.50,0.0047
2336.25,0.0043
2336.00,0.0041
2335.75,0.0042
2335.50,0.0046
2335.25,0.0050
2335.00,0.0054
2334.75,0.0056
2334.50,0.0056
2334.25,0.0053
2334.00,0.0048
2333.75,0.0043
2333.50,0.0042
2333.25,0.0044
2333.00,0.0045
2332.75,0.0045
2332.50,0.0045
2332.25,0.0045
2332.00,0.0046
2331.75,0.0047
2331.50,0.0048
2331.25,0.0048
2331.00,0.0046
2330.75,0.0043
2330.50,0.0042
2330.25,0.0042
2330.00,0.0044
2329.75,0.0048
2329.50,0.0050
2329.25,0.0052
2329.00,0.0054
2328.75,0.0057
2328.50,0.0059
2328.25,0.0059
2328.00,0.0057
2327.75,0.0056
2327.50,0.0054
2327.25,0.0051
2327.00,0.0046
2326.75,0.0041
2326.50,0.0038
2326.25,0.0039
2326.00,0.0043
2325.75,0.0048
2325.50,0.0054
2325.25,0.0059
2325.00,0.0062
2324.75,0.0061
2324.50,0.0055
2324.25,0.0051
2324.00,0.0050
2323.75,0.0051
2323.50,0.0051
2323.25,0.0049
2323.00,0.0046
2322.75,0.0044
2322.50,0.0046
2322.25,0.0050
2322.00,0.0055
2321.75,0.0059
2321.50,0.0060
2321.25,0.0058
2321.00,0.0052
2320.75,0.0047
2320.50,0.0047
2320.25,0.0050
2320.00,0.0055
2319.75,0.0060
2319.50,0.0062
2319.25,0.0061
2319.00,0.0057
2318.75,0.0052
2318.50,0.0049
2318.25,0.0047
2318.00,0.0047
2317.75,0.0048
2317.50,0.0049
2317.25,0.0052
2317.00,0.0054
2316.75,0.0055
2316.50,0.0055
2316.25,0.0056
2316.00,0.0056
2315.75,0.0056
2315.50,0.0055
2315.25,0.0054
2315.00,0.0052
2314.75,0.0051
2314.50,0.0051
2314.25,0.0051
2314.00,0.0050
2313.75,0.0048
2313.50,0.0044
2313.25,0.0039
2313.00,0.0036
2312.75,0.0036
2312.50,0.0039
2312.25,0.0043
2312.00,0.0047
2311.75,0.0049
2311.50,0.0051
2311.25,0.0051
2311.00,0.0052
2310.75,0.0051
2310.50,0.0050
2310.25,0.0049
2310.00,0.0048
2309.75,0.0048
2309.50,0.0048
2309.25,0.0049
2309.00,0.0050
2308.75,0.0050
2308.50,0.0050
2308.25,0.0049
2308.00,0.0050
2307.75,0.0051
2307.50,0.0051
2307.25,0.0050
2307.00,0.0049
2306.75,0.0048
2306.50,0.0047
2306.25,0.0049
2306.00,0.0051
2305.75,0.0053
2305.50,0.0055
2305.25,0.0056
2305.00,0.0055
2304.75,0.0053
2304.50,0.0051
2304.25,0.0050
2304.00,0.0052
2303.75,0.0054
2303.50,0.0056
2303.25,0.0057
2303.00,0.0055
2302.75,0.0053
2302.50,0.0052
2302.25,0.0051
2302.00,0.0051
2301.75,0.0051
2301.50,0.0051
2301.25,0.0050
2301.00,0.0050
2300.75,0.0050
2300.50,0.0051
2300.25,0.0052
2300.00,0.0052
2299.75,0.0051
2299.50,0.0050
2299.25,0.0049
2299.00,0.0049
2298.75,0.0048
2298.50,0.0048
2298.25,0.0049
2298.00,0.0050
2297.75,0.0051
2297.50,0.0051
2297.25,0.0051
2297.00,0.0050
2296.75,0.0050
2296.50,0.0051
2296.25,0.0052
2296.00,0.0054
2295.75,0.0055
2295.50,0.0055
2295.25,0.0055
2295.00,0.0055
2294.75,0.0054
2294.50,0.0054
2294.25,0.0054
2294.00,0.0054
2293.75,0.0054
2293.50,0.0055
2293.25,0.0056
2293.00,0.0057
2292.75,0.0056
2292.50,0.0053
2292.25,0.0051
2292.00,0.0050
2291.75,0.0052
2291.50,0.0053
2291.25,0.0053
2291.00,0.0052
2290.75,0.0051
2290.50,0.0051
2290.25,0.0053
2290.00,0.0056
2289.75,0.0059
2289.50,0.0061
2289.25,0.0061
2289.00,0.0059
2288.75,0.0057
2288.50,0.0054
2288.25,0.0052
2288.00,0.0049
2287.75,0.0047
2287.50,0.0047
2287.25,0.0049
2287.00,0.0052
2286.75,0.0055
2286.50,0.0056
2286.25,0.0055
2286.00,0.0055
2285.75,0.0055
2285.50,0.0057
2285.25,0.0059
2285.00,0.0060
2284.75,0.0059
2284.50,0.0057
2284.25,0.0054
2284.00,0.0052
2283.75,0.0050
2283.50,0.0051
2283.25,0.0053
2283.00,0.0055
2282.75,0.0055
2282.50,0.0055
2282.25,0.0054
2282.00,0.0054
2281.75,0.0054
2281.50,0.0054
2281.25,0.0054
2281.00,0.0054
2280.75,0.0054
2280.50,0.0054
2280.25,0.0054
2280.00,0.0052
2279.75,0.0050
2279.50,0.0049
2279.25,0.0050
2279.00,0.0051
2278.75,0.0051
2278.50,0.0052
2278.25,0.0051
2278.00,0.0050
2277.75,0.0050
2277.50,0.0049
2277.25,0.0049
2277.00,0.0052
2276.75,0.0054
2276.50,0.0056
2276.25,0.0054
2276.00,0.0051
2275.75,0.0047
2275.50,0.0046
2275.25,0.0047
2275.00,0.0051
2274.75,0.0055
2274.50,0.0059
2274.25,0.0062
2274.00,0.0064
2273.75,0.0064
2273.50,0.0061
2273.25,0.0057
2273.00,0.0052
2272.75,0.0048
2272.50,0.0045
2272.25,0.0045
2272.00,0.0047
2271.75,0.0050
2271.50,0.0053
2271.25,0.0056
2271.00,0.0056
2270.75,0.0056
2270.50,0.0054
2270.25,0.0052
2270.00,0.0052
2269.75,0.0052
2269.50,0.0053
2269.25,0.0053
2269.00,0.0052
2268.75,0.0050
2268.50,0.0050
2268.25,0.0050
2268.00,0.0051
2267.75,0.0051
2267.50,0.0050
2267.25,0.0049
2267.00,0.0049
2266.75,0.0048
2266.50,0.0049
2266.25,0.0051
2266.00,0.0053
2265.75,0.0055
2265.50,0.0056
2265.25,0.0055
2265.00,0.0054
2264.75,0.0052
2264.50,0.0050
2264.25,0.0049
2264.00,0.0049
2263.75,0.0049
2263.50,0.0049
2263.25,0.0048
2263.00,0.0045
2262.75,0.0044
2262.50,0.0043
2262.25,0.0045
2262.00,0.0049
2261.75,0.0052
2261.50,0.0055
2261.25,0.0057
2261.00,0.0058
2260.75,0.0059
2260.50,0.0058
2260.25,0.0057
2260.00,0.0055
2259.75,0.0053
2259.50,0.0052
2259.25,0.0051
2259.00,0.0049
2258.75,0.0048
2258.50,0.0047
2258.25,0.0047
2258.00,0.0049
2257.75,0.0052
2257.50,0.0054
2257.25,0.0054
2257.00,0.0053
2256.75,0.0052
2256.50,0.0050
2256.25,0.0048
2256.00,0.0046
2255.75,0.0044
2255.50,0.0042
2255.25,0.0041
2255.00,0.0042
2254.75,0.0045
2254.50,0.0047
2254.25,0.0048
2254.00,0.0047
2253.75,0.0045
2253.50,0.0042
2253.25,0.0041
2253.00,0.0042
2252.75,0.0044
2252.50,0.0047
2252.25,0.0051
2252.00,0.0052
2251.75,0.0052
2251.50,0.0050
2251.25,0.0049
2251.00,0.0049
2250.75,0.0051
2250.50,0.0053
2250.25,0.0055
2250.00,0.0056
2249.75,0.0054
2249.50,0.0052
2249.25,0.0048
2249.00,0.0045
2248.75,0.0042
2248.50,0.0040
2248.25,0.0041
2248.00,0.0043
2247.75,0.0046
2247.50,0.0049
2247.25,0.0052
2247.00,0.0054
2246.75,0.0054
2246.50,0.0053
2246.25,0.0049
2246.00,0.0045
2245.75,0.0043
2245.50,0.0043
2245.25,0.0044
2245.00,0.0046
2244.75,0.0048
2244.50,0.0050
2244.25,0.0051
2244.00,0.0050
2243.75,0.0048
2243.50,0.0045
2243.25,0.0043
2243.00,0.0042
2242.75,0.0043
2242.50,0.0043
2242.25,0.0045
2242.00,0.0046
2241.75,0.0047
2241.50,0.0046
2241.25,0.0044
2241.00,0.0041
2240.75,0.0040
2240.50,0.0040
2240.25,0.0041
2240.00,0.0040
2239.75,0.0039
2239.50,0.0037
2239.25,0.0036
2239.00,0.0037
2238.75,0.0039
2238.50,0.0043
2238.25,0.0046
2238.00,0.0049
2237.75,0.0052
2237.50,0.0053
2237.25,0.0053
2237.00,0.0053
2236.75,0.0052
2236.50,0.0051
2236.25,0.0049
2236.00,0.0047
2235.75,0.0045
2235.50,0.0042
2235.25,0.0040
2235.00,0.0039
2234.75,0.0039
2234.50,0.0040
2234.25,0.0041
2234.00,0.0042
2233.75,0.0043
2233.50,0.0045
2233.25,0.0049
2233.00,0.0053
2232.75,0.0056
2232.50,0.0057
2232.25,0.0056
2232.00,0.0054
2231.75,0.0053
2231.50,0.0052
2231.25,0.0052
2231.00,0.0050
2230.75,0.0048
2230.50,0.0046
2230.25,0.0044
2230.00,0.0042
2229.75,0.0041
2229.50,0.0041
2229.25,0.0041
2229.00,0.0042
2228.75,0.0043
2228.50,0.0044
2228.25,0.0043
2228.00,0.0043
2227.75,0.0043
2227.50,0.0044
2227.25,0.0045
2227.00,0.0046
2226.75,0.0047
2226.50,0.0046
2226.25,0.0043
2226.00,0.0039
2225.75,0.0037
2225.50,0.0037
2225.25,0.0040
2225.00,0.0044
2224.75,0.0048
2224.50,0.0050
2224.25,0.0050
2224.00,0.0048
2223.75,0.0047
2223.50,0.0046
2223.25,0.0047
2223.00,0.0048
2222.75,0.0049
2222.50,0.0048
2222.25,0.0047
2222.00,0.0046
2221.75,0.0046
2221.50,0.0045
2221.25,0.0044
2221.00,0.0042
2220.75,0.0041
2220.50,0.0040
2220.25,0.0040
2220.00,0.0040
2219.75,0.0042
2219.50,0.0045
2219.25,0.0050
2219.00,0.0053
2218.75,0.0054
2218.50,0.0050
2218.25,0.0045
2218.00,0.0040
2217.75,0.0037
2217.50,0.0035
2217.25,0.0036
2217.00,0.0037
2216.75,0.0038
2216.50,0.0039
2216.25,0.0040
2216.00,0.0039
2215.75,0.0039
2215.50,0.0041
2215.25,0.0044
2215.00,0.0047
2214.75,0.0049
2214.50,0.0048
2214.25,0.0045
2214.00,0.0042
2213.75,0.0038
2213.50,0.0034
2213.25,0.0031
2213.00,0.0030
2212.75,0.0030
2212.50,0.0032
2212.25,0.0035
2212.00,0.0038
2211.75,0.0041
2211.50,0.0044
2211.25,0.0046
2211.00,0.0046
2210.75,0.0046
2210.50,0.0044
2210.25,0.0043
2210.00,0.0041
2209.75,0.0038
2209.50,0.0035
2209.25,0.0034
2209.00,0.0034
2208.75,0.0036
2208.50,0.0037
2208.25,0.0038
2208.00,0.0037
2207.75,0.0035
2207.50,0.0034
2207.25,0.0033
2207.00,0.0032
2206.75,0.0033
2206.50,0.0034
2206.25,0.0036
2206.00,0.0035
2205.75,0.0034
2205.50,0.0031
2205.25,0.0031
2205.00,0.0033
2204.75,0.0039
2204.50,0.0045
2204.25,0.0051
2204.00,0.0052
2203.75,0.0049
2203.50,0.0043
2203.25,0.0038
2203.00,0.0034
2202.75,0.0032
2202.50,0.0030
2202.25,0.0028
2202.00,0.0026
2201.75,0.0026
2201.50,0.0029
2201.25,0.0034
2201.00,0.0038
2200.75,0.0040
2200.50,0.0040
2200.25,0.0038
2200.00,0.0038
2199.75,0.0038
2199.50,0.0038
2199.25,0.0037
2199.00,0.0036
2198.75,0.0035
2198.50,0.0035
2198.25,0.0035
2198.00,0.0032
2197.75,0.0027
2197.50,0.0022
2197.25,0.0020
2197.00,0.0023
2196.75,0.0029
2196.50,0.0036
2196.25,0.0041
2196.00,0.0043
2195.75,0.0042
2195.50,0.0039
2195.25,0.0037
2195.00,0.0035
2194.75,0.0035
2194.50,0.0034
2194.25,0.0032
2194.00,0.0029
2193.75,0.0025
2193.50,0.0021
2193.25,0.0016
2193.00,0.0012
2192.75,0.0009
2192.50,0.0008
2192.25,0.0010
2192.00,0.0016
2191.75,0.0026
2191.50,0.0035
2191.25,0.0041
2191.00,0.0043
2190.75,0.0040
2190.50,0.0035
2190.25,0.0031
2190.00,0.0029
2189.75,0.0031
2189.50,0.0033
2189.25,0.0035
2189.00,0.0035
2188.75,0.0034
2188.50,0.0032
2188.25,0.0031
2188.00,0.0030
2187.75,0.0030
2187.50,0.0030
2187.25,0.0030
2187.00,0.0030
2186.75,0.0029
2186.50,0.0026
2186.25,0.0022
2186.00,0.0018
2185.75,0.0015
2185.50,0.0014
2185.25,0.0014
2185.00,0.0017
2184.75,0.0021
2184.50,0.0027
2184.25,0.0033
2184.00,0.0037
2183.75,0.0039
2183.50,0.0037
2183.25,0.0035
2183.00,0.0032
2182.75,0.0031
2182.50,0.0030
2182.25,0.0029
2182.00,0.0026
2181.75,0.0022
2181.50,0.0017
2181.25,0.0015
2181.00,0.0015
2180.75,0.0017
2180.50,0.0020
2180.25,0.0023
2180.00,0.0025
2179.75,0.0028
2179.50,0.0030
2179.25,0.0032
2179.00,0.0032
2178.75,0.0029
2178.50,0.0026
2178.25,0.0023
2178.00,0.0021
2177.75,0.0022
2177.50,0.0025
2177.25,0.0030
2177.00,0.0036
2176.75,0.0041
2176.50,0.0044
2176.25,0.0043
2176.00,0.0038
2175.75,0.0029
2175.50,0.0019
2175.25,0.0012
2175.00,0.0009
2174.75,0.0010
2174.50,0.0015
2174.25,0.0018
2174.00,0.0021
2173.75,0.0021
2173.50,0.0021
2173.25,0.0020
2173.00,0.0020
2172.75,0.0020
2172.50,0.0021
2172.25,0.0023
2172.00,0.0024
2171.75,0.0025
2171.50,0.0025
2171.25,0.0024
2171.00,0.0024
2170.75,0.0026
2170.50,0.0026
2170.25,0.0024
2170.00,0.0021
2169.75,0.0018
2169.50,0.0019
2169.25,0.0022
2169.00,0.0026
2168.75,0.0027
2168.50,0.0026
2168.25,0.0024
2168.00,0.0022
2167.75,0.0020
2167.50,0.0019
2167.25,0.0019
2167.00,0.0020
2166.75,0.0023
2166.50,0.0025
2166.25,0.0026
2166.00,0.0025
2165.75,0.0025
2165.50,0.0027
2165.25,0.0030
2165.00,0.0034
2164.75,0.0037
2164.50,0.0038
2164.25,0.0036
2164.00,0.0033
2163.75,0.0029
2163.50,0.0024
2163.25,0.0019
2163.00,0.0016
2162.75,0.0013
2162.50,0.0013
2162.25,0.0015
2162.00,0.0018
2161.75,0.0022
2161.50,0.0025
2161.25,0.0024
2161.00,0.0020
2160.75,0.0015
2160.50,0.0011
2160.25,0.0011
2160.00,0.0015
2159.75,0.0021
2159.50,0.0025
2159.25,0.0026
2159.00,0.0023
2158.75,0.0020
2158.50,0.0016
2158.25,0.0012
2158.00,0.0007
2157.75,0.0002
2157.50,-0.0002
2157.25,-0.0005
2157.00,-0.0006
2156.75,-0.0004
2156.50,0.0000
2156.25,0.0006
2156.00,0.0011
2155.75,0.0015
2155.50,0.0017
2155.25,0.0017
2155.00,0.0014
2154.75,0.0011
2154.50,0.0009
2154.25,0.0011
2154.00,0.0015
2153.75,0.0021
2153.50,0.0026
2153.25,0.0028
2153.00,0.0027
2152.75,0.0023
2152.50,0.0020
2152.25,0.0017
2152.00,0.0014
2151.75,0.0013
2151.50,0.0012
2151.25,0.0013
2151.00,0.0014
2150.75,0.0016
2150.50,0.0017
2150.25,0.0017
2150.00,0.0017
2149.75,0.0017
2149.50,0.0018
2149.25,0.0020
2149.00,0.0023
2148.75,0.0025
2148.50,0.0025
2148.25,0.0024
2148.00,0.0022
2147.75,0.0020
2147.50,0.0019
2147.25,0.0018
2147.00,0.0016
2146.75,0.0014
2146.50,0.0014
2146.25,0.0018
2146.00,0.0024
2145.75,0.0031
2145.50,0.0037
2145.25,0.0039
2145.00,0.0037
2144.75,0.0033
2144.50,0.0027
2144.25,0.0022
2144.00,0.0018
2143.75,0.0017
2143.50,0.0019
2143.25,0.0023
2143.00,0.0028
2142.75,0.0033
2142.50,0.0036
2142.25,0.0036
2142.00,0.0033
2141.75,0.0029
2141.50,0.0024
2141.25,0.0021
2141.00,0.0019
2140.75,0.0020
2140.50,0.0023
2140.25,0.0027
2140.00,0.0033
2139.75,0.0039
2139.50,0.0042
2139.25,0.0043
2139.00,0.0042
2138.75,0.0038
2138.50,0.0036
2138.25,0.0036
2138.00,0.0040
2137.75,0.0044
2137.50,0.0046
2137.25,0.0045
2137.00,0.0039
2136.75,0.0034
2136.50,0.0029
2136.25,0.0027
2136.00,0.0027
2135.75,0.0028
2135.50,0.0029
2135.25,0.0030
2135.00,0.0032
2134.75,0.0033
2134.50,0.0035
2134.25,0.0035
2134.00,0.0035
2133.75,0.0035
2133.50,0.0036
2133.25,0.0039
2133.00,0.0041
2132.75,0.0043
2132.50,0.0042
2132.25,0.0039
2132.00,0.0035
2131.75,0.0032
2131.50,0.0032
2131.25,0.0034
2131.00,0.0037
2130.75,0.0039
2130.50,0.0041
2130.25,0.0040
2130.00,0.0038
2129.75,0.0037
2129.50,0.0037
2129.25,0.0039
2129.00,0.0043
2128.75,0.0047
2128.50,0.0047
2128.25,0.0043
2128.00,0.0036
2127.75,0.0030
2127.50,0.0027
2127.25,0.0026
2127.00,0.0028
2126.75,0.0031
2126.50,0.0035
2126.25,0.0037
2126.00,0.0039
2125.75,0.0039
2125.50,0.0038
2125.25,0.0037
2125.00,0.0037
2124.75,0.0039
2124.50,0.0041
2124.25,0.0043
2124.00,0.0043
2123.75,0.0042
2123.50,0.0040
2123.25,0.0038
2123.00,0.0036
2122.75,0.0035
2122.50,0.0035
2122.25,0.0037
2122.00,0.0039
2121.75,0.0042
2121.50,0.0044
2121.25,0.0047
2121.00,0.0048
2120.75,0.0047
2120.50,0.0044
2120.25,0.0039
2120.00,0.0034
2119.75,0.0032
2119.50,0.0031
2119.25,0.0032
2119.00,0.0034
2118.75,0.0035
2118.50,0.0036
2118.25,0.0037
2118.00,0.0040
2117.75,0.0042
2117.50,0.0043
2117.25,0.0041
2117.00,0.0037
2116.75,0.0035
2116.50,0.0033
2116.25,0.0033
2116.00,0.0035
2115.75,0.0036
2115.50,0.0038
2115.25,0.0039
2115.00,0.0041
2114.75,0.0044
2114.50,0.0046
2114.25,0.0047
2114.00,0.0046
2113.75,0.0043
2113.50,0.0040
2113.25,0.0038
2113.00,0.0037
2112.75,0.0036
2112.50,0.0034
2112.25,0.0031
2112.00,0.0029
2111.75,0.0026
2111.50,0.0027
2111.25,0.0029
2111.00,0.0032
2110.75,0.0034
2110.50,0.0034
2110.25,0.0034
2110.00,0.0034
2109.75,0.0035
2109.50,0.0036
2109.25,0.0037
2109.00,0.0037
2108.75,0.0037
2108.50,0.0037
2108.25,0.0038
2108.00,0.0039
2107.75,0.0041
2107.50,0.0042
2107.25,0.0043
2107.00,0.0043
2106.75,0.0043
2106.50,0.0043
2106.25,0.0043
2106.00,0.0043
2105.75,0.0044
2105.50,0.0046
2105.25,0.0049
2105.00,0.0051
2104.75,0.0051
2104.50,0.0050
2104.25,0.0047
2104.00,0.0044
2103.75,0.0043
2103.50,0.0042
2103.25,0.0043
2103.00,0.0044
2102.75,0.0046
2102.50,0.0048
2102.25,0.0049
2102.00,0.0050
2101.75,0.0050
2101.50,0.0050
2101.25,0.0049
2101.00,0.0047
2100.75,0.0043
2100.50,0.0038
2100.25,0.0035
2100.00,0.0035
2099.75,0.0038
2099.50,0.0041
2099.25,0.0044
2099.00,0.0046
2098.75,0.0046
2098.50,0.0047
2098.25,0.0046
2098.00,0.0044
2097.75,0.0040
2097.50,0.0037
2097.25,0.0035
2097.00,0.0035
2096.75,0.0036
2096.50,0.0038
2096.25,0.0040
2096.00,0.0040
2095.75,0.0040
2095.50,0.0041
2095.25,0.0043
2095.00,0.0047
2094.75,0.0049
2094.50,0.0051
2094.25,0.0052
2094.00,0.0051
2093.75,0.0050
2093.50,0.0048
2093.25,0.0045
2093.00,0.0042
2092.75,0.0040
2092.50,0.0040
2092.25,0.0041
2092.00,0.0042
2091.75,0.0042
2091.50,0.0040
2091.25,0.0040
2091.00,0.0040
2090.75,0.0043
2090.50,0.0046
2090.25,0.0047
2090.00,0.0046
2089.75,0.0044
2089.50,0.0042
2089.25,0.0040
2089.00,0.0039
2088.75,0.0039
2088.50,0.0040
2088.25,0.0041
2088.00,0.0041
2087.75,0.0041
2087.50,0.0040
2087.25,0.0040
2087.00,0.0042
2086.75,0.0045
2086.50,0.0048
2086.25,0.0048
2086.00,0.0045
2085.75,0.0041
2085.50,0.0037
2085.25,0.0034
2085.00,0.0033
2084.75,0.0034
2084.50,0.0035
2084.25,0.0035
2084.00,0.0034
2083.75,0.0031
2083.50,0.0029
2083.25,0.0027
2083.00,0.0027
2082.75,0.0030
2082.50,0.0035
2082.25,0.0040
2082.00,0.0045
2081.75,0.0048
2081.50,0.0050
2081.25,0.0050
2081.00,0.0049
2080.75,0.0047
2080.50,0.0045
2080.25,0.0045
2080.00,0.0046
2079.75,0.0046
2079.50,0.0044
2079.25,0.0041
2079.00,0.0038
2078.75,0.0037
2078.50,0.0037
2078.25,0.0038
2078.00,0.0039
2077.75,0.0038
2077.50,0.0038
2077.25,0.0040
2077.00,0.0042
2076.75,0.0043
2076.50,0.0043
2076.25,0.0041
2076.00,0.0039
2075.75,0.0036
2075.50,0.0035
2075.25,0.0034
2075.00,0.0035
2074.75,0.0035
2074.50,0.0033
2074.25,0.0032
2074.00,0.0030
2073.75,0.0031
2073.50,0.0033
2073.25,0.0035
2073.00,0.0038
2072.75,0.0040
2072.50,0.0042
2072.25,0.0042
2072.00,0.0042
2071.75,0.0042
2071.50,0.0043
2071.25,0.0044
2071.00,0.0045
2070.75,0.0043
2070.50,0.0040
2070.25,0.0037
2070.00,0.0036
2069.75,0.0036
2069.50,0.0036
2069.25,0.0036
2069.00,0.0037
2068.75,0.0038
2068.50,0.0039
2068.25,0.0039
2068.00,0.0037
2067.75,0.0036
2067.50,0.0037
2067.25,0.0039
2067.00,0.0041
2066.75,0.0042
2066.50,0.0042
2066.25,0.0041
2066.00,0.0040
2065.75,0.0040
2065.50,0.0040
2065.25,0.0040
2065.00,0.0038
2064.75,0.0036
2064.50,0.0036
2064.25,0.0037
2064.00,0.0038
2063.75,0.0039
2063.50,0.0039
2063.25,0.0039
2063.00,0.0038
2062.75,0.0037
2062.50,0.0036
2062.25,0.0036
2062.00,0.0035
2061.75,0.0036
2061.50,0.0036
2061.25,0.0038
2061.00,0.0038
2060.75,0.0039
2060.50,0.0038
2060.25,0.0037
2060.00,0.0035
2059.75,0.0032
2059.50,0.0030
2059.25,0.0029
2059.00,0.0030
2058.75,0.0032
2058.50,0.0036
2058.25,0.0040
2058.00,0.0044
2057.75,0.0045
2057.50,0.0044
2057.25,0.0039
2057.00,0.0034
2056.75,0.0029
2056.50,0.0027
2056.25,0.0028
2056.00,0.0031
2055.75,0.0035
2055.50,0.0037
2055.25,0.0038
2055.00,0.0037
2054.75,0.0037
2054.50,0.0038
2054.25,0.0038
2054.00,0.0038
2053.75,0.0036
2053.50,0.0034
2053.25,0.0033
2053.00,0.0034
2052.75,0.0035
2052.50,0.0036
2052.25,0.0036
2052.00,0.0037
2051.75,0.0037
2051.50,0.0037
2051.25,0.0037
2051.00,0.0035
2050.75,0.0034
2050.50,0.0034
2050.25,0.0036
2050.00,0.0038
2049.75,0.0039
2049.50,0.0037
2049.25,0.0034
2049.00,0.0031
2048.75,0.0029
2048.50,0.0027
2048.25,0.0026
2048.00,0.0027
2047.75,0.0030
2047.50,0.0034
2047.25,0.0038
2047.00,0.0040
2046.75,0.0042
2046.50,0.0042
2046.25,0.0042
2046.00,0.0039
2045.75,0.0036
2045.50,0.0032
2045.25,0.0029
2045.00,0.0028
2044.75,0.0029
2044.50,0.0031
2044.25,0.0033
2044.00,0.0035
2043.75,0.0035
2043.50,0.0034
2043.25,0.0031
2043.00,0.0027
2042.75,0.0023
2042.50,0.0022
2042.25,0.0023
2042.00,0.0026
2041.75,0.0030
2041.50,0.0033
2041.25,0.0033
2041.00,0.0031
2040.75,0.0027
2040.50,0.0024
2040.25,0.0024
2040.00,0.0027
2039.75,0.0033
2039.50,0.0038
2039.25,0.0042
2039.00,0.0043
2038.75,0.0041
2038.50,0.0036
2038.25,0.0032
2038.00,0.0029
2037.75,0.0031
2037.50,0.0036
2037.25,0.0041
2037.00,0.0044
2036.75,0.0042
2036.50,0.0036
2036.25,0.0028
2036.00,0.0022
2035.75,0.0018
2035.50,0.0018
2035.25,0.0018
2035.00,0.0020
2034.75,0.0020
2034.50,0.0021
2034.25,0.0023
2034.00,0.0025
2033.75,0.0026
2033.50,0.0027
2033.25,0.0026
2033.00,0.0025
2032.75,0.0025
2032.50,0.0027
2032.25,0.0030
2032.00,0.0033
2031.75,0.0034
2031.50,0.0033
2031.25,0.0032
2031.00,0.0031
2030.75,0.0029
2030.50,0.0028
2030.25,0.0028
2030.00,0.0028
2029.75,0.0029
2029.50,0.0028
2029.25,0.0024
2029.00,0.0019
2028.75,0.0013
2028.50,0.0011
2028.25,0.0013
2028.00,0.0016
2027.75,0.0021
2027.50,0.0028
2027.25,0.0037
2027.00,0.0047
2026.75,0.0054
2026.50,0.0055
2026.25,0.0052
2026.00,0.0047
2025.75,0.0040
2025.50,0.0031
2025.25,0.0021
2025.00,0.0012
2024.75,0.0005
2024.50,0.0004
2024.25,0.0009
2024.00,0.0017
2023.75,0.0025
2023.50,0.0031
2023.25,0.0032
2023.00,0.0030
2022.75,0.0026
2022.50,0.0022
2022.25,0.0019
2022.00,0.0019
2021.75,0.0022
2021.50,0.0025
2021.25,0.0027
2021.00,0.0028
2020.75,0.0028
2020.50,0.0029
2020.25,0.0032
2020.00,0.0034
2019.75,0.0035
2019.50,0.0035
2019.25,0.0035
2019.00,0.0037
2018.75,0.0040
2018.50,0.0042
2018.25,0.0041
2018.00,0.0039
2017.75,0.0038
2017.50,0.0037
2017.25,0.0035
2017.00,0.0031
2016.75,0.0026
2016.50,0.0024
2016.25,0.0027
2016.00,0.0032
2015.75,0.0037
2015.50,0.0039
2015.25,0.0039
2015.00,0.0038
2014.75,0.0038
2014.50,0.0040
2014.25,0.0043
2014.00,0.0044
2013.75,0.0043
2013.50,0.0039
2013.25,0.0034
2013.00,0.0029
2012.75,0.0027
2012.50,0.0028
2012.25,0.0031
2012.00,0.0032
2011.75,0.0033
2011.50,0.0034
2011.25,0.0036
2011.00,0.0039
2010.75,0.0041
2010.50,0.0041
2010.25,0.0041
2010.00,0.0040
2009.75,0.0039
2009.50,0.0039
2009.25,0.0040
2009.00,0.0041
2008.75,0.0040
2008.50,0.0038
2008.25,0.0036
2008.00,0.0035
2007.75,0.0035
2007.50,0.0034
2007.25,0.0033
2007.00,0.0030
2006.75,0.0028
2006.50,0.0028
2006.25,0.0030
2006.00,0.0031
2005.75,0.0032
2005.50,0.0032
2005.25,0.0032
2005.00,0.0034
2004.75,0.0037
2004.50,0.0038
2004.25,0.0038
2004.00,0.0034
2003.75,0.0028
2003.50,0.0024
2003.25,0.0022
2003.00,0.0024
2002.75,0.0029
2002.50,0.0033
2002.25,0.0034
2002.00,0.0030
2001.75,0.0025
2001.50,0.0020
2001.25,0.0018
2001.00,0.0022
2000.75,0.0028
2000.50,0.0035
2000.25,0.0040
2000.00,0.0042
1999.75,0.0042
1999.50,0.0041
1999.25,0.0040
1999.00,0.0041
1998.75,0.0042
1998.50,0.0042
1998.25,0.0042
1998.00,0.0039
1997.75,0.0036
1997.50,0.0033
1997.25,0.0032
1997.00,0.0032
1996.75,0.0034
1996.50,0.0038
1996.25,0.0040
1996.00,0.0040
1995.75,0.0037
1995.50,0.0034
1995.25,0.0033
1995.00,0.0035
1994.75,0.0038
1994.50,0.0042
1994.25,0.0044
1994.00,0.0044
1993.75,0.0045
1993.50,0.0045
1993.25,0.0045
1993.00,0.0044
1992.75,0.0043
1992.50,0.0042
1992.25,0.0041
1992.00,0.0040
1991.75,0.0041
1991.50,0.0045
1991.25,0.0050
1991.00,0.0056
1990.75,0.0061
1990.50,0.0064
1990.25,0.0063
1990.00,0.0058
1989.75,0.0051
1989.50,0.0046
1989.25,0.0044
1989.00,0.0044
1988.75,0.0046
1988.50,0.0046
1988.25,0.0044
1988.00,0.0040
1987.75,0.0039
1987.50,0.0040
1987.25,0.0044
1987.00,0.0048
1986.75,0.0051
1986.50,0.0052
1986.25,0.0052
1986.00,0.0051
1985.75,0.0050
1985.50,0.0048
1985.25,0.0047
1985.00,0.0045
1984.75,0.0044
1984.50,0.0042
1984.25,0.0040
1984.00,0.0038
1983.75,0.0038
1983.50,0.0039
1983.25,0.0041
1983.00,0.0040
1982.75,0.0039
1982.50,0.0039
1982.25,0.0040
1982.00,0.0042
1981.75,0.0043
1981.50,0.0041
1981.25,0.0037
1981.00,0.0034
1980.75,0.0034
1980.50,0.0038
1980.25,0.0044
1980.00,0.0050
1979.75,0.0056
1979.50,0.0061
1979.25,0.0064
1979.00,0.0065
1978.75,0.0063
1978.50,0.0059
1978.25,0.0053
1978.00,0.0048
1977.75,0.0042
1977.50,0.0039
1977.25,0.0037
1977.00,0.0039
1976.75,0.0044
1976.50,0.0051
1976.25,0.0056
1976.00,0.0057
1975.75,0.0052
1975.50,0.0044
1975.25,0.0038
1975.00,0.0036
1974.75,0.0039
1974.50,0.0043
1974.25,0.0044
1974.00,0.0043
1973.75,0.0040
1973.50,0.0039
1973.25,0.0039
1973.00,0.0040
1972.75,0.0039
1972.50,0.0036
1972.25,0.0034
1972.00,0.0034
1971.75,0.0036
1971.50,0.0039
1971.25,0.0042
1971.00,0.0046
1970.75,0.0048
1970.50,0.0049
1970.25,0.0051
1970.00,0.0052
1969.75,0.0052
1969.50,0.0050
1969.25,0.0045
1969.00,0.0040
1968.75,0.0037
1968.50,0.0038
1968.25,0.0042
1968.00,0.0046
1967.75,0.0048
1967.50,0.0046
1967.25,0.0044
1967.00,0.0042
1966.75,0.0043
1966.50,0.0046
1966.25,0.0048
1966.00,0.0048
1965.75,0.0046
1965.50,0.0044
1965.25,0.0043
1965.00,0.0043
1964.75,0.0044
1964.50,0.0045
1964.25,0.0047
1964.00,0.0050
1963.75,0.0052
1963.50,0.0053
1963.25,0.0052
1963.00,0.0049
1962.75,0.0048
1962.50,0.0049
1962.25,0.0053
1962.00,0.0057
1961.75,0.0057
1961.50,0.0054
1961.25,0.0048
1961.00,0.0042
1960.75,0.0040
1960.50,0.0041
1960.25,0.0045
1960.00,0.0047
1959.75,0.0046
1959.50,0.0045
1959.25,0.0045
1959.00,0.0047
1958.75,0.0051
1958.50,0.0054
1958.25,0.0053
1958.00,0.0050
1957.75,0.0047
1957.50,0.0045
1957.25,0.0046
1957.00,0.0048
1956.75,0.0048
1956.50,0.0046
1956.25,0.0045
1956.00,0.0046
1955.75,0.0049
1955.50,0.0052
1955.25,0.0055
1955.00,0.0057
1954.75,0.0057
1954.50,0.0056
1954.25,0.0054
1954.00,0.0053
1953.75,0.0053
1953.50,0.0056
1953.25,0.0061
1953.00,0.0066
1952.75,0.0069
1952.50,0.0068
1952.25,0.0063
1952.00,0.0057
1951.75,0.0053
1951.50,0.0050
1951.25,0.0049
1951.00,0.0047
1950.75,0.0047
1950.50,0.0048
1950.25,0.0050
1950.00,0.0052
1949.75,0.0053
1949.50,0.0052
1949.25,0.0051
1949.00,0.0051
1948.75,0.0051
1948.50,0.0052
1948.25,0.0053
1948.00,0.0054
1947.75,0.0055
1947.50,0.0056
1947.25,0.0057
1947.00,0.0059
1946.75,0.0059
1946.50,0.0059
1946.25,0.0059
1946.00,0.0061
1945.75,0.0063
1945.50,0.0067
1945.25,0.0068
1945.00,0.0065
1944.75,0.0059
1944.50,0.0051
1944.25,0.0043
1944.00,0.0038
1943.75,0.0036
1943.50,0.0039
1943.25,0.0044
1943.00,0.0052
1942.75,0.0060
1942.50,0.0064
1942.25,0.0063
1942.00,0.0058
1941.75,0.0054
1941.50,0.0052
1941.25,0.0052
1941.00,0.0055
1940.75,0.0059
1940.50,0.0061
1940.25,0.0062
1940.00,0.0061
1939.75,0.0058
1939.50,0.0054
1939.25,0.0052
1939.00,0.0051
1938.75,0.0052
1938.50,0.0055
1938.25,0.0059
1938.00,0.0062
1937.75,0.0063
1937.50,0.0062
1937.25,0.0059
1937.00,0.0054
1936.75,0.0049
1936.50,0.0045
1936.25,0.0044
1936.00,0.0044
1935.75,0.0046
1935.50,0.0047
1935.25,0.0049
1935.00,0.0050
1934.75,0.0052
1934.50,0.0055
1934.25,0.0057
1934.00,0.0059
1933.75,0.0058
1933.50,0.0054
1933.25,0.0051
1933.00,0.0049
1932.75,0.0049
1932.50,0.0050
1932.25,0.0051
1932.00,0.0051
1931.75,0.0053
1931.50,0.0054
1931.25,0.0057
1931.00,0.0058
1930.75,0.0058
1930.50,0.0055
1930.25,0.0052
1930.00,0.0050
1929.75,0.0050
1929.50,0.0052
1929.25,0.0055
1929.00,0.0059
1928.75,0.0062
1928.50,0.0062
1928.25,0.0062
1928.00,0.0061
1927.75,0.0061
1927.50,0.0061
1927.25,0.0062
1927.00,0.0061
1926.75,0.0059
1926.50,0.0058
1926.25,0.0057
1926.00,0.0056
1925.75,0.0054
1925.50,0.0052
1925.25,0.0052
1925.00,0.0054
1924.75,0.0058
1924.50,0.0062
1924.25,0.0066
1924.00,0.0067
1923.75,0.0066
1923.50,0.0063
1923.25,0.0059
1923.00,0.0054
1922.75,0.0047
1922.50,0.0041
1922.25,0.0037
1922.00,0.0037
1921.75,0.0040
1921.50,0.0044
1921.25,0.0048
1921.00,0.0052
1920.75,0.0056
1920.50,0.0059
1920.25,0.0061
1920.00,0.0062
1919.75,0.0062
1919.50,0.0060
1919.25,0.0058
1919.00,0.0056
1918.75,0.0054
1918.50,0.0054
1918.25,0.0056
1918.00,0.0060
1917.75,0.0065
1917.50,0.0067
1917.25,0.0066
1917.00,0.0064
1916.75,0.0061
1916.50,0.0058
1916.25,0.0056
1916.00,0.0055
1915.75,0.0055
1915.50,0.0055
1915.25,0.0056
1915.00,0.0058
1914.75,0.0060
1914.50,0.0061
1914.25,0.0061
1914.00,0.0060
1913.75,0.0060
1913.50,0.0060
1913.25,0.0061
1913.00,0.0062
1912.75,0.0062
1912.50,0.0061
1912.25,0.0059
1912.00,0.0059
1911.75,0.0059
1911.50,0.0059
1911.25,0.0058
1911.00,0.0057
1910.75,0.0057
1910.50,0.0058
1910.25,0.0058
1910.00,0.0058
1909.75,0.0057
1909.50,0.0056
1909.25,0.0056
1909.00,0.0056
1908.75,0.0057
1908.50,0.0058
1908.25,0.0059
1908.00,0.0060
1907.75,0.0060
1907.50,0.0060
1907.25,0.0060
1907.00,0.0060
1906.75,0.0059
1906.50,0.0057
1906.25,0.0054
1906.00,0.0052
1905.75,0.0053
1905.50,0.0055
1905.25,0.0059
1905.00,0.0061
1904.75,0.0061
1904.50,0.0059
1904.25,0.0057
1904.00,0.0056
1903.75,0.0056
1903.50,0.0058
1903.25,0.0060
1903.00,0.0063
1902.75,0.0064
1902.50,0.0064
1902.25,0.0063
1902.00,0.0062
1901.75,0.0061
1901.50,0.0060
1901.25,0.0060
1901.00,0.0059
1900.75,0.0058
1900.50,0.0057
1900.25,0.0056
1900.00,0.0055
1899.75,0.0055
1899.50,0.0056
1899.25,0.0055
1899.00,0.0054
1898.75,0.0054
1898.50,0.0054
1898.25,0.0055
1898.00,0.0057
1897.75,0.0058
1897.50,0.0059
1897.25,0.0058
1897.00,0.0058
1896.75,0.0058
1896.50,0.0058
1896.25,0.0059
1896.00,0.0060
1895.75,0.0060
1895.50,0.0060
1895.25,0.0059
1895.00,0.0057
1894.75,0.0055
1894.50,0.0053
1894.25,0.0053
1894.00,0.0054
1893.75,0.0057
1893.50,0.0059
1893.25,0.0060
1893.00,0.0058
1892.75,0.0056
1892.50,0.0054
1892.25,0.0054
1892.00,0.0056
1891.75,0.0059
1891.50,0.0061
1891.25,0.0061
1891.00,0.0060
1890.75,0.0058
1890.50,0.0056
1890.25,0.0055
1890.00,0.0055
1889.75,0.0056
1889.50,0.0057
1889.25,0.0056
1889.00,0.0056
1888.75,0.0057
1888.50,0.0059
1888.25,0.0061
1888.00,0.0062
1887.75,0.0062
1887.50,0.0060
1887.25,0.0058
1887.00,0.0057
1886.75,0.0057
1886.50,0.0058
1886.25,0.0058
1886.00,0.0058
1885.75,0.0056
1885.50,0.0054
1885.25,0.0053
1885.00,0.0052
1884.75,0.0052
1884.50,0.0053
1884.25,0.0053
1884.00,0.0055
1883.75,0.0058
1883.50,0.0060
1883.25,0.0060
1883.00,0.0059
1882.75,0.0057
1882.50,0.0057
1882.25,0.0057
1882.00,0.0059
1881.75,0.0059
1881.50,0.0058
1881.25,0.0057
1881.00,0.0055
1880.75,0.0054
1880.50,0.0054
1880.25,0.0055
1880.00,0.0057
1879.75,0.0059
1879.50,0.0061
1879.25,0.0063
1879.00,0.0064
1878.75,0.0064
1878.50,0.0063
1878.25,0.0063
1878.00,0.0064
1877.75,0.0065
1877.50,0.0065
1877.25,0.0062
1877.00,0.0059
1876.75,0.0055
1876.50,0.0052
1876.25,0.0052
1876.00,0.0052
1875.75,0.0053
1875.50,0.0053
1875.25,0.0054
1875.00,0.0055
1874.75,0.0056
1874.50,0.0058
1874.25,0.0058
1874.00,0.0058
1873.75,0.0057
1873.50,0.0057
1873.25,0.0058
1873.00,0.0059
1872.75,0.0060
1872.50,0.0060
1872.25,0.0058
1872.00,0.0055
1871.75,0.0053
1871.50,0.0050
1871.25,0.0050
1871.00,0.0051
1870.75,0.0053
1870.50,0.0057
1870.25,0.0060
1870.00,0.0062
1869.75,0.0064
1869.50,0.0064
1869.25,0.0064
1869.00,0.0062
1868.75,0.0059
1868.50,0.0057
1868.25,0.0054
1868.00,0.0053
1867.75,0.0054
1867.50,0.0056
1867.25,0.0058
1867.00,0.0059
1866.75,0.0059
1866.50,0.0060
1866.25,0.0060
1866.00,0.0060
1865.75,0.0059
1865.50,0.0058
1865.25,0.0057
1865.00,0.0057
1864.75,0.0057
1864.50,0.0058
1864.25,0.0058
1864.00,0.0058
1863.75,0.0058
1863.50,0.0058
1863.25,0.0058
1863.00,0.0059
1862.75,0.0061
1862.50,0.0062
1862.25,0.0063
1862.00,0.0062
1861.75,0.0061
1861.50,0.0060
1861.25,0.0060
1861.00,0.0061
1860.75,0.0063
1860.50,0.0064
1860.25,0.0065
1860.00,0.0065
1859.75,0.0065
1859.50,0.0065
1859.25,0.0066
1859.00,0.0066
1858.75,0.0064
1858.50,0.0060
1858.25,0.0056
1858.00,0.0053
1857.75,0.0051
1857.50,0.0050
1857.25,0.0050
1857.00,0.0052
1856.75,0.0054
1856.50,0.0057
1856.25,0.0060
1856.00,0.0062
1855.75,0.0065
1855.50,0.0066
1855.25,0.0066
1855.00,0.0065
1854.75,0.0062
1854.50,0.0059
1854.25,0.0057
1854.00,0.0056
1853.75,0.0056
1853.50,0.0057
1853.25,0.0057
1853.00,0.0058
1852.75,0.0059
1852.50,0.0059
1852.25,0.0059
1852.00,0.0058
1851.75,0.0057
1851.50,0.0056
1851.25,0.0057
1851.00,0.0058
1850.75,0.0061
1850.50,0.0063
1850.25,0.0064
1850.00,0.0063
1849.75,0.0062
1849.50,0.0061
1849.25,0.0061
1849.00,0.0062
1848.75,0.0064
1848.50,0.0065
1848.25,0.0064
1848.00,0.0062
1847.75,0.0059
1847.50,0.0056
1847.25,0.0053
1847.00,0.0051
1846.75,0.0050
1846.50,0.0051
1846.25,0.0053
1846.00,0.0056
1845.75,0.0059
1845.50,0.0061
1845.25,0.0062
1845.00,0.0063
1844.75,0.0064
1844.50,0.0067
1844.25,0.0072
1844.00,0.0075
1843.75,0.0074
1843.50,0.0072
1843.25,0.0070
1843.00,0.0067
1842.75,0.0065
1842.50,0.0063
1842.25,0.0061
1842.00,0.0060
1841.75,0.0060
1841.50,0.0061
1841.25,0.0062
1841.00,0.0063
1840.75,0.0064
1840.50,0.0063
1840.25,0.0063
1840.00,0.0062
1839.75,0.0062
1839.50,0.0062
1839.25,0.0062
1839.00,0.0061
1838.75,0.0060
1838.50,0.0059
1838.25,0.0060
1838.00,0.0060
1837.75,0.0061
1837.50,0.0061
1837.25,0.0061
1837.00,0.0061
1836.75,0.0060
1836.50,0.0060
1836.25,0.0060
1836.00,0.0061
1835.75,0.0062
1835.50,0.0063
1835.25,0.0063
1835.00,0.0062
1834.75,0.0061
1834.50,0.0059
1834.25,0.0058
1834.00,0.0057
1833.75,0.0056
1833.50,0.0058
1833.25,0.0059
1833.00,0.0061
1832.75,0.0062
1832.50,0.0063
1832.25,0.0064
1832.00,0.0065
1831.75,0.0065
1831.50,0.0066
1831.25,0.0067
1831.00,0.0068
1830.75,0.0070
1830.50,0.0071
1830.25,0.0071
1830.00,0.0071
1829.75,0.0070
1829.50,0.0069
1829.25,0.0066
1829.00,0.0064
1828.75,0.0064
1828.50,0.0064
1828.25,0.0064
1828.00,0.0064
1827.75,0.0063
1827.50,0.0063
1827.25,0.0062
1827.00,0.0062
1826.75,0.0063
1826.50,0.0063
1826.25,0.0063
1826.00,0.0063
1825.75,0.0061
1825.50,0.0060
1825.25,0.0059
1825.00,0.0060
1824.75,0.0061
1824.50,0.0062
1824.25,0.0062
1824.00,0.0061
1823.75,0.0061
1823.50,0.0062
1823.25,0.0064
1823.00,0.0066
1822.75,0.0067
1822.50,0.0068
1822.25,0.0067
1822.00,0.0065
1821.75,0.0064
1821.50,0.0063
1821.25,0.0063
1821.00,0.0063
1820.75,0.0064
1820.50,0.0064
1820.25,0.0063
1820.00,0.0062
1819.75,0.0061
1819.50,0.0061
1819.25,0.0062
1819.00,0.0062
1818.75,0.0063
1818.50,0.0063
1818.25,0.0062
1818.00,0.0061
1817.75,0.0060
1817.50,0.0059
1817.25,0.0059
1817.00,0.0059
1816.75,0.0061
1816.50,0.0063
1816.25,0.0065
1816.00,0.0066
1815.75,0.0067
1815.50,0.0066
1815.25,0.0065
1815.00,0.0065
1814.75,0.0065
1814.50,0.0064
1814.25,0.0064
1814.00,0.0064
1813.75,0.0064
1813.50,0.0065
1813.25,0.0065
1813.00,0.0064
1812.75,0.0063
1812.50,0.0061
1812.25,0.0060
1812.00,0.0061
1811.75,0.0063
1811.50,0.0063
1811.25,0.0063
1811.00,0.0063
1810.75,0.0064
1810.50,0.0065
1810.25,0.0065
1810.00,0.0065
1809.75,0.0065
1809.50,0.0064
1809.25,0.0065
1809.00,0.0065
1808.75,0.0066
1808.50,0.0065
1808.25,0.0064
1808.00,0.0063
1807.75,0.0061
1807.50,0.0060
1807.25,0.0059
1807.00,0.0059
1806.75,0.0060
1806.50,0.0061
1806.25,0.0061
1806.00,0.0062
1805.75,0.0063
1805.50,0.0063
1805.25,0.0063
1805.00,0.0063
1804.75,0.0062
1804.50,0.0062
1804.25,0.0063
1804.00,0.0064
1803.75,0.0065
1803.50,0.0065
1803.25,0.0064
1803.00,0.0063
1802.75,0.0062
1802.50,0.0063
1802.25,0.0065
1802.00,0.0066
1801.75,0.0068
1801.50,0.0068
1801.25,0.0067
1801.00,0.0066
1800.75,0.0065
1800.50,0.0064
1800.25,0.0063
1800.00,0.0064
1799.75,0.0066
1799.50,0.0067
1799.25,0.0067
1799.00,0.0066
1798.75,0.0066
1798.50,0.0065
1798.25,0.0065
1798.00,0.0066
1797.75,0.0066
1797.50,0.0066
1797.25,0.0065
1797.00,0.0064
1796.75,0.0063
1796.50,0.0063
1796.25,0.0063
1796.00,0.0064
1795.75,0.0065
1795.50,0.0066
1795.25,0.0067
1795.00,0.0067
1794.75,0.0066
1794.50,0.0065
1794.25,0.0065
1794.00,0.0066
1793.75,0.0066
1793.50,0.0065
1793.25,0.0063
1793.00,0.0061
1792.75,0.0059
1792.50,0.0060
1792.25,0.0064
1792.00,0.0066
1791.75,0.0067
1791.50,0.0066
1791.25,0.0064
1791.00,0.0061
1790.75,0.0060
1790.50,0.0061
1790.25,0.0063
1790.00,0.0065
1789.75,0.0067
1789.50,0.0069
1789.25,0.0070
1789.00,0.0070
1788.75,0.0070
1788.50,0.0070
1788.25,0.0069
1788.00,0.0068
1787.75,0.0068
1787.50,0.0067
1787.25,0.0066
1787.00,0.0066
1786.75,0.0065
1786.50,0.0065
1786.25,0.0065
1786.00,0.0065
1785.75,0.0067
1785.50,0.0068
1785.25,0.0069
1785.00,0.0070
1784.75,0.0069
1784.50,0.0067
1784.25,0.0066
1784.00,0.0066
1783.75,0.0067
1783.50,0.0069
1783.25,0.0070
1783.00,0.0072
1782.75,0.0072
1782.50,0.0073
1782.25,0.0073
1782.00,0.0073
1781.75,0.0072
1781.50,0.0071
1781.25,0.0069
1781.00,0.0069
1780.75,0.0069
1780.50,0.0069
1780.25,0.0069
1780.00,0.0068
1779.75,0.0067
1779.50,0.0068
1779.25,0.0068
1779.00,0.0068
1778.75,0.0067
1778.50,0.0066
1778.25,0.0065
1778.00,0.0065
1777.75,0.0066
1777.50,0.0067
1777.25,0.0067
1777.00,0.0067
1776.75,0.0068
1776.50,0.0069
1776.25,0.0070
1776.00,0.0071
1775.75,0.0071
1775.50,0.0071
1775.25,0.0070
1775.00,0.0069
1774.75,0.0067
1774.50,0.0066
1774.25,0.0066
1774.00,0.0066
1773.75,0.0067
1773.50,0.0067
1773.25,0.0066
1773.00,0.0066
1772.75,0.0067
1772.50,0.0068
1772.25,0.0069
1772.00,0.0068
1771.75,0.0068
1771.50,0.0068
1771.25,0.0069
1771.00,0.0070
1770.75,0.0071
1770.50,0.0071
1770.25,0.0070
1770.00,0.0068
1769.75,0.0067
1769.50,0.0067
1769.25,0.0067
1769.00,0.0068
1768.75,0.0068
1768.50,0.0068
1768.25,0.0067
1768.00,0.0067
1767.75,0.0066
1767.50,0.0066
1767.25,0.0066
1767.00,0.0066
1766.75,0.0067
1766.50,0.0068
1766.25,0.0069
1766.00,0.0071
1765.75,0.0071
1765.50,0.0071
1765.25,0.0070
1765.00,0.0068
1764.75,0.0067
1764.50,0.0067
1764.25,0.0068
1764.00,0.0069
1763.75,0.0068
1763.50,0.0067
1763.25,0.0067
1763.00,0.0067
1762.75,0.0068
1762.50,0.0068
1762.25,0.0065
1762.00,0.0063
1761.75,0.0062
1761.50,0.0065
1761.25,0.0069
1761.00,0.0071
1760.75,0.0072
1760.50,0.0071
1760.25,0.0070
1760.00,0.0069
1759.75,0.0069
1759.50,0.0068
1759.25,0.0068
1759.00,0.0068
1758.75,0.0069
1758.50,0.0070
1758.25,0.0071
1758.00,0.0071
1757.75,0.0071
1757.50,0.0072
1757.25,0.0072
1757.00,0.0073
1756.75,0.0073
1756.50,0.0073
1756.25,0.0072
1756.00,0.0070
1755.75,0.0069
1755.50,0.0068
1755.25,0.0068
1755.00,0.0068
1754.75,0.0070
1754.50,0.0071
1754.25,0.0072
1754.00,0.0071
1753.75,0.0071
1753.50,0.0069
1753.25,0.0068
1753.00,0.0068
1752.75,0.0068
1752.50,0.0068
1752.25,0.0069
1752.00,0.0070
1751.75,0.0070
1751.50,0.0071
1751.25,0.0071
1751.00,0.0071
1750.75,0.0070
1750.50,0.0070
1750.25,0.0070
1750.00,0.0070
1749.75,0.0069
1749.50,0.0069
1749.25,0.0068
1749.00,0.0069
1748.75,0.0071
1748.50,0.0073
1748.25,0.0074
1748.00,0.0075
1747.75,0.0075
1747.50,0.0075
1747.25,0.0076
1747.00,0.0076
1746.75,0.0075
1746.50,0.0073
1746.25,0.0072
1746.00,0.0071
1745.75,0.0071
1745.50,0.0072
1745.25,0.0074
1745.00,0.0075
1744.75,0.0075
1744.50,0.0075
1744.25,0.0074
1744.00,0.0072
1743.75,0.0071
1743.50,0.0071
1743.25,0.0071
1743.00,0.0070
1742.75,0.0070
1742.50,0.0070
1742.25,0.0071
1742.00,0.0071
1741.75,0.0071
1741.50,0.0071
1741.25,0.0070
1741.00,0.0068
1740.75,0.0067
1740.50,0.0067
1740.25,0.0066
1740.00,0.0066
1739.75,0.0067
1739.50,0.0069
1739.25,0.0071
1739.00,0.0072
1738.75,0.0072
1738.50,0.0072
1738.25,0.0071
1738.00,0.0071
1737.75,0.0071
1737.50,0.0071
1737.25,0.0071
1737.00,0.0071
1736.75,0.0071
1736.50,0.0072
1736.25,0.0072
1736.00,0.0073
1735.75,0.0073
1735.50,0.0073
1735.25,0.0072
1735.00,0.0071
1734.75,0.0069
1734.50,0.0068
1734.25,0.0070
1734.00,0.0073
1733.75,0.0075
1733.50,0.0074
1733.25,0.0072
1733.00,0.0071
1732.75,0.0070
1732.50,0.0069
1732.25,0.0070
1732.00,0.0071
1731.75,0.0073
1731.50,0.0075
1731.25,0.0076
1731.00,0.0078
1730.75,0.0079
1730.50,0.0081
1730.25,0.0082
1730.00,0.0083
1729.75,0.0081
1729.50,0.0078
1729.25,0.0076
1729.00,0.0075
1728.75,0.0075
1728.50,0.0075
1728.25,0.0075
1728.00,0.0074
1727.75,0.0074
1727.50,0.0075
1727.25,0.0076
1727.00,0.0077
1726.75,0.0077
1726.50,0.0076
1726.25,0.0075
1726.00,0.0074
1725.75,0.0073
1725.50,0.0073
1725.25,0.0073
1725.00,0.0073
1724.75,0.0073
1724.50,0.0074
1724.25,0.0074
1724.00,0.0075
1723.75,0.0076
1723.50,0.0076
1723.25,0.0076
1723.00,0.0075
1722.75,0.0074
1722.50,0.0074
1722.25,0.0076
1722.00,0.0077
1721.75,0.0079
1721.50,0.0080
1721.25,0.0079
1721.00,0.0078
1720.75,0.0077
1720.50,0.0076
1720.25,0.0075
1720.00,0.0074
1719.75,0.0074
1719.50,0.0075
1719.25,0.0075
1719.00,0.0075
1718.75,0.0076
1718.50,0.0077
1718.25,0.0078
1718.00,0.0076
1717.75,0.0071
1717.50,0.0065
1717.25,0.0063
1717.00,0.0065
1716.75,0.0070
1716.50,0.0074
1716.25,0.0076
1716.00,0.0077
1715.75,0.0077
1715.50,0.0077
1715.25,0.0077
1715.00,0.0076
1714.75,0.0075
1714.50,0.0074
1714.25,0.0074
1714.00,0.0075
1713.75,0.0076
1713.50,0.0077
1713.25,0.0077
1713.00,0.0076
1712.75,0.0075
1712.50,0.0074
1712.25,0.0073
1712.00,0.0073
1711.75,0.0074
1711.50,0.0074
1711.25,0.0075
1711.00,0.0076
1710.75,0.0076
1710.50,0.0076
1710.25,0.0076
1710.00,0.0075
1709.75,0.0074
1709.50,0.0074
1709.25,0.0073
1709.00,0.0073
1708.75,0.0072
1708.50,0.0072
1708.25,0.0071
1708.00,0.0071
1707.75,0.0071
1707.50,0.0072
1707.25,0.0072
1707.00,0.0072
1706.75,0.0072
1706.50,0.0071
1706.25,0.0072
1706.00,0.0073
1705.75,0.0074
1705.50,0.0073
1705.25,0.0072
1705.00,0.0070
1704.75,0.0069
1704.50,0.0070
1704.25,0.0072
1704.00,0.0073
1703.75,0.0074
1703.50,0.0073
1703.25,0.0073
1703.00,0.0073
1702.75,0.0072
1702.50,0.0071
1702.25,0.0070
1702.00,0.0069
1701.75,0.0069
1701.50,0.0071
1701.25,0.0073
1701.00,0.0076
1700.75,0.0075
1700.50,0.0066
1700.25,0.0054
1700.00,0.0051
1699.75,0.0061
1699.50,0.0069
1699.25,0.0072
1699.00,0.0074
1698.75,0.0074
1698.50,0.0074
1698.25,0.0074
1698.00,0.0072
1697.75,0.0070
1697.50,0.0068
1697.25,0.0065
1697.00,0.0064
1696.75,0.0063
1696.50,0.0062
1696.25,0.0063
1696.00,0.0067
1695.75,0.0076
1695.50,0.0080
1695.25,0.0079
1695.00,0.0077
1694.75,0.0075
1694.50,0.0074
1694.25,0.0073
1694.00,0.0072
1693.75,0.0071
1693.50,0.0071
1693.25,0.0072
1693.00,0.0073
1692.75,0.0075
1692.50,0.0077
1692.25,0.0078
1692.00,0.0078
1691.75,0.0078
1691.50,0.0077
1691.25,0.0075
1691.00,0.0073
1690.75,0.0072
1690.50,0.0072
1690.25,0.0073
1690.00,0.0074
1689.75,0.0076
1689.50,0.0077
1689.25,0.0076
1689.00,0.0076
1688.75,0.0075
1688.50,0.0075
1688.25,0.0075
1688.00,0.0077
1687.75,0.0078
1687.50,0.0078
1687.25,0.0078
1687.00,0.0077
1686.75,0.0075
1686.50,0.0073
1686.25,0.0071
1686.00,0.0070
1685.75,0.0070
1685.50,0.0071
1685.25,0.0073
1685.00,0.0079
1684.75,0.0092
1684.50,0.0102
1684.25,0.0098
1684.00,0.0089
1683.75,0.0082
1683.50,0.0077
1683.25,0.0074
1683.00,0.0072
1682.75,0.0072
1682.50,0.0071
1682.25,0.0071
1682.00,0.0071
1681.75,0.0072
1681.50,0.0073
1681.25,0.0074
1681.00,0.0075
1680.75,0.0074
1680.50,0.0074
1680.25,0.0074
1680.00,0.0075
1679.75,0.0075
1679.50,0.0075
1679.25,0.0076
1679.00,0.0076
1678.75,0.0076
1678.50,0.0076
1678.25,0.0076
1678.00,0.0077
1677.75,0.0077
1677.50,0.0078
1677.25,0.0078
1677.00,0.0078
1676.75,0.0077
1676.50,0.0075
1676.25,0.0074
1676.00,0.0072
1675.75,0.0071
1675.50,0.0070
1675.25,0.0073
1675.00,0.0076
1674.75,0.0077
1674.50,0.0076
1674.25,0.0075
1674.00,0.0075
1673.75,0.0075
1673.50,0.0076
1673.25,0.0077
1673.00,0.0078
1672.75,0.0078
1672.50,0.0078
1672.25,0.0078
1672.00,0.0078
1671.75,0.0078
1671.50,0.0079
1671.25,0.0079
1671.00,0.0077
1670.75,0.0076
1670.50,0.0074
1670.25,0.0072
1670.00,0.0071
1669.75,0.0070
1669.50,0.0071
1669.25,0.0073
1669.00,0.0077
1668.75,0.0079
1668.50,0.0080
1668.25,0.0080
1668.00,0.0080
1667.75,0.0080
1667.50,0.0080
1667.25,0.0079
1667.00,0.0079
1666.75,0.0078
1666.50,0.0077
1666.25,0.0077
1666.00,0.0077
1665.75,0.0077
1665.50,0.0078
1665.25,0.0077
1665.00,0.0077
1664.75,0.0076
1664.50,0.0076
1664.25,0.0076
1664.00,0.0077
1663.75,0.0077
1663.50,0.0077
1663.25,0.0075
1663.00,0.0074
1662.75,0.0074
1662.50,0.0076
1662.25,0.0078
1662.00,0.0079
1661.75,0.0080
1661.50,0.0080
1661.25,0.0080
1661.00,0.0080
1660.75,0.0079
1660.50,0.0078
1660.25,0.0078
1660.00,0.0078
1659.75,0.0079
1659.50,0.0080
1659.25,0.0081
1659.00,0.0081
1658.75,0.0081
1658.50,0.0081
1658.25,0.0080
1658.00,0.0079
1657.75,0.0078
1657.50,0.0078
1657.25,0.0078
1657.00,0.0078
1656.75,0.0078
1656.50,0.0077
1656.25,0.0077
1656.00,0.0078
1655.75,0.0079
1655.50,0.0080
1655.25,0.0080
1655.00,0.0079
1654.75,0.0078
1654.50,0.0076
1654.25,0.0076
1654.00,0.0077
1653.75,0.0077
1653.50,0.0077
1653.25,0.0079
1653.00,0.0083
1652.75,0.0081
1652.50,0.0070
1652.25,0.0070
1652.00,0.0073
1651.75,0.0075
1651.50,0.0075
1651.25,0.0076
1651.00,0.0077
1650.75,0.0079
1650.50,0.0082
1650.25,0.0083
1650.00,0.0083
1649.75,0.0083
1649.50,0.0081
1649.25,0.0080
1649.00,0.0078
1648.75,0.0077
1648.50,0.0076
1648.25,0.0075
1648.00,0.0075
1647.75,0.0076
1647.50,0.0076
1647.25,0.0075
1647.00,0.0075
1646.75,0.0075
1646.50,0.0075
1646.25,0.0076
1646.00,0.0079
1645.75,0.0080
1645.50,0.0079
1645.25,0.0079
1645.00,0.0079
1644.75,0.0079
1644.50,0.0080
1644.25,0.0080
1644.00,0.0080
1643.75,0.0080
1643.50,0.0080
1643.25,0.0080
1643.00,0.0081
1642.75,0.0083
1642.50,0.0084
1642.25,0.0085
1642.00,0.0086
1641.75,0.0085
1641.50,0.0084
1641.25,0.0083
1641.00,0.0082
1640.75,0.0081
1640.50,0.0080
1640.25,0.0081
1640.00,0.0081
1639.75,0.0082
1639.50,0.0083
1639.25,0.0084
1639.00,0.0085
1638.75,0.0085
1638.50,0.0084
1638.25,0.0084
1638.00,0.0083
1637.75,0.0082
1637.50,0.0082
1637.25,0.0082
1637.00,0.0082
1636.75,0.0082
1636.50,0.0081
1636.25,0.0081
1636.00,0.0082
1635.75,0.0082
1635.50,0.0081
1635.25,0.0077
1635.00,0.0073
1634.75,0.0073
1634.50,0.0075
1634.25,0.0077
1634.00,0.0079
1633.75,0.0080
1633.50,0.0081
1633.25,0.0082
1633.00,0.0082
1632.75,0.0082
1632.50,0.0083
1632.25,0.0083
1632.00,0.0083
1631.75,0.0083
1631.50,0.0082
1631.25,0.0082
1631.00,0.0082
1630.75,0.0082
1630.50,0.0082
1630.25,0.0083
1630.00,0.0083
1629.75,0.0084
1629.50,0.0085
1629.25,0.0086
1629.00,0.0087
1628.75,0.0088
1628.50,0.0087
1628.25,0.0085
1628.00,0.0082
1627.75,0.0078
1627.50,0.0076
1627.25,0.0076
1627.00,0.0077
1626.75,0.0079
1626.50,0.0080
1626.25,0.0080
1626.00,0.0081
1625.75,0.0082
1625.50,0.0082
1625.25,0.0083
1625.00,0.0083
1624.75,0.0083
1624.50,0.0083
1624.25,0.0082
1624.00,0.0081
1623.75,0.0082
1623.50,0.0082
1623.25,0.0082
1623.00,0.0081
1622.75,0.0080
1622.50,0.0079
1622.25,0.0080
1622.00,0.0081
1621.75,0.0082
1621.50,0.0083
1621.25,0.0083
1621.00,0.0083
1620.75,0.0082
1620.50,0.0081
1620.25,0.0080
1620.00,0.0081
1619.75,0.0081
1619.50,0.0082
1619.25,0.0082
1619.00,0.0082
1618.75,0.0082
1618.50,0.0082
1618.25,0.0082
1618.00,0.0082
1617.75,0.0082
1617.50,0.0081
1617.25,0.0078
1617.00,0.0074
1616.75,0.0068
1616.50,0.0067
1616.25,0.0070
1616.00,0.0074
1615.75,0.0076
1615.50,0.0078
1615.25,0.0079
1615.00,0.0081
1614.75,0.0083
1614.50,0.0084
1614.25,0.0085
1614.00,0.0085
1613.75,0.0085
1613.50,0.0085
1613.25,0.0086
1613.00,0.0086
1612.75,0.0085
1612.50,0.0085
1612.25,0.0085
1612.00,0.0085
1611.75,0.0086
1611.50,0.0085
1611.25,0.0085
1611.00,0.0084
1610.75,0.0083
1610.50,0.0082
1610.25,0.0082
1610.00,0.0083
1609.75,0.0084
1609.50,0.0085
1609.25,0.0086
1609.00,0.0085
1608.75,0.0085
1608.50,0.0084
1608.25,0.0084
1608.00,0.0084
1607.75,0.0085
1607.50,0.0086
1607.25,0.0088
1607.00,0.0090
1606.75,0.0090
1606.50,0.0089
1606.25,0.0087
1606.00,0.0085
1605.75,0.0083
1605.50,0.0082
1605.25,0.0082
1605.00,0.0083
1604.75,0.0083
1604.50,0.0084
1604.25,0.0084
1604.00,0.0083
1603.75,0.0083
1603.50,0.0083
1603.25,0.0084
1603.00,0.0084
1602.75,0.0085
1602.50,0.0086
1602.25,0.0086
1602.00,0.0086
1601.75,0.0085
1601.50,0.0084
1601.25,0.0083
1601.00,0.0082
1600.75,0.0082
1600.50,0.0083
1600.25,0.0083
1600.00,0.0084
1599.75,0.0084
1599.50,0.0084
1599.25,0.0083
1599.00,0.0083
1598.75,0.0083
1598.50,0.0083
1598.25,0.0083
1598.00,0.0082
1597.75,0.0082
1597.50,0.0082
1597.25,0.0082
1597.00,0.0083
1596.75,0.0084
1596.50,0.0085
1596.25,0.0086
1596.00,0.0087
1595.75,0.0087
1595.50,0.0088
1595.25,0.0088
1595.00,0.0088
1594.75,0.0088
1594.50,0.0087
1594.25,0.0086
1594.00,0.0084
1593.75,0.0084
1593.50,0.0084
1593.25,0.0085
1593.00,0.0085
1592.75,0.0085
1592.50,0.0085
1592.25,0.0084
1592.00,0.0084
1591.75,0.0084
1591.50,0.0085
1591.25,0.0086
1591.00,0.0087
1590.75,0.0088
1590.50,0.0088
1590.25,0.0088
1590.00,0.0086
1589.75,0.0083
1589.50,0.0081
1589.25,0.0081
1589.00,0.0082
1588.75,0.0083
1588.50,0.0085
1588.25,0.0086
1588.00,0.0086
1587.75,0.0086
1587.50,0.0086
1587.25,0.0085
1587.00,0.0085
1586.75,0.0084
1586.50,0.0084
1586.25,0.0084
1586.00,0.0085
1585.75,0.0085
1585.50,0.0085
1585.25,0.0084
1585.00,0.0084
1584.75,0.0083
1584.50,0.0083
1584.25,0.0084
1584.00,0.0085
1583.75,0.0085
1583.50,0.0085
1583.25,0.0083
1583.00,0.0082
1582.75,0.0082
1582.50,0.0082
1582.25,0.0082
1582.00,0.0083
1581.75,0.0083
1581.50,0.0083
1581.25,0.0083
1581.00,0.0083
1580.75,0.0083
1580.50,0.0082
1580.25,0.0082
1580.00,0.0083
1579.75,0.0084
1579.50,0.0085
1579.25,0.0086
1579.00,0.0086
1578.75,0.0086
1578.50,0.0085
1578.25,0.0084
1578.00,0.0083
1577.75,0.0082
1577.50,0.0082
1577.25,0.0082
1577.00,0.0083
1576.75,0.0083
1576.50,0.0081
1576.25,0.0077
1576.00,0.0072
1575.75,0.0069
1575.50,0.0070
1575.25,0.0072
1575.00,0.0073
1574.75,0.0075
1574.50,0.0076
1574.25,0.0078
1574.00,0.0079
1573.75,0.0080
1573.50,0.0080
1573.25,0.0080
1573.00,0.0081
1572.75,0.0081
1572.50,0.0082
1572.25,0.0082
1572.00,0.0082
1571.75,0.0082
1571.50,0.0083
1571.25,0.0083
1571.00,0.0083
1570.75,0.0084
1570.50,0.0084
1570.25,0.0083
1570.00,0.0082
1569.75,0.0081
1569.50,0.0080
1569.25,0.0079
1569.00,0.0078
1568.75,0.0077
1568.50,0.0076
1568.25,0.0077
1568.00,0.0078
1567.75,0.0080
1567.50,0.0081
1567.25,0.0081
1567.00,0.0081
1566.75,0.0082
1566.50,0.0082
1566.25,0.0083
1566.00,0.0084
1565.75,0.0084
1565.50,0.0084
1565.25,0.0084
1565.00,0.0084
1564.75,0.0082
1564.50,0.0081
1564.25,0.0079
1564.00,0.0079
1563.75,0.0080
1563.50,0.0080
1563.25,0.0080
1563.00,0.0080
1562.75,0.0080
1562.50,0.0080
1562.25,0.0080
1562.00,0.0080
1561.75,0.0080
1561.50,0.0080
1561.25,0.0080
1561.00,0.0080
1560.75,0.0079
1560.50,0.0077
1560.25,0.0074
1560.00,0.0074
1559.75,0.0075
1559.50,0.0076
1559.25,0.0076
1559.00,0.0078
1558.75,0.0083
1558.50,0.0092
1558.25,0.0103
1558.00,0.0108
1557.75,0.0102
1557.50,0.0093
1557.25,0.0086
1557.00,0.0082
1556.75,0.0079
1556.50,0.0078
1556.25,0.0077
1556.00,0.0077
1555.75,0.0078
1555.50,0.0079
1555.25,0.0081
1555.00,0.0082
1554.75,0.0082
1554.50,0.0079
1554.25,0.0076
1554.00,0.0075
1553.75,0.0076
1553.50,0.0078
1553.25,0.0079
1553.00,0.0079
1552.75,0.0079
1552.50,0.0080
1552.25,0.0080
1552.00,0.0081
1551.75,0.0081
1551.50,0.0081
1551.25,0.0081
1551.00,0.0080
1550.75,0.0079
1550.50,0.0078
1550.25,0.0078
1550.00,0.0080
1549.75,0.0081
1549.50,0.0082
1549.25,0.0082
1549.00,0.0083
1548.75,0.0083
1548.50,0.0083
1548.25,0.0082
1548.00,0.0081
1547.75,0.0079
1547.50,0.0079
1547.25,0.0079
1547.00,0.0079
1546.75,0.0078
1546.50,0.0077
1546.25,0.0077
1546.00,0.0077
1545.75,0.0078
1545.50,0.0079
1545.25,0.0080
1545.00,0.0080
1544.75,0.0079
1544.50,0.0079
1544.25,0.0079
1544.00,0.0080
1543.75,0.0079
1543.50,0.0079
1543.25,0.0079
1543.00,0.0079
1542.75,0.0080
1542.50,0.0082
1542.25,0.0083
1542.00,0.0083
1541.75,0.0080
1541.50,0.0078
1541.25,0.0076
1541.00,0.0075
1540.75,0.0074
1540.50,0.0074
1540.25,0.0075
1540.00,0.0076
1539.75,0.0077
1539.50,0.0078
1539.25,0.0080
1539.00,0.0081
1538.75,0.0079
1538.50,0.0076
1538.25,0.0074
1538.00,0.0073
1537.75,0.0073
1537.50,0.0074
1537.25,0.0075
1537.00,0.0076
1536.75,0.0077
1536.50,0.0078
1536.25,0.0078
1536.00,0.0078
1535.75,0.0077
1535.50,0.0077
1535.25,0.0077
1535.00,0.0078
1534.75,0.0079
1534.50,0.0080
1534.25,0.0079
1534.00,0.0077
1533.75,0.0076
1533.50,0.0076
1533.25,0.0075
1533.00,0.0076
1532.75,0.0077
1532.50,0.0078
1532.25,0.0079
1532.00,0.0079
1531.75,0.0079
1531.50,0.0078
1531.25,0.0077
1531.00,0.0076
1530.75,0.0077
1530.50,0.0077
1530.25,0.0078
1530.00,0.0079
1529.75,0.0080
1529.50,0.0080
1529.25,0.0080
1529.00,0.0080
1528.75,0.0080
1528.50,0.0079
1528.25,0.0079
1528.00,0.0078
1527.75,0.0078
1527.50,0.0078
1527.25,0.0079
1527.00,0.0079
1526.75,0.0079
1526.50,0.0080
1526.25,0.0080
1526.00,0.0080
1525.75,0.0079
1525.50,0.0078
1525.25,0.0077
1525.00,0.0076
1524.75,0.0077
1524.50,0.0078
1524.25,0.0079
1524.00,0.0079
1523.75,0.0078
1523.50,0.0078
1523.25,0.0079
1523.00,0.0081
1522.75,0.0084
1522.50,0.0087
1522.25,0.0086
1522.00,0.0083
1521.75,0.0080
1521.50,0.0077
1521.25,0.0076
1521.00,0.0076
1520.75,0.0077
1520.50,0.0078
1520.25,0.0078
1520.00,0.0078
1519.75,0.0078
1519.50,0.0078
1519.25,0.0078
1519.00,0.0078
1518.75,0.0077
1518.50,0.0077
1518.25,0.0077
1518.00,0.0076
1517.75,0.0077
1517.50,0.0078
1517.25,0.0079
1517.00,0.0080
1516.75,0.0079
1516.50,0.0078
1516.25,0.0077
1516.00,0.0077
1515.75,0.0077
1515.50,0.0077
1515.25,0.0078
1515.00,0.0078
1514.75,0.0079
1514.50,0.0078
1514.25,0.0077
1514.00,0.0077
1513.75,0.0077
1513.50,0.0078
1513.25,0.0078
1513.00,0.0077
1512.75,0.0076
1512.50,0.0075
1512.25,0.0075
1512.00,0.0075
1511.75,0.0075
1511.50,0.0075
1511.25,0.0075
1511.00,0.0076
1510.75,0.0076
1510.50,0.0076
1510.25,0.0076
1510.00,0.0075
1509.75,0.0073
1509.50,0.0073
1509.25,0.0072
1509.00,0.0073
1508.75,0.0073
1508.50,0.0073
1508.25,0.0073
1508.00,0.0073
1507.75,0.0072
1507.50,0.0072
1507.25,0.0072
1507.00,0.0075
1506.75,0.0075
1506.50,0.0071
1506.25,0.0066
1506.00,0.0062
1505.75,0.0059
1505.50,0.0060
1505.25,0.0064
1505.00,0.0068
1504.75,0.0070
1504.50,0.0072
1504.25,0.0072
1504.00,0.0073
1503.75,0.0073
1503.50,0.0073
1503.25,0.0074
1503.00,0.0075
1502.75,0.0075
1502.50,0.0075
1502.25,0.0075
1502.00,0.0075
1501.75,0.0075
1501.50,0.0075
1501.25,0.0075
1501.00,0.0075
1500.75,0.0075
1500.50,0.0074
1500.25,0.0073
1500.00,0.0073
1499.75,0.0073
1499.50,0.0073
1499.25,0.0073
1499.00,0.0071
1498.75,0.0070
1498.50,0.0069
1498.25,0.0068
1498.00,0.0069
1497.75,0.0069
1497.50,0.0069
1497.25,0.0070
1497.00,0.0071
1496.75,0.0072
1496.50,0.0073
1496.25,0.0076
1496.00,0.0076
1495.75,0.0075
1495.50,0.0074
1495.25,0.0073
1495.00,0.0073
1494.75,0.0074
1494.50,0.0074
1494.25,0.0074
1494.00,0.0074
1493.75,0.0075
1493.50,0.0076
1493.25,0.0077
1493.00,0.0077
1492.75,0.0077
1492.50,0.0075
1492.25,0.0075
1492.00,0.0074
1491.75,0.0075
1491.50,0.0075
1491.25,0.0074
1491.00,0.0075
1490.75,0.0075
1490.50,0.0076
1490.25,0.0076
1490.00,0.0075
1489.75,0.0073
1489.50,0.0072
1489.25,0.0072
1489.00,0.0073
1488.75,0.0073
1488.50,0.0074
1488.25,0.0075
1488.00,0.0076
1487.75,0.0078
1487.50,0.0079
1487.25,0.0079
1487.00,0.0078
1486.75,0.0076
1486.50,0.0074
1486.25,0.0074
1486.00,0.0074
1485.75,0.0074
1485.50,0.0074
1485.25,0.0074
1485.00,0.0074
1484.75,0.0076
1484.50,0.0078
1484.25,0.0080
1484.00,0.0081
1483.75,0.0081
1483.50,0.0081
1483.25,0.0081
1483.00,0.0081
1482.75,0.0082
1482.50,0.0082
1482.25,0.0083
1482.00,0.0083
1481.75,0.0082
1481.50,0.0082
1481.25,0.0081
1481.00,0.0080
1480.75,0.0080
1480.50,0.0079
1480.25,0.0079
1480.00,0.0080
1479.75,0.0081
1479.50,0.0081
1479.25,0.0081
1479.00,0.0080
1478.75,0.0080
1478.50,0.0081
1478.25,0.0082
1478.00,0.0082
1477.75,0.0082
1477.50,0.0082
1477.25,0.0081
1477.00,0.0081
1476.75,0.0080
1476.50,0.0080
1476.25,0.0080
1476.00,0.0080
1475.75,0.0080
1475.50,0.0080
1475.25,0.0080
1475.00,0.0080
1474.75,0.0080
1474.50,0.0080
1474.25,0.0080
1474.00,0.0081
1473.75,0.0082
1473.50,0.0082
1473.25,0.0083
1473.00,0.0083
1472.75,0.0082
1472.50,0.0081
1472.25,0.0080
1472.00,0.0078
1471.75,0.0077
1471.50,0.0078
1471.25,0.0078
1471.00,0.0078
1470.75,0.0078
1470.50,0.0078
1470.25,0.0079
1470.00,0.0080
1469.75,0.0082
1469.50,0.0083
1469.25,0.0083
1469.00,0.0083
1468.75,0.0083
1468.50,0.0083
1468.25,0.0083
1468.00,0.0084
1467.75,0.0084
1467.50,0.0084
1467.25,0.0085
1467.00,0.0085
1466.75,0.0085
1466.50,0.0085
1466.25,0.0084
1466.00,0.0084
1465.75,0.0084
1465.50,0.0085
1465.25,0.0087
1465.00,0.0089
1464.75,0.0092
1464.50,0.0092
1464.25,0.0091
1464.00,0.0089
1463.75,0.0088
1463.50,0.0087
1463.25,0.0087
1463.00,0.0088
1462.75,0.0088
1462.50,0.0089
1462.25,0.0089
1462.00,0.0089
1461.75,0.0089
1461.50,0.0088
1461.25,0.0088
1461.00,0.0088
1460.75,0.0089
1460.50,0.0090
1460.25,0.0090
1460.00,0.0090
1459.75,0.0089
1459.50,0.0088
1459.25,0.0087
1459.00,0.0087
1458.75,0.0087
1458.50,0.0088
1458.25,0.0088
1458.00,0.0090
1457.75,0.0093
1457.50,0.0096
1457.25,0.0099
1457.00,0.0102
1456.75,0.0103
1456.50,0.0100
1456.25,0.0096
1456.00,0.0093
1455.75,0.0091
1455.50,0.0090
1455.25,0.0091
1455.00,0.0093
1454.75,0.0096
1454.50,0.0099
1454.25,0.0100
1454.00,0.0100
1453.75,0.0099
1453.50,0.0098
1453.25,0.0098
1453.00,0.0098
1452.75,0.0098
1452.50,0.0099
1452.25,0.0100
1452.00,0.0101
1451.75,0.0102
1451.50,0.0102
1451.25,0.0102
1451.00,0.0102
1450.75,0.0102
1450.50,0.0102
1450.25,0.0102
1450.00,0.0102
1449.75,0.0101
1449.50,0.0101
1449.25,0.0101
1449.00,0.0101
1448.75,0.0102
1448.50,0.0102
1448.25,0.0101
1448.00,0.0101
1447.75,0.0102
1447.50,0.0103
1447.25,0.0104
1447.00,0.0105
1446.75,0.0106
1446.50,0.0107
1446.25,0.0108
1446.00,0.0110
1445.75,0.0111
1445.50,0.0112
1445.25,0.0113
1445.00,0.0112
1444.75,0.0112
1444.50,0.0111
1444.25,0.0110
1444.00,0.0110
1443.75,0.0110
1443.50,0.0110
1443.25,0.0110
1443.00,0.0110
1442.75,0.0109
1442.50,0.0108
1442.25,0.0107
1442.00,0.0107
1441.75,0.0107
1441.50,0.0107
1441.25,0.0107
1441.00,0.0106
1440.75,0.0105
1440.50,0.0105
1440.25,0.0105
1440.00,0.0105
1439.75,0.0105
1439.50,0.0105
1439.25,0.0105
1439.00,0.0104
1438.75,0.0103
1438.50,0.0102
1438.25,0.0101
1438.00,0.0101
1437.75,0.0101
1437.50,0.0103
1437.25,0.0105
1437.00,0.0108
1436.75,0.0109
1436.50,0.0108
1436.25,0.0104
1436.00,0.0102
1435.75,0.0100
1435.50,0.0099
1435.25,0.0098
1435.00,0.0097
1434.75,0.0097
1434.50,0.0097
1434.25,0.0097
1434.00,0.0099
1433.75,0.0100
1433.50,0.0102
1433.25,0.0103
1433.00,0.0103
1432.75,0.0102
1432.50,0.0101
1432.25,0.0101
1432.00,0.0100
1431.75,0.0100
1431.50,0.0100
1431.25,0.0099
1431.00,0.0099
1430.75,0.0098
1430.50,0.0097
1430.25,0.0097
1430.00,0.0097
1429.75,0.0099
1429.50,0.0100
1429.25,0.0101
1429.00,0.0102
1428.75,0.0102
1428.50,0.0103
1428.25,0.0105
1428.00,0.0106
1427.75,0.0106
1427.50,0.0107
1427.25,0.0108
1427.00,0.0109
1426.75,0.0109
1426.50,0.0110
1426.25,0.0110
1426.00,0.0112
1425.75,0.0113
1425.50,0.0113
1425.25,0.0112
1425.00,0.0111
1424.75,0.0110
1424.50,0.0110
1424.25,0.0111
1424.00,0.0114
1423.75,0.0116
1423.50,0.0117
1423.25,0.0118
1423.00,0.0118
1422.75,0.0119
1422.50,0.0120
1422.25,0.0122
1422.00,0.0123
1421.75,0.0125
1421.50,0.0127
1421.25,0.0128
1421.00,0.0130
1420.75,0.0131
1420.50,0.0132
1420.25,0.0134
1420.00,0.0135
1419.75,0.0136
1419.50,0.0138
1419.25,0.0141
1419.00,0.0143
1418.75,0.0143
1418.50,0.0143
1418.25,0.0144
1418.00,0.0145
1417.75,0.0146
1417.50,0.0148
1417.25,0.0149
1417.00,0.0150
1416.75,0.0151
1416.50,0.0152
1416.25,0.0153
1416.00,0.0154
1415.75,0.0155
1415.50,0.0156
1415.25,0.0156
1415.00,0.0157
1414.75,0.0158
1414.50,0.0160
1414.25,0.0162
1414.00,0.0163
1413.75,0.0164
1413.50,0.0165
1413.25,0.0165
1413.00,0.0165
1412.75,0.0164
1412.50,0.0163
1412.25,0.0161
1412.00,0.0161
1411.75,0.0161
1411.50,0.0162
1411.25,0.0163
1411.00,0.0163
1410.75,0.0163
1410.50,0.0162
1410.25,0.0161
1410.00,0.0160
1409.75,0.0159
1409.50,0.0159
1409.25,0.0158
1409.00,0.0158
1408.75,0.0157
1408.50,0.0157
1408.25,0.0157
1408.00,0.0157
1407.75,0.0157
1407.50,0.0157
1407.25,0.0157
1407.00,0.0156
1406.75,0.0156
1406.50,0.0155
1406.25,0.0155
1406.00,0.0155
1405.75,0.0154
1405.50,0.0152
1405.25,0.0150
1405.00,0.0149
1404.75,0.0150
1404.50,0.0151
1404.25,0.0152
1404.00,0.0153
1403.75,0.0154
1403.50,0.0153
1403.25,0.0152
1403.00,0.0151
1402.75,0.0151
1402.50,0.0150
1402.25,0.0150
1402.00,0.0149
1401.75,0.0148
1401.50,0.0147
1401.25,0.0147
1401.00,0.0147
1400.75,0.0147
1400.50,0.0147
1400.25,0.0146
1400.00,0.0145
1399.75,0.0145
1399.50,0.0145
1399.25,0.0145
1399.00,0.0145
1398.75,0.0144
1398.50,0.0142
1398.25,0.0141
1398.00,0.0139
1397.75,0.0138
1397.50,0.0137
1397.25,0.0135
1397.00,0.0133
1396.75,0.0131
1396.50,0.0129
1396.25,0.0128
1396.00,0.0128
1395.75,0.0129
1395.50,0.0129
1395.25,0.0130
1395.00,0.0130
1394.75,0.0130
1394.50,0.0128
1394.25,0.0124
1394.00,0.0121
1393.75,0.0119
1393.50,0.0118
1393.25,0.0117
1393.00,0.0118
1392.75,0.0118
1392.50,0.0119
1392.25,0.0118
1392.00,0.0117
1391.75,0.0115
1391.50,0.0114
1391.25,0.0113
1391.00,0.0112
1390.75,0.0110
1390.50,0.0109
1390.25,0.0108
1390.00,0.0106
1389.75,0.0106
1389.50,0.0105
1389.25,0.0105
1389.00,0.0105
1388.75,0.0104
1388.50,0.0104
1388.25,0.0103
1388.00,0.0102
1387.75,0.0102
1387.50,0.0102
1387.25,0.0103
1387.00,0.0104
1386.75,0.0104
1386.50,0.0104
1386.25,0.0103
1386.00,0.0103
1385.75,0.0104
1385.50,0.0104
1385.25,0.0105
1385.00,0.0105
1384.75,0.0104
1384.50,0.0102
1384.25,0.0100
1384.00,0.0098
1383.75,0.0097
1383.50,0.0097
1383.25,0.0098
1383.00,0.0099
1382.75,0.0100
1382.50,0.0100
1382.25,0.0101
1382.00,0.0101
1381.75,0.0101
1381.50,0.0100
1381.25,0.0099
1381.00,0.0098
1380.75,0.0098
1380.50,0.0098
1380.25,0.0099
1380.00,0.0100
1379.75,0.0099
1379.50,0.0098
1379.25,0.0097
1379.00,0.0097
1378.75,0.0096
1378.50,0.0096
1378.25,0.0096
1378.00,0.0096
1377.75,0.0096
1377.50,0.0095
1377.25,0.0095
1377.00,0.0094
1376.75,0.0094
1376.50,0.0095
1376.25,0.0095
1376.00,0.0095
1375.75,0.0094
1375.50,0.0094
1375.25,0.0094
1375.00,0.0094
1374.75,0.0095
1374.50,0.0096
1374.25,0.0098
1374.00,0.0099
1373.75,0.0098
1373.50,0.0097
1373.25,0.0096
1373.00,0.0096
1372.75,0.0096
1372.50,0.0096
1372.25,0.0096
1372.00,0.0096
1371.75,0.0096
1371.50,0.0097
1371.25,0.0097
1371.00,0.0097
1370.75,0.0097
1370.50,0.0097
1370.25,0.0096
1370.00,0.0096
1369.75,0.0096
1369.50,0.0096
1369.25,0.0097
1369.00,0.0097
1368.75,0.0097
1368.50,0.0097
1368.25,0.0097
1368.00,0.0097
1367.75,0.0096
1367.50,0.0096
1367.25,0.0096
1367.00,0.0095
1366.75,0.0094
1366.50,0.0093
1366.25,0.0092
1366.00,0.0091
1365.75,0.0092
1365.50,0.0092
1365.25,0.0093
1365.00,0.0093
1364.75,0.0093
1364.50,0.0093
1364.25,0.0092
1364.00,0.0091
1363.75,0.0091
1363.50,0.0091
1363.25,0.0091
1363.00,0.0092
1362.75,0.0093
1362.50,0.0093
1362.25,0.0093
1362.00,0.0093
1361.75,0.0093
1361.50,0.0093
1361.25,0.0091
1361.00,0.0089
1360.75,0.0089
1360.50,0.0090
1360.25,0.0092
1360.00,0.0093
1359.75,0.0094
1359.50,0.0094
1359.25,0.0095
1359.00,0.0094
1358.75,0.0093
1358.50,0.0091
1358.25,0.0090
1358.00,0.0089
1357.75,0.0089
1357.50,0.0090
1357.25,0.0090
1357.00,0.0091
1356.75,0.0092
1356.50,0.0092
1356.25,0.0092
1356.00,0.0092
1355.75,0.0091
1355.50,0.0091
1355.25,0.0091
1355.00,0.0091
1354.75,0.0092
1354.50,0.0093
1354.25,0.0093
1354.00,0.0093
1353.75,0.0094
1353.50,0.0094
1353.25,0.0094
1353.00,0.0094
1352.75,0.0094
1352.50,0.0094
1352.25,0.0094
1352.00,0.0093
1351.75,0.0093
1351.50,0.0092
1351.25,0.0091
1351.00,0.0090
1350.75,0.0090
1350.50,0.0091
1350.25,0.0092
1350.00,0.0092
1349.75,0.0093
1349.50,0.0093
1349.25,0.0093
1349.00,0.0092
1348.75,0.0091
1348.50,0.0091
1348.25,0.0090
1348.00,0.0090
1347.75,0.0090
1347.50,0.0091
1347.25,0.0092
1347.00,0.0092
1346.75,0.0092
1346.50,0.0092
1346.25,0.0092
1346.00,0.0092
1345.75,0.0094
1345.50,0.0095
1345.25,0.0095
1345.00,0.0094
1344.75,0.0093
1344.50,0.0092
1344.25,0.0092
1344.00,0.0092
1343.75,0.0092
1343.50,0.0091
1343.25,0.0091
1343.00,0.0091
1342.75,0.0092
1342.50,0.0092
1342.25,0.0092
1342.00,0.0092
1341.75,0.0091
1341.50,0.0091
1341.25,0.0090
1341.00,0.0091
1340.75,0.0091
1340.50,0.0092
1340.25,0.0092
1340.00,0.0092
1339.75,0.0091
1339.50,0.0090
1339.25,0.0090
1339.00,0.0091
1338.75,0.0091
1338.50,0.0090
1338.25,0.0089
1338.00,0.0088
1337.75,0.0087
1337.50,0.0087
1337.25,0.0087
1337.00,0.0088
1336.75,0.0088
1336.50,0.0089
1336.25,0.0090
1336.00,0.0090
1335.75,0.0090
1335.50,0.0090
1335.25,0.0090
1335.00,0.0090
1334.75,0.0092
1334.50,0.0093
1334.25,0.0095
1334.00,0.0096
1333.75,0.0096
1333.50,0.0096
1333.25,0.0096
1333.00,0.0095
1332.75,0.0094
1332.50,0.0093
1332.25,0.0093
1332.00,0.0093
1331.75,0.0093
1331.50,0.0092
1331.25,0.0092
1331.00,0.0092
1330.75,0.0093
1330.50,0.0093
1330.25,0.0094
1330.00,0.0094
1329.75,0.0093
1329.50,0.0093
1329.25,0.0093
1329.00,0.0093
1328.75,0.0094
1328.50,0.0094
1328.25,0.0095
1328.00,0.0095
1327.75,0.0094
1327.50,0.0094
1327.25,0.0093
1327.00,0.0092
1326.75,0.0092
1326.50,0.0093
1326.25,0.0093
1326.00,0.0094
1325.75,0.0095
1325.50,0.0095
1325.25,0.0095
1325.00,0.0095
1324.75,0.0095
1324.50,0.0095
1324.25,0.0094
1324.00,0.0094
1323.75,0.0093
1323.50,0.0093
1323.25,0.0094
1323.00,0.0096
1322.75,0.0097
1322.50,0.0098
1322.25,0.0099
1322.00,0.0099
1321.75,0.0099
1321.50,0.0098
1321.25,0.0098
1321.00,0.0098
1320.75,0.0098
1320.50,0.0098
1320.25,0.0098
1320.00,0.0098
1319.75,0.0098
1319.50,0.0098
1319.25,0.0098
1319.00,0.0099
1318.75,0.0099
1318.50,0.0099
1318.25,0.0100
1318.00,0.0102
1317.75,0.0102
1317.50,0.0102
1317.25,0.0100
1317.00,0.0099
1316.75,0.0098
1316.50,0.0098
1316.25,0.0098
1316.00,0.0100
1315.75,0.0101
1315.50,0.0103
1315.25,0.0103
1315.00,0.0103
1314.75,0.0102
1314.50,0.0102
1314.25,0.0103
1314.00,0.0103
1313.75,0.0104
1313.50,0.0104
1313.25,0.0104
1313.00,0.0103
1312.75,0.0103
1312.50,0.0102
1312.25,0.0101
1312.00,0.0100
1311.75,0.0101
1311.50,0.0102
1311.25,0.0102
1311.00,0.0102
1310.75,0.0101
1310.50,0.0101
1310.25,0.0101
1310.00,0.0102
1309.75,0.0104
1309.50,0.0106
1309.25,0.0107
1309.00,0.0107
1308.75,0.0107
1308.50,0.0107
1308.25,0.0107
1308.00,0.0107
1307.75,0.0107
1307.50,0.0106
1307.25,0.0106
1307.00,0.0105
1306.75,0.0105
1306.50,0.0105
1306.25,0.0105
1306.00,0.0106
1305.75,0.0106
1305.50,0.0107
1305.25,0.0108
1305.00,0.0108
1304.75,0.0108
1304.50,0.0109
1304.25,0.0110
1304.00,0.0110
1303.75,0.0111
1303.50,0.0112
1303.25,0.0112
1303.00,0.0113
1302.75,0.0112
1302.50,0.0112
1302.25,0.0111
1302.00,0.0111
1301.75,0.0112
1301.50,0.0113
1301.25,0.0115
1301.00,0.0115
1300.75,0.0114
1300.50,0.0113
1300.25,0.0112
1300.00,0.0113
1299.75,0.0114
1299.50,0.0115
1299.25,0.0116
1299.00,0.0117
1298.75,0.0117
1298.50,0.0117
1298.25,0.0117
1298.00,0.0118
1297.75,0.0118
1297.50,0.0118
1297.25,0.0118
1297.00,0.0119
1296.75,0.0119
1296.50,0.0119
1296.25,0.0119
1296.00,0.0119
1295.75,0.0119
1295.50,0.0119
1295.25,0.0119
1295.00,0.0119
1294.75,0.0119
1294.50,0.0120
1294.25,0.0121
1294.00,0.0122
1293.75,0.0123
1293.50,0.0124
1293.25,0.0125
1293.00,0.0125
1292.75,0.0125
1292.50,0.0126
1292.25,0.0126
1292.00,0.0125
1291.75,0.0125
1291.50,0.0126
1291.25,0.0126
1291.00,0.0127
1290.75,0.0128
1290.50,0.0129
1290.25,0.0130
1290.00,0.0131
1289.75,0.0131
1289.50,0.0132
1289.25,0.0132
1289.00,0.0132
1288.75,0.0133
1288.50,0.0134
1288.25,0.0135
1288.00,0.0135
1287.75,0.0136
1287.50,0.0136
1287.25,0.0136
1287.00,0.0136
1286.75,0.0135
1286.50,0.0136
1286.25,0.0137
1286.00,0.0139
1285.75,0.0142
1285.50,0.0145
1285.25,0.0147
1285.00,0.0148
1284.75,0.0150
1284.50,0.0151
1284.25,0.0152
1284.00,0.0153
1283.75,0.0154
1283.50,0.0153
1283.25,0.0152
1283.00,0.0151
1282.75,0.0151
1282.50,0.0152
1282.25,0.0154
1282.00,0.0156
1281.75,0.0159
1281.50,0.0161
1281.25,0.0162
1281.00,0.0164
1280.75,0.0165
1280.50,0.0168
1280.25,0.0170
1280.00,0.0172
1279.75,0.0174
1279.50,0.0176
1279.25,0.0178
1279.00,0.0181
1278.75,0.0184
1278.50,0.0187
1278.25,0.0190
1278.00,0.0192
1277.75,0.0194
1277.50,0.0197
1277.25,0.0201
1277.00,0.0205
1276.75,0.0209
1276.50,0.0213
1276.25,0.0217
1276.00,0.0220
1275.75,0.0223
1275.50,0.0228
1275.25,0.0232
1275.00,0.0238
1274.75,0.0243
1274.50,0.0248
1274.25,0.0254
1274.00,0.0260
1273.75,0.0267
1273.50,0.0274
1273.25,0.0281
1273.00,0.0288
1272.75,0.0295
1272.50,0.0303
1272.25,0.0311
1272.00,0.0320
1271.75,0.0329
1271.50,0.0340
1271.25,0.0350
1271.00,0.0362
1270.75,0.0374
1270.50,0.0386
1270.25,0.0398
1270.00,0.0409
1269.75,0.0422
1269.50,0.0434
1269.25,0.0448
1269.00,0.0464
1268.75,0.0481
1268.50,0.0501
1268.25,0.0522
1268.00,0.0544
1267.75,0.0567
1267.50,0.0591
1267.25,0.0616
1267.00,0.0643
1266.75,0.0671
1266.50,0.0701
1266.25,0.0732
1266.00,0.0765
1265.75,0.0799
1265.50,0.0834
1265.25,0.0870
1265.00,0.0908
1264.75,0.0946
1264.50,0.0986
1264.25,0.1026
1264.00,0.1067
1263.75,0.1109
1263.50,0.1152
1263.25,0.1195
1263.00,0.1237
1262.75,0.1279
1262.50,0.1319
1262.25,0.1357
1262.00,0.1394
1261.75,0.1428
1261.50,0.1461
1261.25,0.1493
1261.00,0.1524
1260.75,0.1555
1260.50,0.1583
1260.25,0.1608
1260.00,0.1628
1259.75,0.1644
1259.50,0.1655
1259.25,0.1664
1259.00,0.1671
1258.75,0.1675
1258.50,0.1676
1258.25,0.1674
1258.00,0.1669
1257.75,0.1661
1257.50,0.1649
1257.25,0.1635
1257.00,0.1618
1256.75,0.1599
1256.50,0.1577
1256.25,0.1554
1256.00,0.1529
1255.75,0.1503
1255.50,0.1477
1255.25,0.1450
1255.00,0.1423
1254.75,0.1394
1254.50,0.1364
1254.25,0.1334
1254.00,0.1305
1253.75,0.1276
1253.50,0.1248
1253.25,0.1219
1253.00,0.1189
1252.75,0.1157
1252.50,0.1124
1252.25,0.1091
1252.00,0.1057
1251.75,0.1023
1251.50,0.0989
1251.25,0.0953
1251.00,0.0917
1250.75,0.0881
1250.50,0.0845
1250.25,0.0811
1250.00,0.0778
1249.75,0.0746
1249.50,0.0715
1249.25,0.0685
1249.00,0.0655
1248.75,0.0626
1248.50,0.0598
1248.25,0.0573
1248.00,0.0549
1247.75,0.0526
1247.50,0.0505
1247.25,0.0484
1247.00,0.0464
1246.75,0.0446
1246.50,0.0430
1246.25,0.0415
1246.00,0.0402
1245.75,0.0389
1245.50,0.0376
1245.25,0.0364
1245.00,0.0353
1244.75,0.0343
1244.50,0.0333
1244.25,0.0325
1244.00,0.0317
1243.75,0.0309
1243.50,0.0303
1243.25,0.0296
1243.00,0.0291
1242.75,0.0286
1242.50,0.0280
1242.25,0.0275
1242.00,0.0269
1241.75,0.0264
1241.50,0.0259
1241.25,0.0255
1241.00,0.0252
1240.75,0.0250
1240.50,0.0247
1240.25,0.0244
1240.00,0.0241
1239.75,0.0238
1239.50,0.0235
1239.25,0.0232
1239.00,0.0230
1238.75,0.0228
1238.50,0.0227
1238.25,0.0226
1238.00,0.0224
1237.75,0.0223
1237.50,0.0222
1237.25,0.0220
1237.00,0.0218
1236.75,0.0216
1236.50,0.0213
1236.25,0.0210
1236.00,0.0208
1235.75,0.0207
1235.50,0.0207
1235.25,0.0207
1235.00,0.0207
1234.75,0.0206
1234.50,0.0204
1234.25,0.0203
1234.00,0.0202
1233.75,0.0201
1233.50,0.0201
1233.25,0.0201
1233.00,0.0200
1232.75,0.0200
1232.50,0.0199
1232.25,0.0198
1232.00,0.0198
1231.75,0.0199
1231.50,0.0199
1231.25,0.0198
1231.00,0.0197
1230.75,0.0195
1230.50,0.0193
1230.25,0.0193
1230.00,0.0193
1229.75,0.0194
1229.50,0.0195
1229.25,0.0196
1229.00,0.0198
1228.75,0.0199
1228.50,0.0199
1228.25,0.0199
1228.00,0.0199
1227.75,0.0200
1227.50,0.0201
1227.25,0.0202
1227.00,0.0202
1226.75,0.0201
1226.50,0.0199
1226.25,0.0198
1226.00,0.0197
1225.75,0.0197
1225.50,0.0197
1225.25,0.0199
1225.00,0.0201
1224.75,0.0204
1224.50,0.0205
1224.25,0.0206
1224.00,0.0206
1223.75,0.0206
1223.50,0.0206
1223.25,0.0207
1223.00,0.0207
1222.75,0.0207
1222.50,0.0208
1222.25,0.0209
1222.00,0.0210
1221.75,0.0211
1221.50,0.0212
1221.25,0.0212
1221.00,0.0213
1220.75,0.0213
1220.50,0.0214
1220.25,0.0214
1220.00,0.0215
1219.75,0.0215
1219.50,0.0216
1219.25,0.0218
1219.00,0.0219
1218.75,0.0221
1218.50,0.0222
1218.25,0.0223
1218.00,0.0224
1217.75,0.0225
1217.50,0.0226
1217.25,0.0227
1217.00,0.0229
1216.75,0.0230
1216.50,0.0231
1216.25,0.0232
1216.00,0.0233
1215.75,0.0235
1215.50,0.0237
1215.25,0.0240
1215.00,0.0242
1214.75,0.0243
1214.50,0.0243
1214.25,0.0243
1214.00,0.0243
1213.75,0.0244
1213.50,0.0246
1213.25,0.0248
1213.00,0.0250
1212.75,0.0252
1212.50,0.0254
1212.25,0.0255
1212.00,0.0257
1211.75,0.0259
1211.50,0.0261
1211.25,0.0263
1211.00,0.0264
1210.75,0.0265
1210.50,0.0265
1210.25,0.0264
1210.00,0.0264
1209.75,0.0265
1209.50,0.0266
1209.25,0.0268
1209.00,0.0270
1208.75,0.0272
1208.50,0.0273
1208.25,0.0274
1208.00,0.0274
1207.75,0.0273
1207.50,0.0274
1207.25,0.0275
1207.00,0.0276
1206.75,0.0278
1206.50,0.0280
1206.25,0.0281
1206.00,0.0282
1205.75,0.0282
1205.50,0.0283
1205.25,0.0284
1205.00,0.0286
1204.75,0.0287
1204.50,0.0288
1204.25,0.0289
1204.00,0.0290
1203.75,0.0293
1203.50,0.0296
1203.25,0.0298
1203.00,0.0298
1202.75,0.0299
1202.50,0.0299
1202.25,0.0299
1202.00,0.0299
1201.75,0.0299
1201.50,0.0300
1201.25,0.0301
1201.00,0.0303
1200.75,0.0305
1200.50,0.0306
1200.25,0.0307
1200.00,0.0308
1199.75,0.0308
1199.50,0.0309
1199.25,0.0310
1199.00,0.0311
1198.75,0.0312
1198.50,0.0314
1198.25,0.0316
1198.00,0.0318
1197.75,0.0319
1197.50,0.0320
1197.25,0.0320
1197.00,0.0319
1196.75,0.0319
1196.50,0.0319
1196.25,0.0319
1196.00,0.0319
1195.75,0.0320
1195.50,0.0321
1195.25,0.0322
1195.00,0.0322
1194.75,0.0323
1194.50,0.0324
1194.25,0.0325
1194.00,0.0325
1193.75,0.0325
1193.50,0.0325
1193.25,0.0324
1193.00,0.0324
1192.75,0.0325
1192.50,0.0327
1192.25,0.0329
1192.00,0.0331
1191.75,0.0332
1191.50,0.0332
1191.25,0.0331
1191.00,0.0330
1190.75,0.0330
1190.50,0.0331
1190.25,0.0334
1190.00,0.0336
1189.75,0.0337
1189.50,0.0337
1189.25,0.0336
1189.00,0.0335
1188.75,0.0334
1188.50,0.0334
1188.25,0.0334
1188.00,0.0334
1187.75,0.0335
1187.50,0.0337
1187.25,0.0338
1187.00,0.0339
1186.75,0.0340
1186.50,0.0340
1186.25,0.0341
1186.00,0.0342
1185.75,0.0342
1185.50,0.0343
1185.25,0.0343
1185.00,0.0344
1184.75,0.0345
1184.50,0.0346
1184.25,0.0347
1184.00,0.0347
1183.75,0.0346
1183.50,0.0345
1183.25,0.0345
1183.00,0.0344
1182.75,0.0344
1182.50,0.0344
1182.25,0.0344
1182.00,0.0345
1181.75,0.0345
1181.50,0.0346
1181.25,0.0346
1181.00,0.0345
1180.75,0.0345
1180.50,0.0346
1180.25,0.0346
1180.00,0.0347
1179.75,0.0348
1179.50,0.0349
1179.25,0.0350
1179.00,0.0351
1178.75,0.0350
1178.50,0.0349
1178.25,0.0349
1178.00,0.0349
1177.75,0.0350
1177.50,0.0350
1177.25,0.0351
1177.00,0.0351
1176.75,0.0351
1176.50,0.0350
1176.25,0.0351
1176.00,0.0351
1175.75,0.0352
1175.50,0.0351
1175.25,0.0350
1175.00,0.0349
1174.75,0.0349
1174.50,0.0351
1174.25,0.0354
1174.00,0.0356
1173.75,0.0358
1173.50,0.0359
1173.25,0.0359
1173.00,0.0360
1172.75,0.0360
1172.50,0.0361
1172.25,0.0361
1172.00,0.0360
1171.75,0.0359
1171.50,0.0358
1171.25,0.0357
1171.00,0.0357
1170.75,0.0358
1170.50,0.0359
1170.25,0.0359
1170.00,0.0360
1169.75,0.0360
1169.50,0.0361
1169.25,0.0361
1169.00,0.0362
1168.75,0.0362
1168.50,0.0362
1168.25,0.0362
1168.00,0.0362
1167.75,0.0363
1167.50,0.0363
1167.25,0.0363
1167.00,0.0364
1166.75,0.0366
1166.50,0.0367
1166.25,0.0368
1166.00,0.0370
1165.75,0.0372
1165.50,0.0373
1165.25,0.0373
1165.00,0.0372
1164.75,0.0371
1164.50,0.0370
1164.25,0.0369
1164.00,0.0369
1163.75,0.0370
1163.50,0.0371
1163.25,0.0372
1163.00,0.0372
1162.75,0.0372
1162.50,0.0372
1162.25,0.0372
1162.00,0.0372
1161.75,0.0372
1161.50,0.0372
1161.25,0.0372
1161.00,0.0372
1160.75,0.0373
1160.50,0.0374
1160.25,0.0375
1160.00,0.0376
1159.75,0.0377
1159.50,0.0378
1159.25,0.0380
1159.00,0.0381
1158.75,0.0381
1158.50,0.0381
1158.25,0.0382
1158.00,0.0383
1157.75,0.0384
1157.50,0.0386
1157.25,0.0387
1157.00,0.0388
1156.75,0.0389
1156.50,0.0391
1156.25,0.0393
1156.00,0.0394
1155.75,0.0394
1155.50,0.0395
1155.25,0.0395
1155.00,0.0396
1154.75,0.0397
1154.50,0.0398
1154.25,0.0399
1154.00,0.0400
1153.75,0.0401
1153.50,0.0401
1153.25,0.0402
1153.00,0.0402
1152.75,0.0403
1152.50,0.0404
1152.25,0.0405
1152.00,0.0406
1151.75,0.0408
1151.50,0.0410
1151.25,0.0412
1151.00,0.0414
1150.75,0.0415
1150.50,0.0416
1150.25,0.0417
1150.00,0.0418
1149.75,0.0419
1149.50,0.0421
1149.25,0.0422
1149.00,0.0423
1148.75,0.0423
1148.50,0.0424
1148.25,0.0425
1148.00,0.0426
1147.75,0.0428
1147.50,0.0430
1147.25,0.0431
1147.00,0.0432
1146.75,0.0433
1146.50,0.0435
1146.25,0.0437
1146.00,0.0440
1145.75,0.0443
1145.50,0.0445
1145.25,0.0447
1145.00,0.0448
1144.75,0.0449
1144.50,0.0450
1144.25,0.0452
1144.00,0.0456
1143.75,0.0460
1143.50,0.0465
1143.25,0.0469
1143.00,0.0472
1142.75,0.0473
1142.50,0.0474
1142.25,0.0475
1142.00,0.0476
1141.75,0.0478
1141.50,0.0481
1141.25,0.0483
1141.00,0.0486
1140.75,0.0489
1140.50,0.0490
1140.25,0.0492
1140.00,0.0493
1139.75,0.0496
1139.50,0.0499
1139.25,0.0503
1139.00,0.0507
1138.75,0.0510
1138.50,0.0513
1138.25,0.0516
1138.00,0.0518
1137.75,0.0519
1137.50,0.0521
1137.25,0.0522
1137.00,0.0525
1136.75,0.0527
1136.50,0.0529
1136.25,0.0529
1136.00,0.0529
1135.75,0.0529
1135.50,0.0531
1135.25,0.0534
1135.00,0.0537
1134.75,0.0540
1134.50,0.0543
1134.25,0.0544
1134.00,0.0545
1133.75,0.0547
1133.50,0.0549
1133.25,0.0552
1133.00,0.0555
1132.75,0.0558
1132.50,0.0560
1132.25,0.0562
1132.00,0.0564
1131.75,0.0566
1131.50,0.0570
1131.25,0.0573
1131.00,0.0575
1130.75,0.0578
1130.50,0.0582
1130.25,0.0585
1130.00,0.0588
1129.75,0.0591
1129.50,0.0593
1129.25,0.0594
1129.00,0.0596
1128.75,0.0600
1128.50,0.0604
1128.25,0.0609
1128.00,0.0612
1127.75,0.0615
1127.50,0.0617
1127.25,0.0619
1127.00,0.0621
1126.75,0.0624
1126.50,0.0627
1126.25,0.0632
1126.00,0.0637
1125.75,0.0643
1125.50,0.0649
1125.25,0.0655
1125.00,0.0660
1124.75,0.0664
1124.50,0.0669
1124.25,0.0673
1124.00,0.0678
1123.75,0.0683
1123.50,0.0690
1123.25,0.0696
1123.00,0.0702
1122.75,0.0708
1122.50,0.0712
1122.25,0.0717
1122.00,0.0723
1121.75,0.0729
1121.50,0.0734
1121.25,0.0738
1121.00,0.0741
1120.75,0.0746
1120.50,0.0753
1120.25,0.0761
1120.00,0.0770
1119.75,0.0778
1119.50,0.0783
1119.25,0.0788
1119.00,0.0791
1118.75,0.0795
1118.50,0.0800
1118.25,0.0807
1118.00,0.0815
1117.75,0.0824
1117.50,0.0832
1117.25,0.0841
1117.00,0.0848
1116.75,0.0856
1116.50,0.0863
1116.25,0.0870
1116.00,0.0878
1115.75,0.0885
1115.50,0.0893
1115.25,0.0900
1115.00,0.0907
1114.75,0.0914
1114.50,0.0920
1114.25,0.0927
1114.00,0.0935
1113.75,0.0946
1113.50,0.0957
1113.25,0.0968
1113.00,0.0978
1112.75,0.0987
1112.50,0.0995
1112.25,0.1002
1112.00,0.1009
1111.75,0.1017
1111.50,0.1026
1111.25,0.1037
1111.00,0.1048
1110.75,0.1060
1110.50,0.1072
1110.25,0.1083
1110.00,0.1093
1109.75,0.1103
1109.50,0.1112
1109.25,0.1121
1109.00,0.1131
1108.75,0.1141
1108.50,0.1151
1108.25,0.1162
1108.00,0.1173
1107.75,0.1183
1107.50,0.1194
1107.25,0.1205
1107.00,0.1217
1106.75,0.1228
1106.50,0.1240
1106.25,0.1251
1106.00,0.1263
1105.75,0.1276
1105.50,0.1290
1105.25,0.1303
1105.00,0.1315
1104.75,0.1325
1104.50,0.1333
1104.25,0.1343
1104.00,0.1355
1103.75,0.1368
1103.50,0.1383
1103.25,0.1397
1103.00,0.1411
1102.75,0.1424
1102.50,0.1436
1102.25,0.1448
1102.00,0.1460
1101.75,0.1473
1101.50,0.1486
1101.25,0.1498
1101.00,0.1509
1100.75,0.1521
1100.50,0.1534
1100.25,0.1548
1100.00,0.1564
1099.75,0.1579
1099.50,0.1593
1099.25,0.1606
1099.00,0.1619
1098.75,0.1633
1098.50,0.1647
1098.25,0.1660
1098.00,0.1673
1097.75,0.1684
1097.50,0.1696
1097.25,0.1709
1097.00,0.1724
1096.75,0.1740
1096.50,0.1754
1096.25,0.1768
1096.00,0.1781
1095.75,0.1795
1095.50,0.1809
1095.25,0.1824
1095.00,0.1840
1094.75,0.1855
1094.50,0.1870
1094.25,0.1884
1094.00,0.1897
1093.75,0.1908
1093.50,0.1919
1093.25,0.1931
1093.00,0.1945
1092.75,0.1958
1092.50,0.1971
1092.25,0.1984
1092.00,0.1996
1091.75,0.2009
1091.50,0.2021
1091.25,0.2034
1091.00,0.2048
1090.75,0.2064
1090.50,0.2081
1090.25,0.2098
1090.00,0.2113
1089.75,0.2126
1089.50,0.2136
1089.25,0.2145
1089.00,0.2154
1088.75,0.2165
1088.50,0.2177
1088.25,0.2190
1088.00,0.2203
1087.75,0.2217
1087.50,0.2231
1087.25,0.2245
1087.00,0.2256
1086.75,0.2267
1086.50,0.2277
1086.25,0.2287
1086.00,0.2297
1085.75,0.2307
1085.50,0.2317
1085.25,0.2325
1085.00,0.2334
1084.75,0.2342
1084.50,0.2352
1084.25,0.2364
1084.00,0.2377
1083.75,0.2389
1083.50,0.2399
1083.25,0.2407
1083.00,0.2416
1082.75,0.2424
1082.50,0.2434
1082.25,0.2444
1082.00,0.2454
1081.75,0.2463
1081.50,0.2472
1081.25,0.2481
1081.00,0.2491
1080.75,0.2499
1080.50,0.2506
1080.25,0.2512
1080.00,0.2517
1079.75,0.2523
1079.50,0.2529
1079.25,0.2535
1079.00,0.2541
1078.75,0.2546
1078.50,0.2552
1078.25,0.2556
1078.00,0.2560
1077.75,0.2564
1077.50,0.2567
1077.25,0.2571
1077.00,0.2576
1076.75,0.2582
1076.50,0.2590
1076.25,0.2598
1076.00,0.2607
1075.75,0.2615
1075.50,0.2622
1075.25,0.2626
1075.00,0.2629
1074.75,0.2631
1074.50,0.2634
1074.25,0.2637
1074.00,0.2641
1073.75,0.2646
1073.50,0.2651
1073.25,0.2656
1073.00,0.2662
1072.75,0.2668
1072.50,0.2671
1072.25,0.2673
1072.00,0.2673
1071.75,0.2673
1071.50,0.2674
1071.25,0.2675
1071.00,0.2678
1070.75,0.2682
1070.50,0.2687
1070.25,0.2694
1070.00,0.2700
1069.75,0.2704
1069.50,0.2706
1069.25,0.2707
1069.00,0.2707
1068.75,0.2707
1068.50,0.2709
1068.25,0.2712
1068.00,0.2716
1067.75,0.2720
1067.50,0.2723
1067.25,0.2725
1067.00,0.2727
1066.75,0.2730
1066.50,0.2732
1066.25,0.2734
1066.00,0.2735
1065.75,0.2736
1065.50,0.2739
1065.25,0.2742
1065.00,0.2745
1064.75,0.2745
1064.50,0.2744
1064.25,0.2741
1064.00,0.2739
1063.75,0.2739
1063.50,0.2740
1063.25,0.2744
1063.00,0.2748
1062.75,0.2752
1062.50,0.2756
1062.25,0.2758
1062.00,0.2759
1061.75,0.2758
1061.50,0.2755
1061.25,0.2752
1061.00,0.2750
1060.75,0.2749
1060.50,0.2749
1060.25,0.2749
1060.00,0.2749
1059.75,0.2748
1059.50,0.2747
1059.25,0.2748
1059.00,0.2752
1058.75,0.2757
1058.50,0.2762
1058.25,0.2765
1058.00,0.2766
1057.75,0.2765
1057.50,0.2763
1057.25,0.2760
1057.00,0.2757
1056.75,0.2754
1056.50,0.2751
1056.25,0.2750
1056.00,0.2751
1055.75,0.2754
1055.50,0.2755
1055.25,0.2756
1055.00,0.2756
1054.75,0.2756
1054.50,0.2756
1054.25,0.2757
1054.00,0.2757
1053.75,0.2756
1053.50,0.2755
1053.25,0.2753
1053.00,0.2751
1052.75,0.2749
1052.50,0.2746
1052.25,0.2744
1052.00,0.2743
1051.75,0.2742
1051.50,0.2741
1051.25,0.2740
1051.00,0.2739
1050.75,0.2738
1050.50,0.2738
1050.25,0.2740
1050.00,0.2744
1049.75,0.2746
1049.50,0.2745
1049.25,0.2742
1049.00,0.2739
1048.75,0.2737
1048.50,0.2737
1048.25,0.2737
1048.00,0.2737
1047.75,0.2736
1047.50,0.2735
1047.25,0.2734
1047.00,0.2733
1046.75,0.2732
1046.50,0.2732
1046.25,0.2733
1046.00,0.2735
1045.75,0.2739
1045.50,0.2743
1045.25,0.2745
1045.00,0.2744
1044.75,0.2741
1044.50,0.2736
1044.25,0.2732
1044.00,0.2730
1043.75,0.2729
1043.50,0.2730
1043.25,0.2732
1043.00,0.2735
1042.75,0.2737
1042.50,0.2737
1042.25,0.2734
1042.00,0.2732
1041.75,0.2730
1041.50,0.2732
1041.25,0.2738
1041.00,0.2745
1040.75,0.2753
1040.50,0.2761
1040.25,0.2765
1040.00,0.2767
1039.75,0.2767
1039.50,0.2766
1039.25,0.2766
1039.00,0.2769
1038.75,0.2771
1038.50,0.2775
1038.25,0.2778
1038.00,0.2782
1037.75,0.2787
1037.50,0.2791
1037.25,0.2796
1037.00,0.2799
1036.75,0.2802
1036.50,0.2803
1036.25,0.2805
1036.00,0.2809
1035.75,0.2815
1035.50,0.2825
1035.25,0.2836
1035.00,0.2847
1034.75,0.2856
1034.50,0.2862
1034.25,0.2865
1034.00,0.2868
1033.75,0.2872
1033.50,0.2879
1033.25,0.2888
1033.00,0.2898
1032.75,0.2908
1032.50,0.2917
1032.25,0.2924
1032.00,0.2930
1031.75,0.2936
1031.50,0.2944
1031.25,0.2954
1031.00,0.2965
1030.75,0.2976
1030.50,0.2987
1030.25,0.2998
1030.00,0.3007
1029.75,0.3016
1029.50,0.3025
1029.25,0.3035
1029.00,0.3046
1028.75,0.3060
1028.50,0.3073
1028.25,0.3086
1028.00,0.3098
1027.75,0.3108
1027.50,0.3119
1027.25,0.3131
1027.00,0.3144
1026.75,0.3158
1026.50,0.3171
1026.25,0.3184
1026.00,0.3197
1025.75,0.3210
1025.50,0.3224
1025.25,0.3238
1025.00,0.3252
1024.75,0.3268
1024.50,0.3283
1024.25,0.3298
1024.00,0.3311
1023.75,0.3324
1023.50,0.3338
1023.25,0.3353
1023.00,0.3370
1022.75,0.3386
1022.50,0.3402
1022.25,0.3417
1022.00,0.3431
1021.75,0.3446
1021.50,0.3462
1021.25,0.3480
1021.00,0.3498
1020.75,0.3516
1020.50,0.3535
1020.25,0.3555
1020.00,0.3576
1019.75,0.3596
1019.50,0.3615
1019.25,0.3633
1019.00,0.3652
1018.75,0.3670
1018.50,0.3689
1018.25,0.3708
1018.00,0.3725
1017.75,0.3741
1017.50,0.3756
1017.25,0.3770
1017.00,0.3784
1016.75,0.3797
1016.50,0.3811
1016.25,0.3827
1016.00,0.3845
1015.75,0.3863
1015.50,0.3881
1015.25,0.3898
1015.00,0.3913
1014.75,0.3924
1014.50,0.3933
1014.25,0.3939
1014.00,0.3943
1013.75,0.3945
1013.50,0.3946
1013.25,0.3946
1013.00,0.3947
1012.75,0.3949
1012.50,0.3952
1012.25,0.3954
1012.00,0.3952
1011.75,0.3947
1011.50,0.3938
1011.25,0.3927
1011.00,0.3914
1010.75,0.3901
1010.50,0.3885
1010.25,0.3868
1010.00,0.3849
1009.75,0.3828
1009.50,0.3804
1009.25,0.3776
1009.00,0.3742
1008.75,0.3705
1008.50,0.3666
1008.25,0.3629
1008.00,0.3595
1007.75,0.3560
1007.50,0.3523
1007.25,0.3484
1007.00,0.3443
1006.75,0.3402
1006.50,0.3360
1006.25,0.3316
1006.00,0.3269
1005.75,0.3219
1005.50,0.3169
1005.25,0.3120
1005.00,0.3074
1004.75,0.3028
1004.50,0.2983
1004.25,0.2936
1004.00,0.2888
1003.75,0.2839
1003.50,0.2791
1003.25,0.2741
1003.00,0.2692
1002.75,0.2642
1002.50,0.2593
1002.25,0.2544
1002.00,0.2496
1001.75,0.2449
1001.50,0.2404
1001.25,0.2361
1001.00,0.2319
1000.75,0.2278
1000.50,0.2237
1000.25,0.2195
1000.00,0.2151
999.75,0.2107
999.50,0.2065
999.25,0.2025
999.00,0.1986
998.75,0.1948
998.50,0.1911
998.25,0.1874
998.00,0.1838
997.75,0.1803
997.50,0.1770
997.25,0.1737
997.00,0.1706
996.75,0.1676
996.50,0.1647
996.25,0.1618
996.00,0.1589
995.75,0.1559
995.50,0.1528
995.25,0.1498
995.00,0.1468
994.75,0.1441
994.50,0.1416
994.25,0.1393
994.00,0.1370
993.75,0.1348
993.50,0.1325
993.25,0.1302
993.00,0.1280
992.75,0.1258
992.50,0.1237
992.25,0.1214
992.00,0.1191
991.75,0.1169
991.50,0.1148
991.25,0.1129
991.00,0.1111
990.75,0.1095
990.50,0.1081
990.25,0.1066
990.00,0.1050
989.75,0.1034
989.50,0.1016
989.25,0.1000
989.00,0.0983
988.75,0.0968
988.50,0.0952
988.25,0.0936
988.00,0.0920
987.75,0.0905
987.50,0.0890
987.25,0.0877
987.00,0.0864
986.75,0.0853
986.50,0.0842
986.25,0.0831
986.00,0.0821
985.75,0.0810
985.50,0.0799
985.25,0.0788
985.00,0.0776
984.75,0.0766
984.50,0.0755
984.25,0.0745
984.00,0.0734
983.75,0.0723
983.50,0.0713
983.25,0.0703
983.00,0.0694
982.75,0.0684
982.50,0.0673
982.25,0.0663
982.00,0.0653
981.75,0.0644
981.50,0.0637
981.25,0.0630
981.00,0.0624
980.75,0.0618
980.50,0.0610
980.25,0.0602
980.00,0.0593
979.75,0.0584
979.50,0.0575
979.25,0.0569
979.00,0.0563
978.75,0.0559
978.50,0.0555
978.25,0.0551
978.00,0.0545
977.75,0.0538
977.50,0.0530
977.25,0.0522
977.00,0.0515
976.75,0.0509
976.50,0.0503
976.25,0.0498
976.00,0.0492
975.75,0.0487
975.50,0.0482
975.25,0.0477
975.00,0.0472
974.75,0.0468
974.50,0.0464
974.25,0.0460
974.00,0.0456
973.75,0.0451
973.50,0.0445
973.25,0.0439
973.00,0.0433
972.75,0.0427
972.50,0.0421
972.25,0.0416
972.00,0.0412
971.75,0.0409
971.50,0.0408
971.25,0.0408
971.00,0.0408
970.75,0.0407
970.50,0.0405
970.25,0.0402
970.00,0.0399
969.75,0.0395
969.50,0.0392
969.25,0.0388
969.00,0.0383
968.75,0.0378
968.50,0.0373
968.25,0.0368
968.00,0.0364
967.75,0.0363
967.50,0.0363
967.25,0.0363
967.00,0.0361
966.75,0.0358
966.50,0.0353
966.25,0.0349
966.00,0.0345
965.75,0.0342
965.50,0.0339
965.25,0.0336
965.00,0.0334
964.75,0.0332
964.50,0.0329
964.25,0.0327
964.00,0.0325
963.75,0.0323
963.50,0.0322
963.25,0.0320
963.00,0.0317
962.75,0.0315
962.50,0.0313
962.25,0.0313
962.00,0.0311
961.75,0.0309
961.50,0.0306
961.25,0.0303
961.00,0.0300
960.75,0.0299
960.50,0.0299
960.25,0.0299
960.00,0.0300
959.75,0.0300
959.50,0.0299
959.25,0.0298
959.00,0.0297
958.75,0.0295
958.50,0.0294
958.25,0.0292
958.00,0.0290
957.75,0.0287
957.50,0.0284
957.25,0.0282
957.00,0.0280
956.75,0.0280
956.50,0.0280
956.25,0.0281
956.00,0.0281
955.75,0.0280
955.50,0.0278
955.25,0.0277
955.00,0.0276
954.75,0.0275
954.50,0.0273
954.25,0.0272
954.00,0.0269
953.75,0.0267
953.50,0.0266
953.25,0.0265
953.00,0.0264
952.75,0.0262
952.50,0.0261
952.25,0.0259
952.00,0.0259
951.75,0.0260
951.50,0.0260
951.25,0.0259
951.00,0.0256
950.75,0.0253
950.50,0.0251
950.25,0.0251
950.00,0.0253
949.75,0.0255
949.50,0.0256
949.25,0.0257
949.00,0.0257
948.75,0.0256
948.50,0.0256
948.25,0.0256
948.00,0.0256
947.75,0.0256
947.50,0.0254
947.25,0.0252
947.00,0.0249
946.75,0.0246
946.50,0.0245
946.25,0.0244
946.00,0.0244
945.75,0.0244
945.50,0.0244
945.25,0.0244
945.00,0.0243
944.75,0.0242
944.50,0.0241
944.25,0.0241
944.00,0.0241
943.75,0.0243
943.50,0.0244
943.25,0.0245
943.00,0.0246
942.75,0.0247
942.50,0.0247
942.25,0.0248
942.00,0.0247
941.75,0.0247
941.50,0.0247
941.25,0.0246
941.00,0.0246
940.75,0.0246
940.50,0.0245
940.25,0.0245
940.00,0.0244
939.75,0.0243
939.50,0.0242
939.25,0.0242
939.00,0.0242
938.75,0.0244
938.50,0.0245
938.25,0.0244
938.00,0.0242
937.75,0.0239
937.50,0.0238
937.25,0.0237
937.00,0.0238
936.75,0.0239
936.50,0.0239
936.25,0.0239
936.00,0.0238
935.75,0.0237
935.50,0.0236
935.25,0.0234
935.00,0.0233
934.75,0.0233
934.50,0.0236
934.25,0.0238
934.00,0.0240
933.75,0.0241
933.50,0.0241
933.25,0.0241
933.00,0.0242
932.75,0.0243
932.50,0.0244
932.25,0.0245
932.00,0.0246
931.75,0.0246
931.50,0.0246
931.25,0.0246
931.00,0.0246
930.75,0.0245
930.50,0.0244
930.25,0.0242
930.00,0.0241
929.75,0.0242
929.50,0.0244
929.25,0.0246
929.00,0.0246
928.75,0.0244
928.50,0.0240
928.25,0.0237
928.00,0.0235
927.75,0.0236
927.50,0.0237
927.25,0.0239
927.00,0.0240
926.75,0.0241
926.50,0.0242
926.25,0.0243
926.00,0.0246
925.75,0.0249
925.50,0.0251
925.25,0.0251
925.00,0.0251
924.75,0.0250
924.50,0.0249
924.25,0.0249
924.00,0.0250
923.75,0.0250
923.50,0.0249
923.25,0.0249
923.00,0.0247
922.75,0.0246
922.50,0.0246
922.25,0.0248
922.00,0.0250
921.75,0.0253
921.50,0.0256
921.25,0.0258
921.00,0.0260
920.75,0.0261
920.50,0.0260
920.25,0.0259
920.00,0.0257
919.75,0.0257
919.50,0.0258
919.25,0.0259
919.00,0.0258
918.75,0.0257
918.50,0.0257
918.25,0.0259
918.00,0.0263
917.75,0.0266
917.50,0.0269
917.25,0.0271
917.00,0.0272
916.75,0.0274
916.50,0.0275
916.25,0.0277
916.00,0.0278
915.75,0.0280
915.50,0.0280
915.25,0.0279
915.00,0.0278
914.75,0.0278
914.50,0.0278
914.25,0.0280
914.00,0.0282
913.75,0.0284
913.50,0.0285
913.25,0.0286
913.00,0.0287
912.75,0.0288
912.50,0.0289
912.25,0.0291
912.00,0.0292
911.75,0.0294
911.50,0.0295
911.25,0.0296
911.00,0.0296
910.75,0.0295
910.50,0.0295
910.25,0.0295
910.00,0.0297
909.75,0.0299
909.50,0.0300
909.25,0.0300
909.00,0.0300
908.75,0.0300
908.50,0.0302
908.25,0.0305
908.00,0.0308
907.75,0.0310
907.50,0.0311
907.25,0.0311
907.00,0.0311
906.75,0.0311
906.50,0.0312
906.25,0.0313
906.00,0.0314
905.75,0.0315
905.50,0.0314
905.25,0.0313
905.00,0.0311
904.75,0.0309
904.50,0.0308
904.25,0.0307
904.00,0.0307
903.75,0.0308
903.50,0.0310
903.25,0.0312
903.00,0.0313
902.75,0.0314
902.50,0.0314
902.25,0.0314
902.00,0.0315
901.75,0.0317
901.50,0.0320
901.25,0.0324
901.00,0.0326
900.75,0.0328
900.50,0.0328
900.25,0.0329
900.00,0.0330
899.75,0.0331
899.50,0.0332
899.25,0.0332
899.00,0.0331
898.75,0.0330
898.50,0.0331
898.25,0.0333
898.00,0.0338
897.75,0.0342
897.50,0.0344
897.25,0.0344
897.00,0.0342
896.75,0.0341
896.50,0.0340
896.25,0.0342
896.00,0.0343
895.75,0.0345
895.50,0.0347
895.25,0.0349
895.00,0.0353
894.75,0.0356
894.50,0.0359
894.25,0.0360
894.00,0.0360
893.75,0.0360
893.50,0.0361
893.25,0.0363
893.00,0.0365
892.75,0.0367
892.50,0.0368
892.25,0.0369
892.00,0.0370
891.75,0.0371
891.50,0.0372
891.25,0.0374
891.00,0.0376
890.75,0.0379
890.50,0.0382
890.25,0.0384
890.00,0.0386
889.75,0.0388
889.50,0.0389
889.25,0.0392
889.00,0.0397
888.75,0.0402
888.50,0.0408
888.25,0.0411
888.00,0.0412
887.75,0.0412
887.50,0.0414
887.25,0.0418
887.00,0.0422
886.75,0.0426
886.50,0.0429
886.25,0.0430
886.00,0.0431
885.75,0.0434
885.50,0.0439
885.25,0.0444
885.00,0.0451
884.75,0.0459
884.50,0.0466
884.25,0.0473
884.00,0.0479
883.75,0.0484
883.50,0.0488
883.25,0.0491
883.00,0.0493
882.75,0.0495
882.50,0.0498
882.25,0.0502
882.00,0.0509
881.75,0.0516
881.50,0.0521
881.25,0.0525
881.00,0.0529
880.75,0.0533
880.50,0.0539
880.25,0.0547
880.00,0.0554
879.75,0.0561
879.50,0.0568
879.25,0.0574
879.00,0.0581
878.75,0.0589
878.50,0.0597
878.25,0.0607
878.00,0.0616
877.75,0.0626
877.50,0.0637
877.25,0.0647
877.00,0.0656
876.75,0.0665
876.50,0.0672
876.25,0.0678
876.00,0.0684
875.75,0.0692
875.50,0.0700
875.25,0.0711
875.00,0.0721
874.75,0.0732
874.50,0.0743
874.25,0.0753
874.00,0.0762
873.75,0.0769
873.50,0.0777
873.25,0.0785
873.00,0.0796
872.75,0.0811
872.50,0.0828
872.25,0.0844
872.00,0.0860
871.75,0.0874
871.50,0.0887
871.25,0.0900
871.00,0.0914
870.75,0.0926
870.50,0.0939
870.25,0.0951
870.00,0.0964
869.75,0.0977
869.50,0.0989
869.25,0.0998
869.00,0.1007
868.75,0.1014
868.50,0.1023
868.25,0.1032
868.00,0.1041
867.75,0.1050
867.50,0.1058
867.25,0.1065
867.00,0.1072
866.75,0.1079
866.50,0.1084
866.25,0.1088
866.00,0.1092
865.75,0.1096
865.50,0.1101
865.25,0.1106
865.00,0.1111
864.75,0.1115
864.50,0.1116
864.25,0.1117
864.00,0.1118
863.75,0.1119
863.50,0.1121
863.25,0.1122
863.00,0.1122
862.75,0.1121
862.50,0.1117
862.25,0.1113
862.00,0.1108
861.75,0.1103
861.50,0.1098
861.25,0.1095
861.00,0.1091
860.75,0.1089
860.50,0.1088
860.25,0.1087
860.00,0.1086
859.75,0.1082
859.50,0.1076
859.25,0.1069
859.00,0.1062
858.75,0.1059
858.50,0.1059
858.25,0.1062
858.00,0.1063
857.75,0.1062
857.50,0.1057
857.25,0.1050
857.00,0.1046
856.75,0.1044
856.50,0.1046
856.25,0.1049
856.00,0.1052
855.75,0.1057
855.50,0.1062
855.25,0.1067
855.00,0.1072
854.75,0.1075
854.50,0.1078
854.25,0.1081
854.00,0.1084
853.75,0.1089
853.50,0.1094
853.25,0.1099
853.00,0.1104
852.75,0.1107
852.50,0.1111
852.25,0.1114
852.00,0.1119
851.75,0.1125
851.50,0.1134
851.25,0.1144
851.00,0.1156
850.75,0.1168
850.50,0.1179
850.25,0.1187
850.00,0.1194
849.75,0.1198
849.50,0.1203
849.25,0.1211
849.00,0.1223
848.75,0.1238
848.50,0.1255
848.25,0.1271
848.00,0.1283
847.75,0.1292
847.50,0.1300
847.25,0.1305
847.00,0.1311
846.75,0.1317
846.50,0.1324
846.25,0.1332
846.00,0.1340
845.75,0.1348
845.50,0.1355
845.25,0.1359
845.00,0.1360
844.75,0.1358
844.50,0.1356
844.25,0.1357
844.00,0.1362
843.75,0.1369
843.50,0.1376
843.25,0.1377
843.00,0.1373
842.75,0.1366
842.50,0.1359
842.25,0.1353
842.00,0.1350
841.75,0.1348
841.50,0.1346
841.25,0.1341
841.00,0.1332
840.75,0.1321
840.50,0.1308
840.25,0.1296
840.00,0.1285
839.75,0.1276
839.50,0.1267
839.25,0.1257
839.00,0.1245
838.75,0.1234
838.50,0.1225
838.25,0.1216
838.00,0.1207
837.75,0.1196
837.50,0.1181
837.25,0.1164
837.00,0.1149
836.75,0.1136
836.50,0.1126
836.25,0.1118
836.00,0.1109
835.75,0.1099
835.50,0.1086
835.25,0.1073
835.00,0.1062
834.75,0.1052
834.50,0.1044
834.25,0.1035
834.00,0.1027
833.75,0.1020
833.50,0.1015
833.25,0.1012
833.00,0.1011
832.75,0.1012
832.50,0.1013
832.25,0.1014
832.00,0.1015
831.75,0.1015
831.50,0.1015
831.25,0.1013
831.00,0.1012
830.75,0.1011
830.50,0.1013
830.25,0.1019
830.00,0.1028
829.75,0.1038
829.50,0.1047
829.25,0.1055
829.00,0.1061
828.75,0.1068
828.50,0.1073
828.25,0.1077
828.00,0.1080
827.75,0.1084
827.50,0.1090
827.25,0.1098
827.00,0.1109
826.75,0.1120
826.50,0.1134
826.25,0.1151
826.00,0.1171
825.75,0.1190
825.50,0.1207
825.25,0.1222
825.00,0.1236
824.75,0.1253
824.50,0.1273
824.25,0.1294
824.00,0.1317
823.75,0.1338
823.50,0.1359
823.25,0.1381
823.00,0.1402
822.75,0.1424
822.50,0.1445
822.25,0.1465
822.00,0.1484
821.75,0.1503
821.50,0.1522
821.25,0.1541
821.00,0.1560
820.75,0.1578
820.50,0.1596
820.25,0.1614
820.00,0.1632
819.75,0.1648
819.50,0.1665
819.25,0.1682
819.00,0.1697
818.75,0.1712
818.50,0.1725
818.25,0.1737
818.00,0.1749
817.75,0.1760
817.50,0.1771
817.25,0.1782
817.00,0.1793
816.75,0.1806
816.50,0.1822
816.25,0.1839
816.00,0.1858
815.75,0.1875
815.50,0.1891
815.25,0.1905
815.00,0.1918
814.75,0.1932
814.50,0.1944
814.25,0.1955
814.00,0.1964
813.75,0.1974
813.50,0.1984
813.25,0.1997
813.00,0.2012
812.75,0.2030
812.50,0.2049
812.25,0.2069
812.00,0.2090
811.75,0.2111
811.50,0.2131
811.25,0.2151
811.00,0.2172
810.75,0.2194
810.50,0.2218
810.25,0.2245
810.00,0.2273
809.75,0.2302
809.50,0.2330
809.25,0.2356
809.00,0.2383
808.75,0.2410
808.50,0.2438
808.25,0.2465
808.00,0.2493
807.75,0.2521
807.50,0.2551
807.25,0.2581
807.00,0.2613
806.75,0.2648
806.50,0.2686
806.25,0.2725
806.00,0.2763
805.75,0.2800
805.50,0.2835
805.25,0.2873
805.00,0.2913
804.75,0.2955
804.50,0.2997
804.25,0.3038
804.00,0.3078
803.75,0.3117
803.50,0.3157
803.25,0.3197
803.00,0.3237
802.75,0.3276
802.50,0.3316
802.25,0.3358
802.00,0.3403
801.75,0.3453
801.50,0.3506
801.25,0.3560
801.00,0.3613
800.75,0.3662
800.50,0.3708
800.25,0.3751
800.00,0.3793
