Created as New Dataset,Sample 035 By irlear Date Thursday, January 01 2009
cm-1,A
4000.00,0.0076
3999.75,0.0076
3999.50,0.0075
3999.25,0.0073
3999.00,0.0071
3998.75,0.0069
3998.50,0.0067
3998.25,0.0067
3998.00,0.0067
3997.75,0.0068
3997.50,0.0070
3997.25,0.0072
3997.00,0.0074
3996.75,0.0075
3996.50,0.0075
3996.25,0.0074
3996.00,0.0073
3995.75,0.0072
3995.50,0.0071
3995.25,0.0071
3995.00,0.0070
3994.75,0.0070
3994.50,0.0070
3994.25,0.0070
3994.00,0.0071
3993.75,0.0072
3993.50,0.0072
3993.25,0.0071
3993.00,0.0070
3992.75,0.0070
3992.50,0.0069
3992.25,0.0069
3992.00,0.0069
3991.75,0.0069
3991.50,0.0070
3991.25,0.0070
3991.00,0.0071
3990.75,0.0072
3990.50,0.0073
3990.25,0.0073
3990.00,0.0073
3989.75,0.0073
3989.50,0.0073
3989.25,0.0073
3989.00,0.0073
3988.75,0.0072
3988.50,0.0071
3988.25,0.0070
3988.00,0.0068
3987.75,0.0068
3987.50,0.0069
3987.25,0.0070
3987.00,0.0072
3986.75,0.0073
3986.50,0.0073
3986.25,0.0073
3986.00,0.0073
3985.75,0.0072
3985.50,0.0071
3985.25,0.0071
3985.00,0.0072
3984.75,0.0073
3984.50,0.0074
3984.25,0.0075
3984.00,0.0075
3983.75,0.0075
3983.50,0.0075
3983.25,0.0074
3983.00,0.0075
3982.75,0.0075
3982.50,0.0075
3982.25,0.0074
3982.00,0.0074
3981.75,0.0074
3981.50,0.0074
3981.25,0.0073
3981.00,0.0073
3980.75,0.0072
3980.50,0.0072
3980.25,0.0071
3980.00,0.0071
3979.75,0.0071
3979.50,0.0071
3979.25,0.0071
3979.00,0.0071
3978.75,0.0071
3978.50,0.0071
3978.25,0.0071
3978.00,0.0072
3977.75,0.0072
3977.50,0.0072
3977.25,0.0072
3977.00,0.0071
3976.75,0.0071
3976.50,0.0072
3976.25,0.0072
3976.00,0.0072
3975.75,0.0072
3975.50,0.0071
3975.25,0.0069
3975.00,0.0068
3974.75,0.0068
3974.50,0.0068
3974.25,0.0069
3974.00,0.0071
3973.75,0.0073
3973.50,0.0074
3973.25,0.0075
3973.00,0.0075
3972.75,0.0075
3972.50,0.0075
3972.25,0.0074
3972.00,0.0074
3971.75,0.0073
3971.50,0.0072
3971.25,0.0072
3971.00,0.0072
3970.75,0.0072
3970.50,0.0072
3970.25,0.0072
3970.00,0.0073
3969.75,0.0074
3969.50,0.0076
3969.25,0.0076
3969.00,0.0076
3968.75,0.0075
3968.50,0.0073
3968.25,0.0072
3968.00,0.0072
3967.75,0.0072
3967.50,0.0073
3967.25,0.0073
3967.00,0.0074
3966.75,0.0075
3966.50,0.0075
3966.25,0.0075
3966.00,0.0075
3965.75,0.0074
3965.50,0.0072
3965.25,0.0071
3965.00,0.0070
3964.75,0.0069
3964.50,0.0069
3964.25,0.0069
3964.00,0.0069
3963.75,0.0069
3963.50,0.0069
3963.25,0.0071
3963.00,0.0073
3962.75,0.0075
3962.50,0.0076
3962.25,0.0076
3962.00,0.0075
3961.75,0.0074
3961.50,0.0072
3961.25,0.0071
3961.00,0.0071
3960.75,0.0072
3960.50,0.0074
3960.25,0.0075
3960.00,0.0075
3959.75,0.0075
3959.50,0.0073
3959.25,0.0072
3959.00,0.0071
3958.75,0.0071
3958.50,0.0072
3958.25,0.0074
3958.00,0.0075
3957.75,0.0076
3957.50,0.0076
3957.25,0.0075
3957.00,0.0074
3956.75,0.0073
3956.50,0.0072
3956.25,0.0072
3956.00,0.0072
3955.75,0.0072
3955.50,0.0072
3955.25,0.0072
3955.00,0.0071
3954.75,0.0071
3954.50,0.0070
3954.25,0.0070
3954.00,0.0070
3953.75,0.0071
3953.50,0.0072
3953.25,0.0073
3953.00,0.0074
3952.75,0.0074
3952.50,0.0075
3952.25,0.0074
3952.00,0.0074
3951.75,0.0072
3951.50,0.0071
3951.25,0.0070
3951.00,0.0070
3950.75,0.0070
3950.50,0.0070
3950.25,0.0071
3950.00,0.0072
3949.75,0.0074
3949.50,0.0074
3949.25,0.0074
3949.00,0.0074
3948.75,0.0074
3948.50,0.0073
3948.25,0.0072
3948.00,0.0071
3947.75,0.0069
3947.50,0.0068
3947.25,0.0068
3947.00,0.0069
3946.75,0.0070
3946.50,0.0071
3946.25,0.0072
3946.00,0.0072
3945.75,0.0072
3945.50,0.0072
3945.25,0.0072
3945.00,0.0073
3944.75,0.0074
3944.50,0.0076
3944.25,0.0077
3944.00,0.0077
3943.75,0.0075
3943.50,0.0073
3943.25,0.0071
3943.00,0.0070
3942.75,0.0070
3942.50,0.0071
3942.25,0.0071
3942.00,0.0072
3941.75,0.0072
3941.50,0.0073
3941.25,0.0073
3941.00,0.0074
3940.75,0.0075
3940.50,0.0075
3940.25,0.0075
3940.00,0.0074
3939.75,0.0072
3939.50,0.0070
3939.25,0.0069
3939.00,0.0069
3938.75,0.0070
3938.50,0.0071
3938.25,0.0072
3938.00,0.0072
3937.75,0.0072
3937.50,0.0072
3937.25,0.0071
3937.00,0.0071
3936.75,0.0070
3936.50,0.0070
3936.25,0.0070
3936.00,0.0070
3935.75,0.0069
3935.50,0.0069
3935.25,0.0069
3935.00,0.0069
3934.75,0.0070
3934.50,0.0071
3934.25,0.0072
3934.00,0.0073
3933.75,0.0073
3933.50,0.0074
3933.25,0.0074
3933.00,0.0074
3932.75,0.0074
3932.50,0.0074
3932.25,0.0074
3932.00,0.0074
3931.75,0.0074
3931.50,0.0074
3931.25,0.0074
3931.00,0.0074
3930.75,0.0074
3930.50,0.0073
3930.25,0.0073
3930.00,0.0072
3929.75,0.0071
3929.50,0.0071
3929.25,0.0071
3929.00,0.0071
3928.75,0.0071
3928.50,0.0072
3928.25,0.0072
3928.00,0.0072
3927.75,0.0072
3927.50,0.0072
3927.25,0.0072
3927.00,0.0071
3926.75,0.0070
3926.50,0.0070
3926.25,0.0069
3926.00,0.0069
3925.75,0.0070
3925.50,0.0071
3925.25,0.0072
3925.00,0.0073
3924.75,0.0072
3924.50,0.0071
3924.25,0.0068
3924.00,0.0067
3923.75,0.0066
3923.50,0.0066
3923.25,0.0068
3923.00,0.0069
3922.75,0.0071
3922.50,0.0073
3922.25,0.0074
3922.00,0.0076
3921.75,0.0076
3921.50,0.0076
3921.25,0.0074
3921.00,0.0073
3920.75,0.0072
3920.50,0.0071
3920.25,0.0072
3920.00,0.0073
3919.75,0.0073
3919.50,0.0072
3919.25,0.0071
3919.00,0.0071
3918.75,0.0071
3918.50,0.0071
3918.25,0.0071
3918.00,0.0071
3917.75,0.0071
3917.50,0.0071
3917.25,0.0071
3917.00,0.0071
3916.75,0.0071
3916.50,0.0072
3916.25,0.0073
3916.00,0.0074
3915.75,0.0075
3915.50,0.0076
3915.25,0.0076
3915.00,0.0075
3914.75,0.0074
3914.50,0.0073
3914.25,0.0073
3914.00,0.0072
3913.75,0.0072
3913.50,0.0072
3913.25,0.0071
3913.00,0.0070
3912.75,0.0069
3912.50,0.0068
3912.25,0.0068
3912.00,0.0069
3911.75,0.0070
3911.50,0.0070
3911.25,0.0070
3911.00,0.0070
3910.75,0.0069
3910.50,0.0069
3910.25,0.0068
3910.00,0.0067
3909.75,0.0066
3909.50,0.0066
3909.25,0.0067
3909.00,0.0069
3908.75,0.0072
3908.50,0.0074
3908.25,0.0075
3908.00,0.0076
3907.75,0.0075
3907.50,0.0074
3907.25,0.0073
3907.00,0.0072
3906.75,0.0072
3906.50,0.0072
3906.25,0.0072
3906.00,0.0073
3905.75,0.0073
3905.50,0.0073
3905.25,0.0072
3905.00,0.0071
3904.75,0.0069
3904.50,0.0066
3904.25,0.0064
3904.00,0.0061
3903.75,0.0061
3903.50,0.0061
3903.25,0.0063
3903.00,0.0066
3902.75,0.0069
3902.50,0.0071
3902.25,0.0073
3902.00,0.0073
3901.75,0.0071
3901.50,0.0068
3901.25,0.0066
3901.00,0.0066
3900.75,0.0068
3900.50,0.0070
3900.25,0.0073
3900.00,0.0075
3899.75,0.0075
3899.50,0.0073
3899.25,0.0071
3899.00,0.0069
3898.75,0.0068
3898.50,0.0069
3898.25,0.0070
3898.00,0.0070
3897.75,0.0071
3897.50,0.0072
3897.25,0.0073
3897.00,0.0074
3896.75,0.0074
3896.50,0.0074
3896.25,0.0074
3896.00,0.0075
3895.75,0.0076
3895.50,0.0076
3895.25,0.0076
3895.00,0.0074
3894.75,0.0072
3894.50,0.0071
3894.25,0.0069
3894.00,0.0069
3893.75,0.0069
3893.50,0.0070
3893.25,0.0071
3893.00,0.0072
3892.75,0.0074
3892.50,0.0075
3892.25,0.0077
3892.00,0.0077
3891.75,0.0077
3891.50,0.0075
3891.25,0.0073
3891.00,0.0070
3890.75,0.0068
3890.50,0.0066
3890.25,0.0066
3890.00,0.0067
3889.75,0.0068
3889.50,0.0071
3889.25,0.0073
3889.00,0.0074
3888.75,0.0074
3888.50,0.0074
3888.25,0.0074
3888.00,0.0073
3887.75,0.0072
3887.50,0.0071
3887.25,0.0071
3887.00,0.0071
3886.75,0.0072
3886.50,0.0073
3886.25,0.0074
3886.00,0.0073
3885.75,0.0070
3885.50,0.0066
3885.25,0.0064
3885.00,0.0065
3884.75,0.0068
3884.50,0.0071
3884.25,0.0073
3884.00,0.0074
3883.75,0.0074
3883.50,0.0074
3883.25,0.0074
3883.00,0.0074
3882.75,0.0074
3882.50,0.0074
3882.25,0.0074
3882.00,0.0074
3881.75,0.0074
3881.50,0.0074
3881.25,0.0073
3881.00,0.0072
3880.75,0.0071
3880.50,0.0069
3880.25,0.0069
3880.00,0.0068
3879.75,0.0067
3879.50,0.0066
3879.25,0.0066
3879.00,0.0066
3878.75,0.0067
3878.50,0.0068
3878.25,0.0069
3878.00,0.0069
3877.75,0.0070
3877.50,0.0070
3877.25,0.0070
3877.00,0.0070
3876.75,0.0069
3876.50,0.0069
3876.25,0.0069
3876.00,0.0069
3875.75,0.0071
3875.50,0.0072
3875.25,0.0072
3875.00,0.0071
3874.75,0.0069
3874.50,0.0066
3874.25,0.0064
3874.00,0.0063
3873.75,0.0065
3873.50,0.0067
3873.25,0.0070
3873.00,0.0072
3872.75,0.0073
3872.50,0.0073
3872.25,0.0073
3872.00,0.0074
3871.75,0.0074
3871.50,0.0074
3871.25,0.0074
3871.00,0.0073
3870.75,0.0072
3870.50,0.0072
3870.25,0.0072
3870.00,0.0073
3869.75,0.0073
3869.50,0.0072
3869.25,0.0071
3869.00,0.0069
3868.75,0.0068
3868.50,0.0066
3868.25,0.0065
3868.00,0.0065
3867.75,0.0065
3867.50,0.0066
3867.25,0.0067
3867.00,0.0068
3866.75,0.0069
3866.50,0.0069
3866.25,0.0070
3866.00,0.0070
3865.75,0.0070
3865.50,0.0070
3865.25,0.0070
3865.00,0.0069
3864.75,0.0067
3864.50,0.0066
3864.25,0.0065
3864.00,0.0066
3863.75,0.0068
3863.50,0.0070
3863.25,0.0072
3863.00,0.0072
3862.75,0.0073
3862.50,0.0073
3862.25,0.0072
3862.00,0.0071
3861.75,0.0071
3861.50,0.0071
3861.25,0.0071
3861.00,0.0070
3860.75,0.0069
3860.50,0.0068
3860.25,0.0067
3860.00,0.0067
3859.75,0.0068
3859.50,0.0068
3859.25,0.0068
3859.00,0.0069
3858.75,0.0069
3858.50,0.0070
3858.25,0.0070
3858.00,0.0070
3857.75,0.0069
3857.50,0.0067
3857.25,0.0067
3857.00,0.0068
3856.75,0.0070
3856.50,0.0071
3856.25,0.0072
3856.00,0.0072
3855.75,0.0071
3855.50,0.0070
3855.25,0.0070
3855.00,0.0070
3854.75,0.0069
3854.50,0.0066
3854.25,0.0064
3854.00,0.0070
3853.75,0.0076
3853.50,0.0077
3853.25,0.0075
3853.00,0.0072
3852.75,0.0069
3852.50,0.0067
3852.25,0.0065
3852.00,0.0065
3851.75,0.0065
3851.50,0.0065
3851.25,0.0066
3851.00,0.0066
3850.75,0.0066
3850.50,0.0067
3850.25,0.0069
3850.00,0.0071
3849.75,0.0072
3849.50,0.0073
3849.25,0.0072
3849.00,0.0071
3848.75,0.0070
3848.50,0.0069
3848.25,0.0070
3848.00,0.0071
3847.75,0.0071
3847.50,0.0072
3847.25,0.0072
3847.00,0.0072
3846.75,0.0071
3846.50,0.0072
3846.25,0.0073
3846.00,0.0074
3845.75,0.0075
3845.50,0.0075
3845.25,0.0075
3845.00,0.0073
3844.75,0.0072
3844.50,0.0071
3844.25,0.0070
3844.00,0.0070
3843.75,0.0070
3843.50,0.0071
3843.25,0.0070
3843.00,0.0069
3842.75,0.0068
3842.50,0.0068
3842.25,0.0069
3842.00,0.0071
3841.75,0.0072
3841.50,0.0072
3841.25,0.0070
3841.00,0.0068
3840.75,0.0065
3840.50,0.0064
3840.25,0.0064
3840.00,0.0066
3839.75,0.0068
3839.50,0.0070
3839.25,0.0070
3839.00,0.0070
3838.75,0.0069
3838.50,0.0067
3838.25,0.0066
3838.00,0.0066
3837.75,0.0069
3837.50,0.0072
3837.25,0.0071
3837.00,0.0070
3836.75,0.0068
3836.50,0.0067
3836.25,0.0067
3836.00,0.0067
3835.75,0.0066
3835.50,0.0066
3835.25,0.0064
3835.00,0.0064
3834.75,0.0065
3834.50,0.0065
3834.25,0.0066
3834.00,0.0067
3833.75,0.0067
3833.50,0.0067
3833.25,0.0068
3833.00,0.0068
3832.75,0.0069
3832.50,0.0068
3832.25,0.0067
3832.00,0.0066
3831.75,0.0067
3831.50,0.0071
3831.25,0.0076
3831.00,0.0078
3830.75,0.0077
3830.50,0.0075
3830.25,0.0072
3830.00,0.0071
3829.75,0.0070
3829.50,0.0070
3829.25,0.0071
3829.00,0.0071
3828.75,0.0071
3828.50,0.0071
3828.25,0.0072
3828.00,0.0072
3827.75,0.0072
3827.50,0.0072
3827.25,0.0071
3827.00,0.0071
3826.75,0.0072
3826.50,0.0072
3826.25,0.0071
3826.00,0.0070
3825.75,0.0068
3825.50,0.0068
3825.25,0.0069
3825.00,0.0070
3824.75,0.0072
3824.50,0.0074
3824.25,0.0075
3824.00,0.0075
3823.75,0.0075
3823.50,0.0075
3823.25,0.0074
3823.00,0.0073
3822.75,0.0071
3822.50,0.0069
3822.25,0.0066
3822.00,0.0064
3821.75,0.0062
3821.50,0.0062
3821.25,0.0061
3821.00,0.0060
3820.75,0.0058
3820.50,0.0059
3820.25,0.0063
3820.00,0.0066
3819.75,0.0069
3819.50,0.0070
3819.25,0.0070
3819.00,0.0071
3818.75,0.0071
3818.50,0.0072
3818.25,0.0072
3818.00,0.0072
3817.75,0.0072
3817.50,0.0073
3817.25,0.0074
3817.00,0.0075
3816.75,0.0076
3816.50,0.0075
3816.25,0.0074
3816.00,0.0073
3815.75,0.0073
3815.50,0.0072
3815.25,0.0070
3815.00,0.0068
3814.75,0.0067
3814.50,0.0066
3814.25,0.0068
3814.00,0.0070
3813.75,0.0071
3813.50,0.0073
3813.25,0.0074
3813.00,0.0074
3812.75,0.0075
3812.50,0.0076
3812.25,0.0076
3812.00,0.0075
3811.75,0.0074
3811.50,0.0073
3811.25,0.0072
3811.00,0.0071
3810.75,0.0071
3810.50,0.0071
3810.25,0.0070
3810.00,0.0070
3809.75,0.0070
3809.50,0.0070
3809.25,0.0071
3809.00,0.0072
3808.75,0.0072
3808.50,0.0071
3808.25,0.0071
3808.00,0.0071
3807.75,0.0072
3807.50,0.0072
3807.25,0.0074
3807.00,0.0075
3806.75,0.0075
3806.50,0.0071
3806.25,0.0068
3806.00,0.0066
3805.75,0.0066
3805.50,0.0066
3805.25,0.0068
3805.00,0.0069
3804.75,0.0070
3804.50,0.0070
3804.25,0.0070
3804.00,0.0069
3803.75,0.0068
3803.50,0.0067
3803.25,0.0067
3803.00,0.0068
3802.75,0.0071
3802.50,0.0072
3802.25,0.0071
3802.00,0.0070
3801.75,0.0067
3801.50,0.0067
3801.25,0.0071
3801.00,0.0075
3800.75,0.0076
3800.50,0.0075
3800.25,0.0073
3800.00,0.0072
3799.75,0.0070
3799.50,0.0069
3799.25,0.0069
3799.00,0.0069
3798.75,0.0070
3798.50,0.0071
3798.25,0.0072
3798.00,0.0073
3797.75,0.0074
3797.50,0.0074
3797.25,0.0073
3797.00,0.0072
3796.75,0.0070
3796.50,0.0070
3796.25,0.0071
3796.00,0.0072
3795.75,0.0072
3795.50,0.0072
3795.25,0.0072
3795.00,0.0072
3794.75,0.0072
3794.50,0.0072
3794.25,0.0072
3794.00,0.0071
3793.75,0.0071
3793.50,0.0070
3793.25,0.0070
3793.00,0.0069
3792.75,0.0069
3792.50,0.0070
3792.25,0.0072
3792.00,0.0073
3791.75,0.0073
3791.50,0.0073
3791.25,0.0071
3791.00,0.0070
3790.75,0.0069
3790.50,0.0069
3790.25,0.0068
3790.00,0.0068
3789.75,0.0068
3789.50,0.0068
3789.25,0.0068
3789.00,0.0068
3788.75,0.0068
3788.50,0.0068
3788.25,0.0070
3788.00,0.0072
3787.75,0.0074
3787.50,0.0075
3787.25,0.0075
3787.00,0.0075
3786.75,0.0074
3786.50,0.0075
3786.25,0.0076
3786.00,0.0077
3785.75,0.0077
3785.50,0.0077
3785.25,0.0076
3785.00,0.0074
3784.75,0.0073
3784.50,0.0072
3784.25,0.0072
3784.00,0.0071
3783.75,0.0071
3783.50,0.0071
3783.25,0.0070
3783.00,0.0070
3782.75,0.0070
3782.50,0.0071
3782.25,0.0072
3782.00,0.0073
3781.75,0.0074
3781.50,0.0074
3781.25,0.0073
3781.00,0.0072
3780.75,0.0072
3780.50,0.0072
3780.25,0.0071
3780.00,0.0070
3779.75,0.0068
3779.50,0.0067
3779.25,0.0067
3779.00,0.0067
3778.75,0.0069
3778.50,0.0070
3778.25,0.0072
3778.00,0.0073
3777.75,0.0073
3777.50,0.0073
3777.25,0.0073
3777.00,0.0072
3776.75,0.0072
3776.50,0.0072
3776.25,0.0072
3776.00,0.0071
3775.75,0.0071
3775.50,0.0071
3775.25,0.0070
3775.00,0.0071
3774.75,0.0071
3774.50,0.0071
3774.25,0.0071
3774.00,0.0070
3773.75,0.0070
3773.50,0.0070
3773.25,0.0071
3773.00,0.0072
3772.75,0.0073
3772.50,0.0073
3772.25,0.0073
3772.00,0.0074
3771.75,0.0074
3771.50,0.0075
3771.25,0.0075
3771.00,0.0074
3770.75,0.0072
3770.50,0.0071
3770.25,0.0069
3770.00,0.0069
3769.75,0.0071
3769.50,0.0072
3769.25,0.0073
3769.00,0.0073
3768.75,0.0072
3768.50,0.0071
3768.25,0.0071
3768.00,0.0071
3767.75,0.0071
3767.50,0.0072
3767.25,0.0073
3767.00,0.0075
3766.75,0.0076
3766.50,0.0076
3766.25,0.0075
3766.00,0.0075
3765.75,0.0075
3765.50,0.0075
3765.25,0.0074
3765.00,0.0073
3764.75,0.0072
3764.50,0.0073
3764.25,0.0073
3764.00,0.0074
3763.75,0.0075
3763.50,0.0076
3763.25,0.0077
3763.00,0.0077
3762.75,0.0076
3762.50,0.0073
3762.25,0.0071
3762.00,0.0069
3761.75,0.0068
3761.50,0.0069
3761.25,0.0070
3761.00,0.0071
3760.75,0.0071
3760.50,0.0069
3760.25,0.0066
3760.00,0.0063
3759.75,0.0060
3759.50,0.0061
3759.25,0.0063
3759.00,0.0067
3758.75,0.0071
3758.50,0.0073
3758.25,0.0074
3758.00,0.0075
3757.75,0.0075
3757.50,0.0075
3757.25,0.0076
3757.00,0.0076
3756.75,0.0076
3756.50,0.0074
3756.25,0.0072
3756.00,0.0070
3755.75,0.0069
3755.50,0.0071
3755.25,0.0074
3755.00,0.0076
3754.75,0.0077
3754.50,0.0077
3754.25,0.0075
3754.00,0.0074
3753.75,0.0073
3753.50,0.0073
3753.25,0.0074
3753.00,0.0075
3752.75,0.0075
3752.50,0.0074
3752.25,0.0071
3752.00,0.0069
3751.75,0.0067
3751.50,0.0067
3751.25,0.0067
3751.00,0.0067
3750.75,0.0067
3750.50,0.0069
3750.25,0.0073
3750.00,0.0077
3749.75,0.0080
3749.50,0.0082
3749.25,0.0079
3749.00,0.0073
3748.75,0.0070
3748.50,0.0069
3748.25,0.0069
3748.00,0.0069
3747.75,0.0070
3747.50,0.0071
3747.25,0.0072
3747.00,0.0072
3746.75,0.0072
3746.50,0.0072
3746.25,0.0072
3746.00,0.0072
3745.75,0.0073
3745.50,0.0074
3745.25,0.0074
3745.00,0.0071
3744.75,0.0066
3744.50,0.0066
3744.25,0.0064
3744.00,0.0062
3743.75,0.0064
3743.50,0.0067
3743.25,0.0068
3743.00,0.0070
3742.75,0.0072
3742.50,0.0073
3742.25,0.0072
3742.00,0.0071
3741.75,0.0070
3741.50,0.0069
3741.25,0.0071
3741.00,0.0073
3740.75,0.0075
3740.50,0.0076
3740.25,0.0075
3740.00,0.0074
3739.75,0.0073
3739.50,0.0073
3739.25,0.0073
3739.00,0.0073
3738.75,0.0074
3738.50,0.0075
3738.25,0.0076
3738.00,0.0077
3737.75,0.0077
3737.50,0.0077
3737.25,0.0077
3737.00,0.0077
3736.75,0.0078
3736.50,0.0080
3736.25,0.0080
3736.00,0.0078
3735.75,0.0075
3735.50,0.0070
3735.25,0.0065
3735.00,0.0063
3734.75,0.0063
3734.50,0.0064
3734.25,0.0065
3734.00,0.0066
3733.75,0.0068
3733.50,0.0069
3733.25,0.0071
3733.00,0.0072
3732.75,0.0074
3732.50,0.0076
3732.25,0.0078
3732.00,0.0079
3731.75,0.0077
3731.50,0.0073
3731.25,0.0071
3731.00,0.0070
3730.75,0.0070
3730.50,0.0071
3730.25,0.0071
3730.00,0.0071
3729.75,0.0071
3729.50,0.0070
3729.25,0.0069
3729.00,0.0069
3728.75,0.0069
3728.50,0.0069
3728.25,0.0070
3728.00,0.0071
3727.75,0.0072
3727.50,0.0072
3727.25,0.0072
3727.00,0.0070
3726.75,0.0069
3726.50,0.0069
3726.25,0.0070
3726.00,0.0071
3725.75,0.0071
3725.50,0.0071
3725.25,0.0070
3725.00,0.0071
3724.75,0.0072
3724.50,0.0072
3724.25,0.0073
3724.00,0.0073
3723.75,0.0073
3723.50,0.0073
3723.25,0.0074
3723.00,0.0074
3722.75,0.0074
3722.50,0.0072
3722.25,0.0070
3722.00,0.0068
3721.75,0.0067
3721.50,0.0067
3721.25,0.0068
3721.00,0.0069
3720.75,0.0070
3720.50,0.0071
3720.25,0.0072
3720.00,0.0072
3719.75,0.0070
3719.50,0.0069
3719.25,0.0068
3719.00,0.0067
3718.75,0.0066
3718.50,0.0065
3718.25,0.0065
3718.00,0.0066
3717.75,0.0068
3717.50,0.0071
3717.25,0.0073
3717.00,0.0074
3716.75,0.0074
3716.50,0.0074
3716.25,0.0075
3716.00,0.0077
3715.75,0.0078
3715.50,0.0078
3715.25,0.0078
3715.00,0.0077
3714.75,0.0076
3714.50,0.0074
3714.25,0.0072
3714.00,0.0069
3713.75,0.0069
3713.50,0.0070
3713.25,0.0072
3713.00,0.0075
3712.75,0.0077
3712.50,0.0078
3712.25,0.0080
3712.00,0.0081
3711.75,0.0079
3711.50,0.0075
3711.25,0.0073
3711.00,0.0071
3710.75,0.0071
3710.50,0.0070
3710.25,0.0070
3710.00,0.0068
3709.75,0.0067
3709.50,0.0067
3709.25,0.0068
3709.00,0.0068
3708.75,0.0067
3708.50,0.0066
3708.25,0.0067
3708.00,0.0069
3707.75,0.0072
3707.50,0.0074
3707.25,0.0076
3707.00,0.0075
3706.75,0.0074
3706.50,0.0073
3706.25,0.0073
3706.00,0.0074
3705.75,0.0075
3705.50,0.0077
3705.25,0.0077
3705.00,0.0076
3704.75,0.0074
3704.50,0.0072
3704.25,0.0071
3704.00,0.0071
3703.75,0.0071
3703.50,0.0072
3703.25,0.0072
3703.00,0.0072
3702.75,0.0072
3702.50,0.0071
3702.25,0.0070
3702.00,0.0067
3701.75,0.0065
3701.50,0.0063
3701.25,0.0063
3701.00,0.0066
3700.75,0.0070
3700.50,0.0074
3700.25,0.0076
3700.00,0.0077
3699.75,0.0076
3699.50,0.0075
3699.25,0.0073
3699.00,0.0073
3698.75,0.0074
3698.50,0.0075
3698.25,0.0075
3698.00,0.0074
3697.75,0.0073
3697.50,0.0071
3697.25,0.0070
3697.00,0.0069
3696.75,0.0070
3696.50,0.0070
3696.25,0.0070
3696.00,0.0069
3695.75,0.0068
3695.50,0.0068
3695.25,0.0068
3695.00,0.0069
3694.75,0.0070
3694.50,0.0071
3694.25,0.0073
3694.00,0.0074
3693.75,0.0076
3693.50,0.0077
3693.25,0.0077
3693.00,0.0076
3692.75,0.0074
3692.50,0.0071
3692.25,0.0069
3692.00,0.0066
3691.75,0.0064
3691.50,0.0062
3691.25,0.0062
3691.00,0.0064
3690.75,0.0066
3690.50,0.0066
3690.25,0.0067
3690.00,0.0067
3689.75,0.0068
3689.50,0.0069
3689.25,0.0070
3689.00,0.0070
3688.75,0.0069
3688.50,0.0069
3688.25,0.0069
3688.00,0.0069
3687.75,0.0069
3687.50,0.0069
3687.25,0.0070
3687.00,0.0072
3686.75,0.0073
3686.50,0.0073
3686.25,0.0073
3686.00,0.0071
3685.75,0.0070
3685.50,0.0070
3685.25,0.0070
3685.00,0.0071
3684.75,0.0072
3684.50,0.0073
3684.25,0.0074
3684.00,0.0075
3683.75,0.0076
3683.50,0.0076
3683.25,0.0076
3683.00,0.0076
3682.75,0.0077
3682.50,0.0077
3682.25,0.0076
3682.00,0.0076
3681.75,0.0075
3681.50,0.0074
3681.25,0.0074
3681.00,0.0074
3680.75,0.0074
3680.50,0.0074
3680.25,0.0072
3680.00,0.0070
3679.75,0.0067
3679.50,0.0066
3679.25,0.0065
3679.00,0.0065
3678.75,0.0065
3678.50,0.0064
3678.25,0.0064
3678.00,0.0064
3677.75,0.0065
3677.50,0.0068
3677.25,0.0070
3677.00,0.0073
3676.75,0.0074
3676.50,0.0074
3676.25,0.0073
3676.00,0.0073
3675.75,0.0076
3675.50,0.0078
3675.25,0.0076
3675.00,0.0072
3674.75,0.0067
3674.50,0.0065
3674.25,0.0066
3674.00,0.0067
3673.75,0.0068
3673.50,0.0069
3673.25,0.0069
3673.00,0.0070
3672.75,0.0069
3672.50,0.0068
3672.25,0.0067
3672.00,0.0066
3671.75,0.0067
3671.50,0.0069
3671.25,0.0070
3671.00,0.0072
3670.75,0.0075
3670.50,0.0078
3670.25,0.0080
3670.00,0.0080
3669.75,0.0078
3669.50,0.0075
3669.25,0.0072
3669.00,0.0070
3668.75,0.0068
3668.50,0.0066
3668.25,0.0064
3668.00,0.0065
3667.75,0.0066
3667.50,0.0068
3667.25,0.0070
3667.00,0.0072
3666.75,0.0074
3666.50,0.0075
3666.25,0.0075
3666.00,0.0074
3665.75,0.0074
3665.50,0.0074
3665.25,0.0075
3665.00,0.0076
3664.75,0.0077
3664.50,0.0077
3664.25,0.0077
3664.00,0.0077
3663.75,0.0076
3663.50,0.0074
3663.25,0.0072
3663.00,0.0070
3662.75,0.0069
3662.50,0.0067
3662.25,0.0067
3662.00,0.0067
3661.75,0.0069
3661.50,0.0071
3661.25,0.0073
3661.00,0.0074
3660.75,0.0075
3660.50,0.0076
3660.25,0.0076
3660.00,0.0077
3659.75,0.0077
3659.50,0.0076
3659.25,0.0076
3659.00,0.0075
3658.75,0.0076
3658.50,0.0076
3658.25,0.0076
3658.00,0.0076
3657.75,0.0076
3657.50,0.0076
3657.25,0.0077
3657.00,0.0076
3656.75,0.0075
3656.50,0.0072
3656.25,0.0069
3656.00,0.0067
3655.75,0.0068
3655.50,0.0070
3655.25,0.0073
3655.00,0.0074
3654.75,0.0074
3654.50,0.0072
3654.25,0.0071
3654.00,0.0069
3653.75,0.0069
3653.50,0.0070
3653.25,0.0071
3653.00,0.0073
3652.75,0.0073
3652.50,0.0072
3652.25,0.0071
3652.00,0.0070
3651.75,0.0070
3651.50,0.0070
3651.25,0.0070
3651.00,0.0069
3650.75,0.0067
3650.50,0.0067
3650.25,0.0068
3650.00,0.0071
3649.75,0.0071
3649.50,0.0069
3649.25,0.0067
3649.00,0.0066
3648.75,0.0068
3648.50,0.0071
3648.25,0.0073
3648.00,0.0073
3647.75,0.0073
3647.50,0.0073
3647.25,0.0074
3647.00,0.0074
3646.75,0.0073
3646.50,0.0073
3646.25,0.0073
3646.00,0.0072
3645.75,0.0072
3645.50,0.0073
3645.25,0.0073
3645.00,0.0074
3644.75,0.0075
3644.50,0.0076
3644.25,0.0077
3644.00,0.0076
3643.75,0.0075
3643.50,0.0073
3643.25,0.0071
3643.00,0.0069
3642.75,0.0070
3642.50,0.0071
3642.25,0.0073
3642.00,0.0074
3641.75,0.0074
3641.50,0.0074
3641.25,0.0073
3641.00,0.0072
3640.75,0.0072
3640.50,0.0072
3640.25,0.0073
3640.00,0.0074
3639.75,0.0075
3639.50,0.0075
3639.25,0.0075
3639.00,0.0074
3638.75,0.0072
3638.50,0.0072
3638.25,0.0073
3638.00,0.0074
3637.75,0.0075
3637.50,0.0075
3637.25,0.0073
3637.00,0.0071
3636.75,0.0070
3636.50,0.0069
3636.25,0.0070
3636.00,0.0072
3635.75,0.0073
3635.50,0.0074
3635.25,0.0074
3635.00,0.0074
3634.75,0.0074
3634.50,0.0074
3634.25,0.0076
3634.00,0.0079
3633.75,0.0082
3633.50,0.0083
3633.25,0.0082
3633.00,0.0079
3632.75,0.0078
3632.50,0.0077
3632.25,0.0077
3632.00,0.0077
3631.75,0.0077
3631.50,0.0077
3631.25,0.0077
3631.00,0.0077
3630.75,0.0078
3630.50,0.0079
3630.25,0.0079
3630.00,0.0078
3629.75,0.0075
3629.50,0.0073
3629.25,0.0069
3629.00,0.0064
3628.75,0.0060
3628.50,0.0057
3628.25,0.0057
3628.00,0.0062
3627.75,0.0068
3627.50,0.0073
3627.25,0.0076
3627.00,0.0077
3626.75,0.0078
3626.50,0.0078
3626.25,0.0078
3626.00,0.0077
3625.75,0.0076
3625.50,0.0075
3625.25,0.0073
3625.00,0.0073
3624.75,0.0073
3624.50,0.0074
3624.25,0.0075
3624.00,0.0077
3623.75,0.0078
3623.50,0.0078
3623.25,0.0078
3623.00,0.0076
3622.75,0.0074
3622.50,0.0073
3622.25,0.0073
3622.00,0.0074
3621.75,0.0075
3621.50,0.0075
3621.25,0.0075
3621.00,0.0073
3620.75,0.0071
3620.50,0.0070
3620.25,0.0068
3620.00,0.0067
3619.75,0.0066
3619.50,0.0068
3619.25,0.0073
3619.00,0.0077
3618.75,0.0080
3618.50,0.0081
3618.25,0.0082
3618.00,0.0082
3617.75,0.0082
3617.50,0.0081
3617.25,0.0079
3617.00,0.0076
3616.75,0.0074
3616.50,0.0072
3616.25,0.0071
3616.00,0.0072
3615.75,0.0074
3615.50,0.0077
3615.25,0.0078
3615.00,0.0078
3614.75,0.0076
3614.50,0.0074
3614.25,0.0073
3614.00,0.0073
3613.75,0.0075
3613.50,0.0077
3613.25,0.0077
3613.00,0.0077
3612.75,0.0076
3612.50,0.0075
3612.25,0.0074
3612.00,0.0072
3611.75,0.0071
3611.50,0.0070
3611.25,0.0071
3611.00,0.0071
3610.75,0.0072
3610.50,0.0073
3610.25,0.0073
3610.00,0.0073
3609.75,0.0072
3609.50,0.0071
3609.25,0.0071
3609.00,0.0074
3608.75,0.0077
3608.50,0.0078
3608.25,0.0078
3608.00,0.0077
3607.75,0.0077
3607.50,0.0078
3607.25,0.0079
3607.00,0.0080
3606.75,0.0079
3606.50,0.0076
3606.25,0.0073
3606.00,0.0072
3605.75,0.0072
3605.50,0.0074
3605.25,0.0076
3605.00,0.0077
3604.75,0.0076
3604.50,0.0074
3604.25,0.0072
3604.00,0.0070
3603.75,0.0069
3603.50,0.0069
3603.25,0.0070
3603.00,0.0071
3602.75,0.0073
3602.50,0.0074
3602.25,0.0075
3602.00,0.0075
3601.75,0.0074
3601.50,0.0074
3601.25,0.0075
3601.00,0.0076
3600.75,0.0078
3600.50,0.0078
3600.25,0.0078
3600.00,0.0078
3599.75,0.0079
3599.50,0.0080
3599.25,0.0081
3599.00,0.0081
3598.75,0.0081
3598.50,0.0079
3598.25,0.0076
3598.00,0.0073
3597.75,0.0071
3597.50,0.0070
3597.25,0.0071
3597.00,0.0073
3596.75,0.0076
3596.50,0.0077
3596.25,0.0078
3596.00,0.0076
3595.75,0.0075
3595.50,0.0074
3595.25,0.0074
3595.00,0.0075
3594.75,0.0075
3594.50,0.0075
3594.25,0.0075
3594.00,0.0074
3593.75,0.0074
3593.50,0.0073
3593.25,0.0073
3593.00,0.0073
3592.75,0.0073
3592.50,0.0073
3592.25,0.0074
3592.00,0.0074
3591.75,0.0074
3591.50,0.0074
3591.25,0.0073
3591.00,0.0073
3590.75,0.0074
3590.50,0.0075
3590.25,0.0077
3590.00,0.0079
3589.75,0.0080
3589.50,0.0081
3589.25,0.0080
3589.00,0.0079
3588.75,0.0078
3588.50,0.0076
3588.25,0.0074
3588.00,0.0073
3587.75,0.0073
3587.50,0.0073
3587.25,0.0073
3587.00,0.0074
3586.75,0.0074
3586.50,0.0072
3586.25,0.0071
3586.00,0.0072
3585.75,0.0074
3585.50,0.0076
3585.25,0.0076
3585.00,0.0076
3584.75,0.0074
3584.50,0.0073
3584.25,0.0073
3584.00,0.0075
3583.75,0.0077
3583.50,0.0080
3583.25,0.0080
3583.00,0.0079
3582.75,0.0078
3582.50,0.0076
3582.25,0.0076
3582.00,0.0075
3581.75,0.0076
3581.50,0.0076
3581.25,0.0076
3581.00,0.0076
3580.75,0.0076
3580.50,0.0076
3580.25,0.0076
3580.00,0.0076
3579.75,0.0076
3579.50,0.0075
3579.25,0.0075
3579.00,0.0075
3578.75,0.0074
3578.50,0.0074
3578.25,0.0074
3578.00,0.0075
3577.75,0.0075
3577.50,0.0076
3577.25,0.0077
3577.00,0.0078
3576.75,0.0078
3576.50,0.0076
3576.25,0.0075
3576.00,0.0074
3575.75,0.0074
3575.50,0.0074
3575.25,0.0074
3575.00,0.0074
3574.75,0.0075
3574.50,0.0077
3574.25,0.0079
3574.00,0.0080
3573.75,0.0080
3573.50,0.0079
3573.25,0.0078
3573.00,0.0077
3572.75,0.0076
3572.50,0.0075
3572.25,0.0074
3572.00,0.0073
3571.75,0.0072
3571.50,0.0073
3571.25,0.0074
3571.00,0.0076
3570.75,0.0078
3570.50,0.0079
3570.25,0.0079
3570.00,0.0078
3569.75,0.0077
3569.50,0.0076
3569.25,0.0074
3569.00,0.0073
3568.75,0.0072
3568.50,0.0072
3568.25,0.0073
3568.00,0.0075
3567.75,0.0076
3567.50,0.0076
3567.25,0.0077
3567.00,0.0077
3566.75,0.0079
3566.50,0.0080
3566.25,0.0082
3566.00,0.0082
3565.75,0.0080
3565.50,0.0078
3565.25,0.0076
3565.00,0.0075
3564.75,0.0075
3564.50,0.0076
3564.25,0.0077
3564.00,0.0078
3563.75,0.0080
3563.50,0.0080
3563.25,0.0080
3563.00,0.0079
3562.75,0.0077
3562.50,0.0077
3562.25,0.0077
3562.00,0.0077
3561.75,0.0076
3561.50,0.0076
3561.25,0.0077
3561.00,0.0078
3560.75,0.0079
3560.50,0.0079
3560.25,0.0079
3560.00,0.0079
3559.75,0.0078
3559.50,0.0078
3559.25,0.0078
3559.00,0.0078
3558.75,0.0077
3558.50,0.0077
3558.25,0.0077
3558.00,0.0076
3557.75,0.0076
3557.50,0.0075
3557.25,0.0075
3557.00,0.0075
3556.75,0.0075
3556.50,0.0075
3556.25,0.0074
3556.00,0.0074
3555.75,0.0073
3555.50,0.0073
3555.25,0.0073
3555.00,0.0073
3554.75,0.0073
3554.50,0.0074
3554.25,0.0075
3554.00,0.0076
3553.75,0.0077
3553.50,0.0077
3553.25,0.0076
3553.00,0.0075
3552.75,0.0074
3552.50,0.0073
3552.25,0.0073
3552.00,0.0074
3551.75,0.0075
3551.50,0.0076
3551.25,0.0077
3551.00,0.0078
3550.75,0.0078
3550.50,0.0077
3550.25,0.0076
3550.00,0.0076
3549.75,0.0075
3549.50,0.0076
3549.25,0.0076
3549.00,0.0076
3548.75,0.0076
3548.50,0.0076
3548.25,0.0077
3548.00,0.0078
3547.75,0.0079
3547.50,0.0079
3547.25,0.0077
3547.00,0.0075
3546.75,0.0073
3546.50,0.0073
3546.25,0.0074
3546.00,0.0076
3545.75,0.0078
3545.50,0.0078
3545.25,0.0078
3545.00,0.0076
3544.75,0.0075
3544.50,0.0074
3544.25,0.0075
3544.00,0.0077
3543.75,0.0079
3543.50,0.0080
3543.25,0.0079
3543.00,0.0078
3542.75,0.0076
3542.50,0.0074
3542.25,0.0073
3542.00,0.0073
3541.75,0.0074
3541.50,0.0074
3541.25,0.0074
3541.00,0.0074
3540.75,0.0075
3540.50,0.0076
3540.25,0.0077
3540.00,0.0077
3539.75,0.0077
3539.50,0.0076
3539.25,0.0076
3539.00,0.0077
3538.75,0.0077
3538.50,0.0076
3538.25,0.0075
3538.00,0.0075
3537.75,0.0074
3537.50,0.0074
3537.25,0.0075
3537.00,0.0075
3536.75,0.0075
3536.50,0.0075
3536.25,0.0074
3536.00,0.0073
3535.75,0.0072
3535.50,0.0072
3535.25,0.0072
3535.00,0.0073
3534.75,0.0074
3534.50,0.0075
3534.25,0.0076
3534.00,0.0077
3533.75,0.0077
3533.50,0.0076
3533.25,0.0077
3533.00,0.0078
3532.75,0.0080
3532.50,0.0081
3532.25,0.0082
3532.00,0.0081
3531.75,0.0079
3531.50,0.0078
3531.25,0.0077
3531.00,0.0076
3530.75,0.0076
3530.50,0.0076
3530.25,0.0076
3530.00,0.0076
3529.75,0.0076
3529.50,0.0076
3529.25,0.0075
3529.00,0.0074
3528.75,0.0073
3528.50,0.0071
3528.25,0.0070
3528.00,0.0070
3527.75,0.0071
3527.50,0.0073
3527.25,0.0075
3527.00,0.0076
3526.75,0.0077
3526.50,0.0078
3526.25,0.0078
3526.00,0.0079
3525.75,0.0080
3525.50,0.0080
3525.25,0.0079
3525.00,0.0078
3524.75,0.0078
3524.50,0.0078
3524.25,0.0079
3524.00,0.0081
3523.75,0.0082
3523.50,0.0082
3523.25,0.0082
3523.00,0.0082
3522.75,0.0082
3522.50,0.0081
3522.25,0.0081
3522.00,0.0079
3521.75,0.0078
3521.50,0.0078
3521.25,0.0078
3521.00,0.0078
3520.75,0.0078
3520.50,0.0077
3520.25,0.0076
3520.00,0.0074
3519.75,0.0072
3519.50,0.0071
3519.25,0.0071
3519.00,0.0072
3518.75,0.0074
3518.50,0.0076
3518.25,0.0077
3518.00,0.0078
3517.75,0.0077
3517.50,0.0076
3517.25,0.0074
3517.00,0.0073
3516.75,0.0073
3516.50,0.0072
3516.25,0.0073
3516.00,0.0073
3515.75,0.0074
3515.50,0.0075
3515.25,0.0076
3515.00,0.0077
3514.75,0.0078
3514.50,0.0079
3514.25,0.0080
3514.00,0.0080
3513.75,0.0080
3513.50,0.0078
3513.25,0.0077
3513.00,0.0077
3512.75,0.0077
3512.50,0.0078
3512.25,0.0079
3512.00,0.0079
3511.75,0.0078
3511.50,0.0078
3511.25,0.0076
3511.00,0.0075
3510.75,0.0073
3510.50,0.0072
3510.25,0.0071
3510.00,0.0072
3509.75,0.0073
3509.50,0.0075
3509.25,0.0076
3509.00,0.0076
3508.75,0.0075
3508.50,0.0075
3508.25,0.0076
3508.00,0.0077
3507.75,0.0080
3507.50,0.0083
3507.25,0.0085
3507.00,0.0086
3506.75,0.0085
3506.50,0.0082
3506.25,0.0079
3506.00,0.0075
3505.75,0.0073
3505.50,0.0072
3505.25,0.0073
3505.00,0.0075
3504.75,0.0078
3504.50,0.0080
3504.25,0.0081
3504.00,0.0080
3503.75,0.0078
3503.50,0.0076
3503.25,0.0075
3503.00,0.0074
3502.75,0.0074
3502.50,0.0075
3502.25,0.0075
3502.00,0.0076
3501.75,0.0077
3501.50,0.0077
3501.25,0.0077
3501.00,0.0076
3500.75,0.0075
3500.50,0.0075
3500.25,0.0075
3500.00,0.0075
3499.75,0.0076
3499.50,0.0077
3499.25,0.0078
3499.00,0.0079
3498.75,0.0080
3498.50,0.0080
3498.25,0.0079
3498.00,0.0077
3497.75,0.0076
3497.50,0.0074
3497.25,0.0073
3497.00,0.0072
3496.75,0.0072
3496.50,0.0072
3496.25,0.0073
3496.00,0.0075
3495.75,0.0077
3495.50,0.0078
3495.25,0.0079
3495.00,0.0079
3494.75,0.0078
3494.50,0.0076
3494.25,0.0075
3494.00,0.0075
3493.75,0.0075
3493.50,0.0077
3493.25,0.0078
3493.00,0.0078
3492.75,0.0078
3492.50,0.0077
3492.25,0.0077
3492.00,0.0077
3491.75,0.0077
3491.50,0.0077
3491.25,0.0076
3491.00,0.0076
3490.75,0.0075
3490.50,0.0075
3490.25,0.0074
3490.00,0.0073
3489.75,0.0072
3489.50,0.0071
3489.25,0.0070
3489.00,0.0071
3488.75,0.0073
3488.50,0.0075
3488.25,0.0076
3488.00,0.0077
3487.75,0.0078
3487.50,0.0077
3487.25,0.0077
3487.00,0.0076
3486.75,0.0075
3486.50,0.0074
3486.25,0.0074
3486.00,0.0076
3485.75,0.0077
3485.50,0.0079
3485.25,0.0080
3485.00,0.0080
3484.75,0.0081
3484.50,0.0081
3484.25,0.0081
3484.00,0.0080
3483.75,0.0079
3483.50,0.0077
3483.25,0.0077
3483.00,0.0077
3482.75,0.0077
3482.50,0.0077
3482.25,0.0076
3482.00,0.0075
3481.75,0.0074
3481.50,0.0073
3481.25,0.0073
3481.00,0.0074
3480.75,0.0075
3480.50,0.0076
3480.25,0.0078
3480.00,0.0078
3479.75,0.0078
3479.50,0.0078
3479.25,0.0078
3479.00,0.0078
3478.75,0.0079
3478.50,0.0080
3478.25,0.0080
3478.00,0.0080
3477.75,0.0080
3477.50,0.0080
3477.25,0.0080
3477.00,0.0079
3476.75,0.0079
3476.50,0.0078
3476.25,0.0078
3476.00,0.0077
3475.75,0.0076
3475.50,0.0075
3475.25,0.0074
3475.00,0.0074
3474.75,0.0074
3474.50,0.0075
3474.25,0.0075
3474.00,0.0076
3473.75,0.0076
3473.50,0.0077
3473.25,0.0078
3473.00,0.0078
3472.75,0.0078
3472.50,0.0078
3472.25,0.0078
3472.00,0.0078
3471.75,0.0079
3471.50,0.0080
3471.25,0.0080
3471.00,0.0080
3470.75,0.0079
3470.50,0.0078
3470.25,0.0076
3470.00,0.0075
3469.75,0.0073
3469.50,0.0072
3469.25,0.0072
3469.00,0.0072
3468.75,0.0073
3468.50,0.0073
3468.25,0.0074
3468.00,0.0075
3467.75,0.0076
3467.50,0.0077
3467.25,0.0078
3467.00,0.0079
3466.75,0.0079
3466.50,0.0079
3466.25,0.0079
3466.00,0.0080
3465.75,0.0080
3465.50,0.0080
3465.25,0.0079
3465.00,0.0077
3464.75,0.0073
3464.50,0.0071
3464.25,0.0070
3464.00,0.0072
3463.75,0.0075
3463.50,0.0077
3463.25,0.0079
3463.00,0.0080
3462.75,0.0079
3462.50,0.0078
3462.25,0.0077
3462.00,0.0077
3461.75,0.0078
3461.50,0.0080
3461.25,0.0082
3461.00,0.0083
3460.75,0.0083
3460.50,0.0082
3460.25,0.0080
3460.00,0.0078
3459.75,0.0077
3459.50,0.0077
3459.25,0.0077
3459.00,0.0077
3458.75,0.0076
3458.50,0.0075
3458.25,0.0074
3458.00,0.0074
3457.75,0.0075
3457.50,0.0077
3457.25,0.0078
3457.00,0.0078
3456.75,0.0078
3456.50,0.0077
3456.25,0.0075
3456.00,0.0074
3455.75,0.0072
3455.50,0.0070
3455.25,0.0069
3455.00,0.0069
3454.75,0.0070
3454.50,0.0072
3454.25,0.0074
3454.00,0.0075
3453.75,0.0076
3453.50,0.0076
3453.25,0.0076
3453.00,0.0076
3452.75,0.0075
3452.50,0.0074
3452.25,0.0073
3452.00,0.0073
3451.75,0.0073
3451.50,0.0074
3451.25,0.0075
3451.00,0.0076
3450.75,0.0077
3450.50,0.0077
3450.25,0.0078
3450.00,0.0079
3449.75,0.0080
3449.50,0.0080
3449.25,0.0079
3449.00,0.0079
3448.75,0.0077
3448.50,0.0077
3448.25,0.0077
3448.00,0.0077
3447.75,0.0078
3447.50,0.0079
3447.25,0.0081
3447.00,0.0083
3446.75,0.0083
3446.50,0.0083
3446.25,0.0081
3446.00,0.0079
3445.75,0.0077
3445.50,0.0077
3445.25,0.0076
3445.00,0.0076
3444.75,0.0077
3444.50,0.0078
3444.25,0.0079
3444.00,0.0081
3443.75,0.0081
3443.50,0.0080
3443.25,0.0079
3443.00,0.0077
3442.75,0.0076
3442.50,0.0076
3442.25,0.0076
3442.00,0.0076
3441.75,0.0077
3441.50,0.0076
3441.25,0.0075
3441.00,0.0074
3440.75,0.0073
3440.50,0.0072
3440.25,0.0073
3440.00,0.0074
3439.75,0.0075
3439.50,0.0076
3439.25,0.0077
3439.00,0.0077
3438.75,0.0077
3438.50,0.0077
3438.25,0.0077
3438.00,0.0078
3437.75,0.0079
3437.50,0.0079
3437.25,0.0078
3437.00,0.0078
3436.75,0.0078
3436.50,0.0078
3436.25,0.0078
3436.00,0.0078
3435.75,0.0077
3435.50,0.0076
3435.25,0.0076
3435.00,0.0076
3434.75,0.0076
3434.50,0.0076
3434.25,0.0074
3434.00,0.0074
3433.75,0.0074
3433.50,0.0074
3433.25,0.0075
3433.00,0.0076
3432.75,0.0076
3432.50,0.0076
3432.25,0.0076
3432.00,0.0076
3431.75,0.0077
3431.50,0.0078
3431.25,0.0079
3431.00,0.0079
3430.75,0.0080
3430.50,0.0079
3430.25,0.0077
3430.00,0.0075
3429.75,0.0074
3429.50,0.0075
3429.25,0.0076
3429.00,0.0077
3428.75,0.0078
3428.50,0.0077
3428.25,0.0076
3428.00,0.0074
3427.75,0.0074
3427.50,0.0074
3427.25,0.0074
3427.00,0.0076
3426.75,0.0077
3426.50,0.0078
3426.25,0.0080
3426.00,0.0080
3425.75,0.0080
3425.50,0.0079
3425.25,0.0078
3425.00,0.0077
3424.75,0.0076
3424.50,0.0075
3424.25,0.0075
3424.00,0.0075
3423.75,0.0075
3423.50,0.0077
3423.25,0.0078
3423.00,0.0080
3422.75,0.0081
3422.50,0.0081
3422.25,0.0079
3422.00,0.0078
3421.75,0.0076
3421.50,0.0074
3421.25,0.0074
3421.00,0.0074
3420.75,0.0075
3420.50,0.0076
3420.25,0.0077
3420.00,0.0078
3419.75,0.0077
3419.50,0.0076
3419.25,0.0075
3419.00,0.0075
3418.75,0.0075
3418.50,0.0074
3418.25,0.0074
3418.00,0.0074
3417.75,0.0074
3417.50,0.0075
3417.25,0.0076
3417.00,0.0078
3416.75,0.0079
3416.50,0.0080
3416.25,0.0080
3416.00,0.0079
3415.75,0.0078
3415.50,0.0078
3415.25,0.0078
3415.00,0.0077
3414.75,0.0077
3414.50,0.0076
3414.25,0.0075
3414.00,0.0074
3413.75,0.0075
3413.50,0.0076
3413.25,0.0078
3413.00,0.0079
3412.75,0.0079
3412.50,0.0078
3412.25,0.0076
3412.00,0.0074
3411.75,0.0074
3411.50,0.0075
3411.25,0.0076
3411.00,0.0078
3410.75,0.0079
3410.50,0.0080
3410.25,0.0080
3410.00,0.0080
3409.75,0.0080
3409.50,0.0080
3409.25,0.0079
3409.00,0.0078
3408.75,0.0077
3408.50,0.0075
3408.25,0.0075
3408.00,0.0074
3407.75,0.0074
3407.50,0.0074
3407.25,0.0075
3407.00,0.0075
3406.75,0.0075
3406.50,0.0076
3406.25,0.0076
3406.00,0.0077
3405.75,0.0077
3405.50,0.0077
3405.25,0.0077
3405.00,0.0078
3404.75,0.0078
3404.50,0.0079
3404.25,0.0079
3404.00,0.0079
3403.75,0.0078
3403.50,0.0078
3403.25,0.0078
3403.00,0.0077
3402.75,0.0076
3402.50,0.0075
3402.25,0.0074
3402.00,0.0074
3401.75,0.0075
3401.50,0.0076
3401.25,0.0077
3401.00,0.0078
3400.75,0.0078
3400.50,0.0077
3400.25,0.0075
3400.00,0.0074
3399.75,0.0073
3399.50,0.0073
3399.25,0.0073
3399.00,0.0075
3398.75,0.0076
3398.50,0.0077
3398.25,0.0077
3398.00,0.0078
3397.75,0.0079
3397.50,0.0080
3397.25,0.0080
3397.00,0.0080
3396.75,0.0081
3396.50,0.0081
3396.25,0.0082
3396.00,0.0082
3395.75,0.0082
3395.50,0.0081
3395.25,0.0080
3395.00,0.0079
3394.75,0.0079
3394.50,0.0079
3394.25,0.0079
3394.00,0.0079
3393.75,0.0079
3393.50,0.0078
3393.25,0.0078
3393.00,0.0078
3392.75,0.0077
3392.50,0.0077
3392.25,0.0077
3392.00,0.0077
3391.75,0.0077
3391.50,0.0077
3391.25,0.0077
3391.00,0.0077
3390.75,0.0075
3390.50,0.0074
3390.25,0.0074
3390.00,0.0076
3389.75,0.0077
3389.50,0.0079
3389.25,0.0081
3389.00,0.0081
3388.75,0.0081
3388.50,0.0081
3388.25,0.0081
3388.00,0.0081
3387.75,0.0081
3387.50,0.0080
3387.25,0.0080
3387.00,0.0080
3386.75,0.0080
3386.50,0.0080
3386.25,0.0080
3386.00,0.0080
3385.75,0.0080
3385.50,0.0080
3385.25,0.0080
3385.00,0.0080
3384.75,0.0080
3384.50,0.0079
3384.25,0.0078
3384.00,0.0076
3383.75,0.0074
3383.50,0.0072
3383.25,0.0071
3383.00,0.0071
3382.75,0.0072
3382.50,0.0074
3382.25,0.0075
3382.00,0.0076
3381.75,0.0076
3381.50,0.0077
3381.25,0.0077
3381.00,0.0078
3380.75,0.0079
3380.50,0.0079
3380.25,0.0079
3380.00,0.0078
3379.75,0.0077
3379.50,0.0076
3379.25,0.0075
3379.00,0.0075
3378.75,0.0076
3378.50,0.0078
3378.25,0.0079
3378.00,0.0080
3377.75,0.0080
3377.50,0.0080
3377.25,0.0080
3377.00,0.0079
3376.75,0.0079
3376.50,0.0080
3376.25,0.0081
3376.00,0.0082
3375.75,0.0081
3375.50,0.0080
3375.25,0.0077
3375.00,0.0076
3374.75,0.0074
3374.50,0.0074
3374.25,0.0073
3374.00,0.0072
3373.75,0.0072
3373.50,0.0071
3373.25,0.0071
3373.00,0.0072
3372.75,0.0074
3372.50,0.0076
3372.25,0.0078
3372.00,0.0079
3371.75,0.0079
3371.50,0.0079
3371.25,0.0078
3371.00,0.0076
3370.75,0.0075
3370.50,0.0075
3370.25,0.0075
3370.00,0.0076
3369.75,0.0076
3369.50,0.0077
3369.25,0.0077
3369.00,0.0077
3368.75,0.0077
3368.50,0.0076
3368.25,0.0076
3368.00,0.0076
3367.75,0.0078
3367.50,0.0079
3367.25,0.0081
3367.00,0.0081
3366.75,0.0081
3366.50,0.0080
3366.25,0.0079
3366.00,0.0079
3365.75,0.0079
3365.50,0.0079
3365.25,0.0077
3365.00,0.0076
3364.75,0.0074
3364.50,0.0074
3364.25,0.0076
3364.00,0.0077
3363.75,0.0078
3363.50,0.0079
3363.25,0.0079
3363.00,0.0079
3362.75,0.0079
3362.50,0.0080
3362.25,0.0080
3362.00,0.0080
3361.75,0.0080
3361.50,0.0080
3361.25,0.0079
3361.00,0.0079
3360.75,0.0078
3360.50,0.0078
3360.25,0.0079
3360.00,0.0079
3359.75,0.0079
3359.50,0.0078
3359.25,0.0076
3359.00,0.0075
3358.75,0.0076
3358.50,0.0078
3358.25,0.0080
3358.00,0.0082
3357.75,0.0082
3357.50,0.0081
3357.25,0.0079
3357.00,0.0078
3356.75,0.0077
3356.50,0.0078
3356.25,0.0079
3356.00,0.0081
3355.75,0.0083
3355.50,0.0083
3355.25,0.0082
3355.00,0.0081
3354.75,0.0079
3354.50,0.0078
3354.25,0.0077
3354.00,0.0076
3353.75,0.0075
3353.50,0.0074
3353.25,0.0074
3353.00,0.0075
3352.75,0.0075
3352.50,0.0075
3352.25,0.0076
3352.00,0.0077
3351.75,0.0077
3351.50,0.0078
3351.25,0.0079
3351.00,0.0079
3350.75,0.0078
3350.50,0.0078
3350.25,0.0077
3350.00,0.0078
3349.75,0.0079
3349.50,0.0080
3349.25,0.0081
3349.00,0.0081
3348.75,0.0080
3348.50,0.0079
3348.25,0.0077
3348.00,0.0076
3347.75,0.0075
3347.50,0.0074
3347.25,0.0073
3347.00,0.0072
3346.75,0.0071
3346.50,0.0071
3346.25,0.0072
3346.00,0.0073
3345.75,0.0075
3345.50,0.0077
3345.25,0.0078
3345.00,0.0079
3344.75,0.0080
3344.50,0.0080
3344.25,0.0079
3344.00,0.0078
3343.75,0.0077
3343.50,0.0077
3343.25,0.0077
3343.00,0.0079
3342.75,0.0080
3342.50,0.0081
3342.25,0.0081
3342.00,0.0080
3341.75,0.0079
3341.50,0.0077
3341.25,0.0076
3341.00,0.0075
3340.75,0.0075
3340.50,0.0075
3340.25,0.0076
3340.00,0.0078
3339.75,0.0079
3339.50,0.0080
3339.25,0.0081
3339.00,0.0081
3338.75,0.0080
3338.50,0.0079
3338.25,0.0078
3338.00,0.0078
3337.75,0.0078
3337.50,0.0079
3337.25,0.0079
3337.00,0.0079
3336.75,0.0079
3336.50,0.0078
3336.25,0.0079
3336.00,0.0079
3335.75,0.0080
3335.50,0.0080
3335.25,0.0079
3335.00,0.0078
3334.75,0.0078
3334.50,0.0078
3334.25,0.0078
3334.00,0.0079
3333.75,0.0079
3333.50,0.0079
3333.25,0.0078
3333.00,0.0078
3332.75,0.0077
3332.50,0.0077
3332.25,0.0078
3332.00,0.0077
3331.75,0.0076
3331.50,0.0075
3331.25,0.0074
3331.00,0.0073
3330.75,0.0073
3330.50,0.0073
3330.25,0.0073
3330.00,0.0073
3329.75,0.0074
3329.50,0.0075
3329.25,0.0076
3329.00,0.0076
3328.75,0.0077
3328.50,0.0078
3328.25,0.0078
3328.00,0.0078
3327.75,0.0077
3327.50,0.0077
3327.25,0.0077
3327.00,0.0078
3326.75,0.0079
3326.50,0.0079
3326.25,0.0079
3326.00,0.0079
3325.75,0.0078
3325.50,0.0077
3325.25,0.0076
3325.00,0.0076
3324.75,0.0077
3324.50,0.0079
3324.25,0.0080
3324.00,0.0081
3323.75,0.0081
3323.50,0.0079
3323.25,0.0078
3323.00,0.0075
3322.75,0.0074
3322.50,0.0073
3322.25,0.0073
3322.00,0.0074
3321.75,0.0075
3321.50,0.0076
3321.25,0.0076
3321.00,0.0076
3320.75,0.0077
3320.50,0.0077
3320.25,0.0077
3320.00,0.0077
3319.75,0.0077
3319.50,0.0077
3319.25,0.0078
3319.00,0.0079
3318.75,0.0079
3318.50,0.0078
3318.25,0.0078
3318.00,0.0077
3317.75,0.0077
3317.50,0.0077
3317.25,0.0076
3317.00,0.0075
3316.75,0.0074
3316.50,0.0074
3316.25,0.0074
3316.00,0.0075
3315.75,0.0076
3315.50,0.0076
3315.25,0.0077
3315.00,0.0077
3314.75,0.0079
3314.50,0.0080
3314.25,0.0080
3314.00,0.0079
3313.75,0.0078
3313.50,0.0076
3313.25,0.0075
3313.00,0.0074
3312.75,0.0074
3312.50,0.0074
3312.25,0.0074
3312.00,0.0075
3311.75,0.0076
3311.50,0.0077
3311.25,0.0079
3311.00,0.0081
3310.75,0.0082
3310.50,0.0082
3310.25,0.0082
3310.00,0.0082
3309.75,0.0082
3309.50,0.0081
3309.25,0.0079
3309.00,0.0076
3308.75,0.0073
3308.50,0.0072
3308.25,0.0073
3308.00,0.0075
3307.75,0.0077
3307.50,0.0079
3307.25,0.0080
3307.00,0.0080
3306.75,0.0080
3306.50,0.0078
3306.25,0.0077
3306.00,0.0076
3305.75,0.0074
3305.50,0.0074
3305.25,0.0074
3305.00,0.0075
3304.75,0.0077
3304.50,0.0078
3304.25,0.0080
3304.00,0.0080
3303.75,0.0080
3303.50,0.0080
3303.25,0.0079
3303.00,0.0078
3302.75,0.0077
3302.50,0.0076
3302.25,0.0076
3302.00,0.0076
3301.75,0.0076
3301.50,0.0077
3301.25,0.0077
3301.00,0.0076
3300.75,0.0076
3300.50,0.0075
3300.25,0.0074
3300.00,0.0074
3299.75,0.0074
3299.50,0.0075
3299.25,0.0077
3299.00,0.0078
3298.75,0.0080
3298.50,0.0081
3298.25,0.0082
3298.00,0.0081
3297.75,0.0080
3297.50,0.0079
3297.25,0.0077
3297.00,0.0076
3296.75,0.0074
3296.50,0.0073
3296.25,0.0073
3296.00,0.0074
3295.75,0.0075
3295.50,0.0076
3295.25,0.0077
3295.00,0.0078
3294.75,0.0079
3294.50,0.0079
3294.25,0.0078
3294.00,0.0078
3293.75,0.0078
3293.50,0.0078
3293.25,0.0077
3293.00,0.0077
3292.75,0.0076
3292.50,0.0075
3292.25,0.0074
3292.00,0.0074
3291.75,0.0076
3291.50,0.0079
3291.25,0.0081
3291.00,0.0082
3290.75,0.0082
3290.50,0.0082
3290.25,0.0081
3290.00,0.0081
3289.75,0.0080
3289.50,0.0080
3289.25,0.0078
3289.00,0.0077
3288.75,0.0075
3288.50,0.0074
3288.25,0.0074
3288.00,0.0074
3287.75,0.0074
3287.50,0.0074
3287.25,0.0075
3287.00,0.0075
3286.75,0.0075
3286.50,0.0074
3286.25,0.0074
3286.00,0.0074
3285.75,0.0074
3285.50,0.0075
3285.25,0.0075
3285.00,0.0076
3284.75,0.0076
3284.50,0.0077
3284.25,0.0078
3284.00,0.0079
3283.75,0.0078
3283.50,0.0078
3283.25,0.0077
3283.00,0.0077
3282.75,0.0078
3282.50,0.0079
3282.25,0.0079
3282.00,0.0080
3281.75,0.0080
3281.50,0.0079
3281.25,0.0079
3281.00,0.0078
3280.75,0.0078
3280.50,0.0079
3280.25,0.0081
3280.00,0.0082
3279.75,0.0083
3279.50,0.0082
3279.25,0.0080
3279.00,0.0079
3278.75,0.0078
3278.50,0.0079
3278.25,0.0080
3278.00,0.0081
3277.75,0.0082
3277.50,0.0081
3277.25,0.0079
3277.00,0.0076
3276.75,0.0073
3276.50,0.0072
3276.25,0.0072
3276.00,0.0073
3275.75,0.0073
3275.50,0.0074
3275.25,0.0075
3275.00,0.0075
3274.75,0.0076
3274.50,0.0076
3274.25,0.0076
3274.00,0.0076
3273.75,0.0076
3273.50,0.0075
3273.25,0.0075
3273.00,0.0075
3272.75,0.0075
3272.50,0.0076
3272.25,0.0076
3272.00,0.0077
3271.75,0.0078
3271.50,0.0078
3271.25,0.0078
3271.00,0.0078
3270.75,0.0077
3270.50,0.0076
3270.25,0.0075
3270.00,0.0075
3269.75,0.0075
3269.50,0.0076
3269.25,0.0077
3269.00,0.0077
3268.75,0.0078
3268.50,0.0078
3268.25,0.0078
3268.00,0.0078
3267.75,0.0077
3267.50,0.0077
3267.25,0.0077
3267.00,0.0078
3266.75,0.0078
3266.50,0.0079
3266.25,0.0080
3266.00,0.0081
3265.75,0.0082
3265.50,0.0082
3265.25,0.0081
3265.00,0.0080
3264.75,0.0079
3264.50,0.0078
3264.25,0.0078
3264.00,0.0077
3263.75,0.0077
3263.50,0.0075
3263.25,0.0074
3263.00,0.0072
3262.75,0.0071
3262.50,0.0071
3262.25,0.0071
3262.00,0.0072
3261.75,0.0073
3261.50,0.0074
3261.25,0.0075
3261.00,0.0077
3260.75,0.0079
3260.50,0.0080
3260.25,0.0080
3260.00,0.0079
3259.75,0.0078
3259.50,0.0077
3259.25,0.0076
3259.00,0.0076
3258.75,0.0076
3258.50,0.0077
3258.25,0.0078
3258.00,0.0079
3257.75,0.0079
3257.50,0.0079
3257.25,0.0079
3257.00,0.0079
3256.75,0.0079
3256.50,0.0080
3256.25,0.0080
3256.00,0.0080
3255.75,0.0080
3255.50,0.0079
3255.25,0.0079
3255.00,0.0079
3254.75,0.0080
3254.50,0.0082
3254.25,0.0083
3254.00,0.0083
3253.75,0.0082
3253.50,0.0081
3253.25,0.0079
3253.00,0.0078
3252.75,0.0077
3252.50,0.0076
3252.25,0.0076
3252.00,0.0076
3251.75,0.0077
3251.50,0.0077
3251.25,0.0077
3251.00,0.0077
3250.75,0.0076
3250.50,0.0076
3250.25,0.0075
3250.00,0.0076
3249.75,0.0077
3249.50,0.0079
3249.25,0.0081
3249.00,0.0082
3248.75,0.0082
3248.50,0.0082
3248.25,0.0081
3248.00,0.0081
3247.75,0.0080
3247.50,0.0078
3247.25,0.0077
3247.00,0.0076
3246.75,0.0076
3246.50,0.0076
3246.25,0.0076
3246.00,0.0076
3245.75,0.0075
3245.50,0.0075
3245.25,0.0074
3245.00,0.0073
3244.75,0.0073
3244.50,0.0074
3244.25,0.0075
3244.00,0.0077
3243.75,0.0078
3243.50,0.0080
3243.25,0.0080
3243.00,0.0080
3242.75,0.0079
3242.50,0.0077
3242.25,0.0075
3242.00,0.0074
3241.75,0.0073
3241.50,0.0074
3241.25,0.0076
3241.00,0.0078
3240.75,0.0080
3240.50,0.0081
3240.25,0.0081
3240.00,0.0080
3239.75,0.0078
3239.50,0.0076
3239.25,0.0074
3239.00,0.0072
3238.75,0.0071
3238.50,0.0070
3238.25,0.0070
3238.00,0.0070
3237.75,0.0071
3237.50,0.0073
3237.25,0.0073
3237.00,0.0072
3236.75,0.0071
3236.50,0.0069
3236.25,0.0069
3236.00,0.0070
3235.75,0.0073
3235.50,0.0075
3235.25,0.0076
3235.00,0.0076
3234.75,0.0076
3234.50,0.0076
3234.25,0.0076
3234.00,0.0076
3233.75,0.0077
3233.50,0.0078
3233.25,0.0079
3233.00,0.0078
3232.75,0.0077
3232.50,0.0076
3232.25,0.0074
3232.00,0.0074
3231.75,0.0074
3231.50,0.0074
3231.25,0.0074
3231.00,0.0074
3230.75,0.0075
3230.50,0.0076
3230.25,0.0076
3230.00,0.0076
3229.75,0.0075
3229.50,0.0075
3229.25,0.0075
3229.00,0.0076
3228.75,0.0077
3228.50,0.0077
3228.25,0.0078
3228.00,0.0078
3227.75,0.0078
3227.50,0.0077
3227.25,0.0077
3227.00,0.0078
3226.75,0.0078
3226.50,0.0078
3226.25,0.0077
3226.00,0.0076
3225.75,0.0075
3225.50,0.0075
3225.25,0.0076
3225.00,0.0079
3224.75,0.0080
3224.50,0.0081
3224.25,0.0080
3224.00,0.0078
3223.75,0.0077
3223.50,0.0075
3223.25,0.0073
3223.00,0.0073
3222.75,0.0073
3222.50,0.0073
3222.25,0.0073
3222.00,0.0072
3221.75,0.0072
3221.50,0.0073
3221.25,0.0075
3221.00,0.0077
3220.75,0.0079
3220.50,0.0080
3220.25,0.0079
3220.00,0.0078
3219.75,0.0076
3219.50,0.0076
3219.25,0.0076
3219.00,0.0076
3218.75,0.0076
3218.50,0.0076
3218.25,0.0075
3218.00,0.0074
3217.75,0.0074
3217.50,0.0073
3217.25,0.0073
3217.00,0.0073
3216.75,0.0073
3216.50,0.0074
3216.25,0.0074
3216.00,0.0075
3215.75,0.0075
3215.50,0.0076
3215.25,0.0077
3215.00,0.0078
3214.75,0.0079
3214.50,0.0079
3214.25,0.0079
3214.00,0.0079
3213.75,0.0078
3213.50,0.0078
3213.25,0.0078
3213.00,0.0077
3212.75,0.0077
3212.50,0.0076
3212.25,0.0076
3212.00,0.0075
3211.75,0.0075
3211.50,0.0075
3211.25,0.0075
3211.00,0.0076
3210.75,0.0076
3210.50,0.0077
3210.25,0.0078
3210.00,0.0078
3209.75,0.0079
3209.50,0.0079
3209.25,0.0079
3209.00,0.0078
3208.75,0.0077
3208.50,0.0076
3208.25,0.0075
3208.00,0.0074
3207.75,0.0075
3207.50,0.0076
3207.25,0.0077
3207.00,0.0077
3206.75,0.0077
3206.50,0.0077
3206.25,0.0077
3206.00,0.0077
3205.75,0.0077
3205.50,0.0076
3205.25,0.0075
3205.00,0.0075
3204.75,0.0075
3204.50,0.0075
3204.25,0.0075
3204.00,0.0074
3203.75,0.0074
3203.50,0.0074
3203.25,0.0074
3203.00,0.0074
3202.75,0.0074
3202.50,0.0074
3202.25,0.0074
3202.00,0.0074
3201.75,0.0075
3201.50,0.0075
3201.25,0.0075
3201.00,0.0075
3200.75,0.0076
3200.50,0.0077
3200.25,0.0078
3200.00,0.0078
3199.75,0.0076
3199.50,0.0074
3199.25,0.0073
3199.00,0.0071
3198.75,0.0071
3198.50,0.0072
3198.25,0.0073
3198.00,0.0075
3197.75,0.0076
3197.50,0.0077
3197.25,0.0077
3197.00,0.0078
3196.75,0.0079
3196.50,0.0079
3196.25,0.0079
3196.00,0.0078
3195.75,0.0076
3195.50,0.0075
3195.25,0.0075
3195.00,0.0076
3194.75,0.0076
3194.50,0.0077
3194.25,0.0077
3194.00,0.0077
3193.75,0.0077
3193.50,0.0077
3193.25,0.0076
3193.00,0.0074
3192.75,0.0074
3192.50,0.0074
3192.25,0.0076
3192.00,0.0077
3191.75,0.0079
3191.50,0.0079
3191.25,0.0078
3191.00,0.0077
3190.75,0.0076
3190.50,0.0076
3190.25,0.0076
3190.00,0.0076
3189.75,0.0076
3189.50,0.0078
3189.25,0.0079
3189.00,0.0080
3188.75,0.0081
3188.50,0.0080
3188.25,0.0079
3188.00,0.0078
3187.75,0.0078
3187.50,0.0078
3187.25,0.0078
3187.00,0.0078
3186.75,0.0077
3186.50,0.0075
3186.25,0.0074
3186.00,0.0073
3185.75,0.0072
3185.50,0.0072
3185.25,0.0073
3185.00,0.0073
3184.75,0.0074
3184.50,0.0074
3184.25,0.0075
3184.00,0.0076
3183.75,0.0077
3183.50,0.0077
3183.25,0.0077
3183.00,0.0075
3182.75,0.0073
3182.50,0.0072
3182.25,0.0071
3182.00,0.0072
3181.75,0.0074
3181.50,0.0076
3181.25,0.0077
3181.00,0.0078
3180.75,0.0077
3180.50,0.0075
3180.25,0.0074
3180.00,0.0074
3179.75,0.0074
3179.50,0.0073
3179.25,0.0073
3179.00,0.0073
3178.75,0.0073
3178.50,0.0074
3178.25,0.0076
3178.00,0.0077
3177.75,0.0079
3177.50,0.0079
3177.25,0.0079
3177.00,0.0079
3176.75,0.0078
3176.50,0.0077
3176.25,0.0077
3176.00,0.0078
3175.75,0.0079
3175.50,0.0079
3175.25,0.0080
3175.00,0.0079
3174.75,0.0078
3174.50,0.0077
3174.25,0.0076
3174.00,0.0075
3173.75,0.0073
3173.50,0.0072
3173.25,0.0071
3173.00,0.0072
3172.75,0.0073
3172.50,0.0075
3172.25,0.0077
3172.00,0.0078
3171.75,0.0079
3171.50,0.0080
3171.25,0.0081
3171.00,0.0081
3170.75,0.0080
3170.50,0.0079
3170.25,0.0077
3170.00,0.0075
3169.75,0.0073
3169.50,0.0073
3169.25,0.0073
3169.00,0.0074
3168.75,0.0075
3168.50,0.0075
3168.25,0.0074
3168.00,0.0072
3167.75,0.0071
3167.50,0.0071
3167.25,0.0072
3167.00,0.0075
3166.75,0.0076
3166.50,0.0078
3166.25,0.0078
3166.00,0.0078
3165.75,0.0078
3165.50,0.0078
3165.25,0.0078
3165.00,0.0077
3164.75,0.0076
3164.50,0.0075
3164.25,0.0073
3164.00,0.0071
3163.75,0.0071
3163.50,0.0071
3163.25,0.0072
3163.00,0.0073
3162.75,0.0074
3162.50,0.0074
3162.25,0.0075
3162.00,0.0074
3161.75,0.0074
3161.50,0.0073
3161.25,0.0072
3161.00,0.0071
3160.75,0.0072
3160.50,0.0073
3160.25,0.0074
3160.00,0.0074
3159.75,0.0074
3159.50,0.0075
3159.25,0.0075
3159.00,0.0076
3158.75,0.0076
3158.50,0.0075
3158.25,0.0074
3158.00,0.0073
3157.75,0.0073
3157.50,0.0073
3157.25,0.0073
3157.00,0.0074
3156.75,0.0075
3156.50,0.0076
3156.25,0.0076
3156.00,0.0077
3155.75,0.0078
3155.50,0.0079
3155.25,0.0079
3155.00,0.0079
3154.75,0.0080
3154.50,0.0080
3154.25,0.0079
3154.00,0.0078
3153.75,0.0076
3153.50,0.0074
3153.25,0.0073
3153.00,0.0073
3152.75,0.0075
3152.50,0.0076
3152.25,0.0077
3152.00,0.0077
3151.75,0.0077
3151.50,0.0077
3151.25,0.0076
3151.00,0.0075
3150.75,0.0075
3150.50,0.0075
3150.25,0.0076
3150.00,0.0078
3149.75,0.0079
3149.50,0.0079
3149.25,0.0078
3149.00,0.0077
3148.75,0.0075
3148.50,0.0074
3148.25,0.0073
3148.00,0.0073
3147.75,0.0074
3147.50,0.0075
3147.25,0.0076
3147.00,0.0076
3146.75,0.0077
3146.50,0.0078
3146.25,0.0079
3146.00,0.0079
3145.75,0.0078
3145.50,0.0077
3145.25,0.0076
3145.00,0.0076
3144.75,0.0075
3144.50,0.0074
3144.25,0.0073
3144.00,0.0072
3143.75,0.0072
3143.50,0.0072
3143.25,0.0073
3143.00,0.0074
3142.75,0.0075
3142.50,0.0075
3142.25,0.0075
3142.00,0.0075
3141.75,0.0076
3141.50,0.0077
3141.25,0.0077
3141.00,0.0077
3140.75,0.0077
3140.50,0.0076
3140.25,0.0076
3140.00,0.0076
3139.75,0.0076
3139.50,0.0076
3139.25,0.0077
3139.00,0.0077
3138.75,0.0077
3138.50,0.0077
3138.25,0.0076
3138.00,0.0075
3137.75,0.0073
3137.50,0.0072
3137.25,0.0072
3137.00,0.0073
3136.75,0.0074
3136.50,0.0074
3136.25,0.0075
3136.00,0.0074
3135.75,0.0073
3135.50,0.0072
3135.25,0.0072
3135.00,0.0072
3134.75,0.0072
3134.50,0.0073
3134.25,0.0075
3134.00,0.0076
3133.75,0.0076
3133.50,0.0076
3133.25,0.0076
3133.00,0.0075
3132.75,0.0076
3132.50,0.0076
3132.25,0.0077
3132.00,0.0077
3131.75,0.0076
3131.50,0.0075
3131.25,0.0075
3131.00,0.0075
3130.75,0.0075
3130.50,0.0075
3130.25,0.0075
3130.00,0.0075
3129.75,0.0074
3129.50,0.0072
3129.25,0.0071
3129.00,0.0071
3128.75,0.0071
3128.50,0.0072
3128.25,0.0073
3128.00,0.0074
3127.75,0.0075
3127.50,0.0076
3127.25,0.0077
3127.00,0.0077
3126.75,0.0076
3126.50,0.0075
3126.25,0.0074
3126.00,0.0073
3125.75,0.0072
3125.50,0.0072
3125.25,0.0073
3125.00,0.0073
3124.75,0.0073
3124.50,0.0073
3124.25,0.0072
3124.00,0.0072
3123.75,0.0073
3123.50,0.0074
3123.25,0.0076
3123.00,0.0077
3122.75,0.0077
3122.50,0.0077
3122.25,0.0078
3122.00,0.0078
3121.75,0.0079
3121.50,0.0079
3121.25,0.0079
3121.00,0.0078
3120.75,0.0077
3120.50,0.0076
3120.25,0.0076
3120.00,0.0075
3119.75,0.0074
3119.50,0.0072
3119.25,0.0072
3119.00,0.0072
3118.75,0.0073
3118.50,0.0074
3118.25,0.0074
3118.00,0.0073
3117.75,0.0072
3117.50,0.0071
3117.25,0.0071
3117.00,0.0071
3116.75,0.0072
3116.50,0.0072
3116.25,0.0072
3116.00,0.0072
3115.75,0.0072
3115.50,0.0072
3115.25,0.0073
3115.00,0.0074
3114.75,0.0075
3114.50,0.0076
3114.25,0.0077
3114.00,0.0076
3113.75,0.0075
3113.50,0.0073
3113.25,0.0072
3113.00,0.0071
3112.75,0.0071
3112.50,0.0071
3112.25,0.0071
3112.00,0.0071
3111.75,0.0071
3111.50,0.0072
3111.25,0.0072
3111.00,0.0073
3110.75,0.0075
3110.50,0.0076
3110.25,0.0076
3110.00,0.0076
3109.75,0.0076
3109.50,0.0075
3109.25,0.0074
3109.00,0.0074
3108.75,0.0074
3108.50,0.0073
3108.25,0.0073
3108.00,0.0074
3107.75,0.0075
3107.50,0.0076
3107.25,0.0077
3107.00,0.0076
3106.75,0.0075
3106.50,0.0073
3106.25,0.0072
3106.00,0.0072
3105.75,0.0073
3105.50,0.0074
3105.25,0.0074
3105.00,0.0073
3104.75,0.0071
3104.50,0.0070
3104.25,0.0068
3104.00,0.0068
3103.75,0.0067
3103.50,0.0067
3103.25,0.0068
3103.00,0.0069
3102.75,0.0070
3102.50,0.0071
3102.25,0.0072
3102.00,0.0072
3101.75,0.0072
3101.50,0.0071
3101.25,0.0071
3101.00,0.0071
3100.75,0.0072
3100.50,0.0073
3100.25,0.0074
3100.00,0.0075
3099.75,0.0076
3099.50,0.0076
3099.25,0.0075
3099.00,0.0074
3098.75,0.0073
3098.50,0.0071
3098.25,0.0070
3098.00,0.0069
3097.75,0.0069
3097.50,0.0071
3097.25,0.0072
3097.00,0.0073
3096.75,0.0072
3096.50,0.0071
3096.25,0.0070
3096.00,0.0070
3095.75,0.0071
3095.50,0.0072
3095.25,0.0072
3095.00,0.0072
3094.75,0.0071
3094.50,0.0070
3094.25,0.0069
3094.00,0.0069
3093.75,0.0070
3093.50,0.0071
3093.25,0.0073
3093.00,0.0073
3092.75,0.0073
3092.50,0.0073
3092.25,0.0072
3092.00,0.0072
3091.75,0.0072
3091.50,0.0071
3091.25,0.0071
3091.00,0.0070
3090.75,0.0069
3090.50,0.0067
3090.25,0.0065
3090.00,0.0064
3089.75,0.0063
3089.50,0.0063
3089.25,0.0064
3089.00,0.0066
3088.75,0.0067
3088.50,0.0070
3088.25,0.0072
3088.00,0.0074
3087.75,0.0076
3087.50,0.0075
3087.25,0.0073
3087.00,0.0071
3086.75,0.0069
3086.50,0.0069
3086.25,0.0069
3086.00,0.0070
3085.75,0.0069
3085.50,0.0068
3085.25,0.0068
3085.00,0.0068
3084.75,0.0069
3084.50,0.0070
3084.25,0.0071
3084.00,0.0071
3083.75,0.0070
3083.50,0.0068
3083.25,0.0067
3083.00,0.0066
3082.75,0.0066
3082.50,0.0067
3082.25,0.0069
3082.00,0.0070
3081.75,0.0071
3081.50,0.0070
3081.25,0.0069
3081.00,0.0069
3080.75,0.0069
3080.50,0.0071
3080.25,0.0072
3080.00,0.0073
3079.75,0.0073
3079.50,0.0072
3079.25,0.0072
3079.00,0.0071
3078.75,0.0072
3078.50,0.0072
3078.25,0.0072
3078.00,0.0072
3077.75,0.0073
3077.50,0.0073
3077.25,0.0073
3077.00,0.0074
3076.75,0.0073
3076.50,0.0073
3076.25,0.0073
3076.00,0.0073
3075.75,0.0073
3075.50,0.0073
3075.25,0.0073
3075.00,0.0072
3074.75,0.0071
3074.50,0.0071
3074.25,0.0071
3074.00,0.0071
3073.75,0.0070
3073.50,0.0070
3073.25,0.0069
3073.00,0.0069
3072.75,0.0069
3072.50,0.0070
3072.25,0.0071
3072.00,0.0071
3071.75,0.0071
3071.50,0.0071
3071.25,0.0071
3071.00,0.0071
3070.75,0.0070
3070.50,0.0071
3070.25,0.0071
3070.00,0.0071
3069.75,0.0071
3069.50,0.0070
3069.25,0.0069
3069.00,0.0068
3068.75,0.0068
3068.50,0.0069
3068.25,0.0070
3068.00,0.0071
3067.75,0.0070
3067.50,0.0070
3067.25,0.0069
3067.00,0.0070
3066.75,0.0070
3066.50,0.0070
3066.25,0.0070
3066.00,0.0069
3065.75,0.0069
3065.50,0.0069
3065.25,0.0069
3065.00,0.0069
3064.75,0.0069
3064.50,0.0070
3064.25,0.0070
3064.00,0.0071
3063.75,0.0072
3063.50,0.0072
3063.25,0.0072
3063.00,0.0071
3062.75,0.0071
3062.50,0.0070
3062.25,0.0069
3062.00,0.0068
3061.75,0.0067
3061.50,0.0068
3061.25,0.0069
3061.00,0.0071
3060.75,0.0073
3060.50,0.0074
3060.25,0.0074
3060.00,0.0073
3059.75,0.0072
3059.50,0.0071
3059.25,0.0071
3059.00,0.0072
3058.75,0.0072
3058.50,0.0073
3058.25,0.0072
3058.00,0.0072
3057.75,0.0071
3057.50,0.0071
3057.25,0.0072
3057.00,0.0071
3056.75,0.0070
3056.50,0.0068
3056.25,0.0066
3056.00,0.0065
3055.75,0.0066
3055.50,0.0067
3055.25,0.0069
3055.00,0.0070
3054.75,0.0072
3054.50,0.0073
3054.25,0.0073
3054.00,0.0072
3053.75,0.0072
3053.50,0.0071
3053.25,0.0070
3053.00,0.0069
3052.75,0.0068
3052.50,0.0068
3052.25,0.0068
3052.00,0.0069
3051.75,0.0070
3051.50,0.0071
3051.25,0.0072
3051.00,0.0072
3050.75,0.0070
3050.50,0.0068
3050.25,0.0066
3050.00,0.0065
3049.75,0.0064
3049.50,0.0064
3049.25,0.0065
3049.00,0.0065
3048.75,0.0066
3048.50,0.0066
3048.25,0.0067
3048.00,0.0068
3047.75,0.0069
3047.50,0.0069
3047.25,0.0069
3047.00,0.0068
3046.75,0.0067
3046.50,0.0065
3046.25,0.0063
3046.00,0.0062
3045.75,0.0061
3045.50,0.0061
3045.25,0.0062
3045.00,0.0064
3044.75,0.0065
3044.50,0.0067
3044.25,0.0067
3044.00,0.0065
3043.75,0.0063
3043.50,0.0060
3043.25,0.0059
3043.00,0.0059
3042.75,0.0060
3042.50,0.0061
3042.25,0.0063
3042.00,0.0065
3041.75,0.0067
3041.50,0.0067
3041.25,0.0066
3041.00,0.0065
3040.75,0.0063
3040.50,0.0063
3040.25,0.0063
3040.00,0.0064
3039.75,0.0064
3039.50,0.0064
3039.25,0.0063
3039.00,0.0063
3038.75,0.0063
3038.50,0.0064
3038.25,0.0066
3038.00,0.0067
3037.75,0.0067
3037.50,0.0068
3037.25,0.0067
3037.00,0.0066
3036.75,0.0065
3036.50,0.0064
3036.25,0.0064
3036.00,0.0064
3035.75,0.0065
3035.50,0.0066
3035.25,0.0067
3035.00,0.0066
3034.75,0.0065
3034.50,0.0064
3034.25,0.0063
3034.00,0.0063
3033.75,0.0063
3033.50,0.0063
3033.25,0.0062
3033.00,0.0061
3032.75,0.0060
3032.50,0.0059
3032.25,0.0060
3032.00,0.0061
3031.75,0.0062
3031.50,0.0064
3031.25,0.0064
3031.00,0.0064
3030.75,0.0063
3030.50,0.0063
3030.25,0.0063
3030.00,0.0064
3029.75,0.0065
3029.50,0.0064
3029.25,0.0064
3029.00,0.0063
3028.75,0.0063
3028.50,0.0064
3028.25,0.0065
3028.00,0.0066
3027.75,0.0067
3027.50,0.0067
3027.25,0.0067
3027.00,0.0067
3026.75,0.0068
3026.50,0.0068
3026.25,0.0068
3026.00,0.0067
3025.75,0.0066
3025.50,0.0065
3025.25,0.0064
3025.00,0.0065
3024.75,0.0066
3024.50,0.0067
3024.25,0.0069
3024.00,0.0071
3023.75,0.0072
3023.50,0.0073
3023.25,0.0073
3023.00,0.0073
3022.75,0.0072
3022.50,0.0071
3022.25,0.0070
3022.00,0.0070
3021.75,0.0069
3021.50,0.0069
3021.25,0.0068
3021.00,0.0068
3020.75,0.0069
3020.50,0.0071
3020.25,0.0072
3020.00,0.0072
3019.75,0.0071
3019.50,0.0069
3019.25,0.0068
3019.00,0.0067
3018.75,0.0068
3018.50,0.0069
3018.25,0.0070
3018.00,0.0072
3017.75,0.0074
3017.50,0.0075
3017.25,0.0076
3017.00,0.0076
3016.75,0.0076
3016.50,0.0074
3016.25,0.0072
3016.00,0.0070
3015.75,0.0068
3015.50,0.0068
3015.25,0.0068
3015.00,0.0069
3014.75,0.0071
3014.50,0.0073
3014.25,0.0074
3014.00,0.0074
3013.75,0.0074
3013.50,0.0073
3013.25,0.0072
3013.00,0.0071
3012.75,0.0071
3012.50,0.0071
3012.25,0.0071
3012.00,0.0072
3011.75,0.0073
3011.50,0.0073
3011.25,0.0074
3011.00,0.0075
3010.75,0.0075
3010.50,0.0074
3010.25,0.0073
3010.00,0.0071
3009.75,0.0071
3009.50,0.0071
3009.25,0.0071
3009.00,0.0072
3008.75,0.0072
3008.50,0.0072
3008.25,0.0072
3008.00,0.0073
3007.75,0.0074
3007.50,0.0075
3007.25,0.0075
3007.00,0.0075
3006.75,0.0074
3006.50,0.0073
3006.25,0.0073
3006.00,0.0073
3005.75,0.0074
3005.50,0.0074
3005.25,0.0074
3005.00,0.0073
3004.75,0.0072
3004.50,0.0072
3004.25,0.0072
3004.00,0.0072
3003.75,0.0073
3003.50,0.0073
3003.25,0.0073
3003.00,0.0073
3002.75,0.0072
3002.50,0.0072
3002.25,0.0073
3002.00,0.0074
3001.75,0.0076
3001.50,0.0077
3001.25,0.0077
3001.00,0.0077
3000.75,0.0076
3000.50,0.0075
3000.25,0.0074
3000.00,0.0073
2999.75,0.0072
2999.50,0.0071
2999.25,0.0070
2999.00,0.0069
2998.75,0.0070
2998.50,0.0071
2998.25,0.0072
2998.00,0.0073
2997.75,0.0074
2997.50,0.0074
2997.25,0.0075
2997.00,0.0076
2996.75,0.0077
2996.50,0.0078
2996.25,0.0078
2996.00,0.0078
2995.75,0.0078
2995.50,0.0078
2995.25,0.0078
2995.00,0.0077
2994.75,0.0077
2994.50,0.0076
2994.25,0.0075
2994.00,0.0074
2993.75,0.0075
2993.50,0.0076
2993.25,0.0077
2993.00,0.0078
2992.75,0.0079
2992.50,0.0079
2992.25,0.0079
2992.00,0.0079
2991.75,0.0078
2991.50,0.0078
2991.25,0.0078
2991.00,0.0077
2990.75,0.0077
2990.50,0.0076
2990.25,0.0075
2990.00,0.0075
2989.75,0.0076
2989.50,0.0078
2989.25,0.0079
2989.00,0.0081
2988.75,0.0081
2988.50,0.0081
2988.25,0.0080
2988.00,0.0079
2987.75,0.0078
2987.50,0.0078
2987.25,0.0078
2987.00,0.0078
2986.75,0.0078
2986.50,0.0078
2986.25,0.0078
2986.00,0.0078
2985.75,0.0079
2985.50,0.0081
2985.25,0.0082
2985.00,0.0083
2984.75,0.0084
2984.50,0.0083
2984.25,0.0082
2984.00,0.0080
2983.75,0.0079
2983.50,0.0079
2983.25,0.0080
2983.00,0.0082
2982.75,0.0084
2982.50,0.0085
2982.25,0.0085
2982.00,0.0085
2981.75,0.0084
2981.50,0.0084
2981.25,0.0083
2981.00,0.0083
2980.75,0.0083
2980.50,0.0084
2980.25,0.0085
2980.00,0.0087
2979.75,0.0089
2979.50,0.0091
2979.25,0.0092
2979.00,0.0093
2978.75,0.0093
2978.50,0.0093
2978.25,0.0094
2978.00,0.0095
2977.75,0.0095
2977.50,0.0095
2977.25,0.0094
2977.00,0.0094
2976.75,0.0094
2976.50,0.0095
2976.25,0.0095
2976.00,0.0096
2975.75,0.0096
2975.50,0.0097
2975.25,0.0098
2975.00,0.0101
2974.75,0.0103
2974.50,0.0106
2974.25,0.0108
2974.00,0.0110
2973.75,0.0112
2973.50,0.0113
2973.25,0.0114
2973.00,0.0114
2972.75,0.0114
2972.50,0.0114
2972.25,0.0116
2972.00,0.0117
2971.75,0.0119
2971.50,0.0121
2971.25,0.0123
2971.00,0.0124
2970.75,0.0126
2970.50,0.0128
2970.25,0.0130
2970.00,0.0132
2969.75,0.0133
2969.50,0.0134
2969.25,0.0134
2969.00,0.0134
2968.75,0.0134
2968.50,0.0135
2968.25,0.0137
2968.00,0.0139
2967.75,0.0141
2967.50,0.0144
2967.25,0.0147
2967.00,0.0150
2966.75,0.0152
2966.50,0.0154
2966.25,0.0154
2966.00,0.0155
2965.75,0.0156
2965.50,0.0157
2965.25,0.0158
2965.00,0.0158
2964.75,0.0160
2964.50,0.0162
2964.25,0.0165
2964.00,0.0168
2963.75,0.0169
2963.50,0.0169
2963.25,0.0168
2963.00,0.0167
2962.75,0.0166
2962.50,0.0166
2962.25,0.0166
2962.00,0.0167
2961.75,0.0167
2961.50,0.0168
2961.25,0.0168
2961.00,0.0167
2960.75,0.0166
2960.50,0.0164
2960.25,0.0162
2960.00,0.0160
2959.75,0.0159
2959.50,0.0158
2959.25,0.0157
2959.00,0.0157
2958.75,0.0156
2958.50,0.0155
2958.25,0.0153
2958.00,0.0151
2957.75,0.0148
2957.50,0.0146
2957.25,0.0144
2957.00,0.0142
2956.75,0.0140
2956.50,0.0139
2956.25,0.0138
2956.00,0.0137
2955.75,0.0135
2955.50,0.0134
2955.25,0.0132
2955.00,0.0130
2954.75,0.0128
2954.50,0.0126
2954.25,0.0124
2954.00,0.0121
2953.75,0.0119
2953.50,0.0118
2953.25,0.0116
2953.00,0.0114
2952.75,0.0112
2952.50,0.0111
2952.25,0.0109
2952.00,0.0108
2951.75,0.0107
2951.50,0.0106
2951.25,0.0105
2951.00,0.0105
2950.75,0.0104
2950.50,0.0104
2950.25,0.0102
2950.00,0.0100
2949.75,0.0098
2949.50,0.0097
2949.25,0.0096
2949.00,0.0096
2948.75,0.0096
2948.50,0.0096
2948.25,0.0095
2948.00,0.0095
2947.75,0.0095
2947.50,0.0095
2947.25,0.0096
2947.00,0.0097
2946.75,0.0097
2946.50,0.0096
2946.25,0.0096
2946.00,0.0095
2945.75,0.0094
2945.50,0.0093
2945.25,0.0090
2945.00,0.0087
2944.75,0.0084
2944.50,0.0082
2944.25,0.0081
2944.00,0.0082
2943.75,0.0083
2943.50,0.0083
2943.25,0.0084
2943.00,0.0084
2942.75,0.0085
2942.50,0.0085
2942.25,0.0086
2942.00,0.0086
2941.75,0.0085
2941.50,0.0084
2941.25,0.0083
2941.00,0.0082
2940.75,0.0081
2940.50,0.0080
2940.25,0.0079
2940.00,0.0079
2939.75,0.0080
2939.50,0.0081
2939.25,0.0082
2939.00,0.0081
2938.75,0.0080
2938.50,0.0079
2938.25,0.0078
2938.00,0.0079
2937.75,0.0080
2937.50,0.0081
2937.25,0.0081
2937.00,0.0080
2936.75,0.0080
2936.50,0.0080
2936.25,0.0080
2936.00,0.0081
2935.75,0.0081
2935.50,0.0080
2935.25,0.0080
2935.00,0.0079
2934.75,0.0078
2934.50,0.0078
2934.25,0.0077
2934.00,0.0076
2933.75,0.0076
2933.50,0.0076
2933.25,0.0076
2933.00,0.0076
2932.75,0.0078
2932.50,0.0080
2932.25,0.0081
2932.00,0.0081
2931.75,0.0080
2931.50,0.0078
2931.25,0.0076
2931.00,0.0075
2930.75,0.0075
2930.50,0.0075
2930.25,0.0075
2930.00,0.0074
2929.75,0.0074
2929.50,0.0075
2929.25,0.0077
2929.00,0.0078
2928.75,0.0080
2928.50,0.0081
2928.25,0.0081
2928.00,0.0082
2927.75,0.0082
2927.50,0.0081
2927.25,0.0079
2927.00,0.0079
2926.75,0.0079
2926.50,0.0080
2926.25,0.0080
2926.00,0.0081
2925.75,0.0082
2925.50,0.0083
2925.25,0.0084
2925.00,0.0084
2924.75,0.0083
2924.50,0.0082
2924.25,0.0081
2924.00,0.0080
2923.75,0.0080
2923.50,0.0079
2923.25,0.0079
2923.00,0.0079
2922.75,0.0080
2922.50,0.0082
2922.25,0.0083
2922.00,0.0083
2921.75,0.0082
2921.50,0.0081
2921.25,0.0080
2921.00,0.0080
2920.75,0.0080
2920.50,0.0081
2920.25,0.0081
2920.00,0.0081
2919.75,0.0080
2919.50,0.0080
2919.25,0.0080
2919.00,0.0080
2918.75,0.0081
2918.50,0.0082
2918.25,0.0083
2918.00,0.0083
2917.75,0.0084
2917.50,0.0083
2917.25,0.0083
2917.00,0.0083
2916.75,0.0083
2916.50,0.0082
2916.25,0.0081
2916.00,0.0080
2915.75,0.0079
2915.50,0.0079
2915.25,0.0080
2915.00,0.0080
2914.75,0.0081
2914.50,0.0082
2914.25,0.0083
2914.00,0.0084
2913.75,0.0084
2913.50,0.0085
2913.25,0.0085
2913.00,0.0085
2912.75,0.0085
2912.50,0.0084
2912.25,0.0083
2912.00,0.0082
2911.75,0.0083
2911.50,0.0084
2911.25,0.0085
2911.00,0.0085
2910.75,0.0084
2910.50,0.0083
2910.25,0.0082
2910.00,0.0083
2909.75,0.0084
2909.50,0.0085
2909.25,0.0086
2909.00,0.0086
2908.75,0.0085
2908.50,0.0084
2908.25,0.0084
2908.00,0.0084
2907.75,0.0085
2907.50,0.0086
2907.25,0.0087
2907.00,0.0088
2906.75,0.0089
2906.50,0.0090
2906.25,0.0091
2906.00,0.0090
2905.75,0.0089
2905.50,0.0088
2905.25,0.0087
2905.00,0.0086
2904.75,0.0086
2904.50,0.0086
2904.25,0.0087
2904.00,0.0087
2903.75,0.0087
2903.50,0.0087
2903.25,0.0088
2903.00,0.0088
2902.75,0.0088
2902.50,0.0087
2902.25,0.0087
2902.00,0.0087
2901.75,0.0088
2901.50,0.0088
2901.25,0.0088
2901.00,0.0087
2900.75,0.0087
2900.50,0.0086
2900.25,0.0086
2900.00,0.0086
2899.75,0.0086
2899.50,0.0086
2899.25,0.0085
2899.00,0.0084
2898.75,0.0083
2898.50,0.0083
2898.25,0.0082
2898.00,0.0083
2897.75,0.0083
2897.50,0.0084
2897.25,0.0084
2897.00,0.0084
2896.75,0.0084
2896.50,0.0084
2896.25,0.0084
2896.00,0.0084
2895.75,0.0084
2895.50,0.0083
2895.25,0.0082
2895.00,0.0081
2894.75,0.0080
2894.50,0.0079
2894.25,0.0079
2894.00,0.0080
2893.75,0.0080
2893.50,0.0081
2893.25,0.0081
2893.00,0.0081
2892.75,0.0081
2892.50,0.0080
2892.25,0.0079
2892.00,0.0078
2891.75,0.0078
2891.50,0.0079
2891.25,0.0080
2891.00,0.0080
2890.75,0.0080
2890.50,0.0079
2890.25,0.0077
2890.00,0.0076
2889.75,0.0075
2889.50,0.0075
2889.25,0.0075
2889.00,0.0077
2888.75,0.0079
2888.50,0.0080
2888.25,0.0081
2888.00,0.0080
2887.75,0.0079
2887.50,0.0078
2887.25,0.0077
2887.00,0.0076
2886.75,0.0076
2886.50,0.0076
2886.25,0.0077
2886.00,0.0078
2885.75,0.0078
2885.50,0.0078
2885.25,0.0078
2885.00,0.0077
2884.75,0.0077
2884.50,0.0078
2884.25,0.0077
2884.00,0.0077
2883.75,0.0076
2883.50,0.0076
2883.25,0.0076
2883.00,0.0077
2882.75,0.0078
2882.50,0.0079
2882.25,0.0080
2882.00,0.0080
2881.75,0.0080
2881.50,0.0080
2881.25,0.0079
2881.00,0.0078
2880.75,0.0077
2880.50,0.0077
2880.25,0.0078
2880.00,0.0078
2879.75,0.0078
2879.50,0.0078
2879.25,0.0077
2879.00,0.0076
2878.75,0.0076
2878.50,0.0076
2878.25,0.0077
2878.00,0.0078
2877.75,0.0078
2877.50,0.0078
2877.25,0.0077
2877.00,0.0075
2876.75,0.0074
2876.50,0.0074
2876.25,0.0074
2876.00,0.0074
2875.75,0.0074
2875.50,0.0074
2875.25,0.0074
2875.00,0.0075
2874.75,0.0076
2874.50,0.0077
2874.25,0.0076
2874.00,0.0075
2873.75,0.0074
2873.50,0.0073
2873.25,0.0073
2873.00,0.0074
2872.75,0.0074
2872.50,0.0075
2872.25,0.0076
2872.00,0.0076
2871.75,0.0076
2871.50,0.0076
2871.25,0.0076
2871.00,0.0076
2870.75,0.0076
2870.50,0.0076
2870.25,0.0076
2870.00,0.0076
2869.75,0.0076
2869.50,0.0076
2869.25,0.0076
2869.00,0.0076
2868.75,0.0077
2868.50,0.0078
2868.25,0.0079
2868.00,0.0080
2867.75,0.0080
2867.50,0.0080
2867.25,0.0079
2867.00,0.0077
2866.75,0.0076
2866.50,0.0074
2866.25,0.0074
2866.00,0.0074
2865.75,0.0075
2865.50,0.0075
2865.25,0.0076
2865.00,0.0076
2864.75,0.0076
2864.50,0.0076
2864.25,0.0077
2864.00,0.0077
2863.75,0.0078
2863.50,0.0078
2863.25,0.0077
2863.00,0.0077
2862.75,0.0076
2862.50,0.0076
2862.25,0.0075
2862.00,0.0075
2861.75,0.0076
2861.50,0.0077
2861.25,0.0078
2861.00,0.0079
2860.75,0.0080
2860.50,0.0079
2860.25,0.0078
2860.00,0.0077
2859.75,0.0077
2859.50,0.0077
2859.25,0.0077
2859.00,0.0076
2858.75,0.0076
2858.50,0.0075
2858.25,0.0075
2858.00,0.0075
2857.75,0.0076
2857.50,0.0076
2857.25,0.0077
2857.00,0.0077
2856.75,0.0076
2856.50,0.0075
2856.25,0.0074
2856.00,0.0074
2855.75,0.0074
2855.50,0.0073
2855.25,0.0074
2855.00,0.0074
2854.75,0.0075
2854.50,0.0077
2854.25,0.0078
2854.00,0.0079
2853.75,0.0078
2853.50,0.0077
2853.25,0.0075
2853.00,0.0074
2852.75,0.0074
2852.50,0.0073
2852.25,0.0073
2852.00,0.0073
2851.75,0.0073
2851.50,0.0074
2851.25,0.0075
2851.00,0.0076
2850.75,0.0077
2850.50,0.0077
2850.25,0.0078
2850.00,0.0079
2849.75,0.0079
2849.50,0.0079
2849.25,0.0078
2849.00,0.0077
2848.75,0.0075
2848.50,0.0074
2848.25,0.0074
2848.00,0.0074
2847.75,0.0074
2847.50,0.0075
2847.25,0.0076
2847.00,0.0077
2846.75,0.0078
2846.50,0.0078
2846.25,0.0078
2846.00,0.0078
2845.75,0.0077
2845.50,0.0076
2845.25,0.0075
2845.00,0.0074
2844.75,0.0073
2844.50,0.0072
2844.25,0.0073
2844.00,0.0073
2843.75,0.0074
2843.50,0.0074
2843.25,0.0075
2843.00,0.0075
2842.75,0.0075
2842.50,0.0075
2842.25,0.0075
2842.00,0.0075
2841.75,0.0074
2841.50,0.0073
2841.25,0.0071
2841.00,0.0070
2840.75,0.0071
2840.50,0.0072
2840.25,0.0073
2840.00,0.0075
2839.75,0.0075
2839.50,0.0075
2839.25,0.0074
2839.00,0.0073
2838.75,0.0073
2838.50,0.0073
2838.25,0.0074
2838.00,0.0076
2837.75,0.0077
2837.50,0.0079
2837.25,0.0080
2837.00,0.0080
2836.75,0.0079
2836.50,0.0078
2836.25,0.0077
2836.00,0.0076
2835.75,0.0076
2835.50,0.0076
2835.25,0.0076
2835.00,0.0075
2834.75,0.0074
2834.50,0.0074
2834.25,0.0073
2834.00,0.0073
2833.75,0.0073
2833.50,0.0074
2833.25,0.0074
2833.00,0.0075
2832.75,0.0075
2832.50,0.0076
2832.25,0.0076
2832.00,0.0077
2831.75,0.0078
2831.50,0.0077
2831.25,0.0077
2831.00,0.0076
2830.75,0.0075
2830.50,0.0075
2830.25,0.0075
2830.00,0.0076
2829.75,0.0076
2829.50,0.0077
2829.25,0.0078
2829.00,0.0079
2828.75,0.0078
2828.50,0.0078
2828.25,0.0076
2828.00,0.0075
2827.75,0.0074
2827.50,0.0074
2827.25,0.0074
2827.00,0.0074
2826.75,0.0074
2826.50,0.0074
2826.25,0.0075
2826.00,0.0075
2825.75,0.0076
2825.50,0.0077
2825.25,0.0077
2825.00,0.0077
2824.75,0.0076
2824.50,0.0076
2824.25,0.0075
2824.00,0.0075
2823.75,0.0075
2823.50,0.0075
2823.25,0.0076
2823.00,0.0076
2822.75,0.0075
2822.50,0.0074
2822.25,0.0074
2822.00,0.0074
2821.75,0.0074
2821.50,0.0075
2821.25,0.0076
2821.00,0.0076
2820.75,0.0075
2820.50,0.0074
2820.25,0.0074
2820.00,0.0074
2819.75,0.0074
2819.50,0.0074
2819.25,0.0075
2819.00,0.0076
2818.75,0.0076
2818.50,0.0076
2818.25,0.0075
2818.00,0.0074
2817.75,0.0073
2817.50,0.0072
2817.25,0.0073
2817.00,0.0074
2816.75,0.0075
2816.50,0.0076
2816.25,0.0077
2816.00,0.0076
2815.75,0.0075
2815.50,0.0074
2815.25,0.0075
2815.00,0.0076
2814.75,0.0077
2814.50,0.0078
2814.25,0.0078
2814.00,0.0078
2813.75,0.0078
2813.50,0.0077
2813.25,0.0077
2813.00,0.0076
2812.75,0.0075
2812.50,0.0074
2812.25,0.0072
2812.00,0.0072
2811.75,0.0072
2811.50,0.0073
2811.25,0.0073
2811.00,0.0074
2810.75,0.0074
2810.50,0.0074
2810.25,0.0075
2810.00,0.0076
2809.75,0.0077
2809.50,0.0077
2809.25,0.0077
2809.00,0.0077
2808.75,0.0076
2808.50,0.0075
2808.25,0.0073
2808.00,0.0072
2807.75,0.0072
2807.50,0.0073
2807.25,0.0075
2807.00,0.0076
2806.75,0.0076
2806.50,0.0076
2806.25,0.0076
2806.00,0.0076
2805.75,0.0077
2805.50,0.0077
2805.25,0.0077
2805.00,0.0076
2804.75,0.0075
2804.50,0.0074
2804.25,0.0075
2804.00,0.0075
2803.75,0.0075
2803.50,0.0075
2803.25,0.0074
2803.00,0.0073
2802.75,0.0073
2802.50,0.0074
2802.25,0.0076
2802.00,0.0077
2801.75,0.0078
2801.50,0.0078
2801.25,0.0077
2801.00,0.0076
2800.75,0.0075
2800.50,0.0075
2800.25,0.0075
2800.00,0.0074
2799.75,0.0074
2799.50,0.0073
2799.25,0.0073
2799.00,0.0074
2798.75,0.0074
2798.50,0.0074
2798.25,0.0073
2798.00,0.0073
2797.75,0.0073
2797.50,0.0073
2797.25,0.0074
2797.00,0.0074
2796.75,0.0074
2796.50,0.0074
2796.25,0.0073
2796.00,0.0073
2795.75,0.0073
2795.50,0.0073
2795.25,0.0073
2795.00,0.0073
2794.75,0.0073
2794.50,0.0074
2794.25,0.0075
2794.00,0.0076
2793.75,0.0076
2793.50,0.0076
2793.25,0.0075
2793.00,0.0074
2792.75,0.0074
2792.50,0.0074
2792.25,0.0075
2792.00,0.0075
2791.75,0.0075
2791.50,0.0075
2791.25,0.0076
2791.00,0.0076
2790.75,0.0076
2790.50,0.0075
2790.25,0.0075
2790.00,0.0074
2789.75,0.0074
2789.50,0.0074
2789.25,0.0075
2789.00,0.0076
2788.75,0.0076
2788.50,0.0076
2788.25,0.0076
2788.00,0.0076
2787.75,0.0076
2787.50,0.0075
2787.25,0.0075
2787.00,0.0074
2786.75,0.0074
2786.50,0.0073
2786.25,0.0073
2786.00,0.0072
2785.75,0.0072
2785.50,0.0071
2785.25,0.0071
2785.00,0.0071
2784.75,0.0073
2784.50,0.0075
2784.25,0.0077
2784.00,0.0078
2783.75,0.0078
2783.50,0.0078
2783.25,0.0077
2783.00,0.0076
2782.75,0.0076
2782.50,0.0075
2782.25,0.0074
2782.00,0.0074
2781.75,0.0073
2781.50,0.0073
2781.25,0.0073
2781.00,0.0073
2780.75,0.0074
2780.50,0.0075
2780.25,0.0076
2780.00,0.0077
2779.75,0.0076
2779.50,0.0074
2779.25,0.0072
2779.00,0.0070
2778.75,0.0069
2778.50,0.0070
2778.25,0.0071
2778.00,0.0073
2777.75,0.0074
2777.50,0.0074
2777.25,0.0073
2777.00,0.0073
2776.75,0.0073
2776.50,0.0073
2776.25,0.0073
2776.00,0.0073
2775.75,0.0073
2775.50,0.0074
2775.25,0.0075
2775.00,0.0075
2774.75,0.0074
2774.50,0.0074
2774.25,0.0073
2774.00,0.0073
2773.75,0.0072
2773.50,0.0073
2773.25,0.0073
2773.00,0.0074
2772.75,0.0074
2772.50,0.0075
2772.25,0.0075
2772.00,0.0075
2771.75,0.0074
2771.50,0.0074
2771.25,0.0073
2771.00,0.0072
2770.75,0.0071
2770.50,0.0071
2770.25,0.0071
2770.00,0.0072
2769.75,0.0073
2769.50,0.0074
2769.25,0.0075
2769.00,0.0075
2768.75,0.0075
2768.50,0.0075
2768.25,0.0074
2768.00,0.0073
2767.75,0.0072
2767.50,0.0073
2767.25,0.0073
2767.00,0.0073
2766.75,0.0073
2766.50,0.0073
2766.25,0.0073
2766.00,0.0074
2765.75,0.0074
2765.50,0.0074
2765.25,0.0074
2765.00,0.0074
2764.75,0.0074
2764.50,0.0075
2764.25,0.0075
2764.00,0.0075
2763.75,0.0075
2763.50,0.0075
2763.25,0.0075
2763.00,0.0075
2762.75,0.0074
2762.50,0.0073
2762.25,0.0072
2762.00,0.0072
2761.75,0.0072
2761.50,0.0072
2761.25,0.0072
2761.00,0.0072
2760.75,0.0072
2760.50,0.0072
2760.25,0.0072
2760.00,0.0073
2759.75,0.0072
2759.50,0.0071
2759.25,0.0071
2759.00,0.0070
2758.75,0.0070
2758.50,0.0071
2758.25,0.0072
2758.00,0.0073
2757.75,0.0074
2757.50,0.0074
2757.25,0.0074
2757.00,0.0074
2756.75,0.0073
2756.50,0.0072
2756.25,0.0073
2756.00,0.0074
2755.75,0.0075
2755.50,0.0076
2755.25,0.0076
2755.00,0.0076
2754.75,0.0075
2754.50,0.0075
2754.25,0.0075
2754.00,0.0075
2753.75,0.0074
2753.50,0.0074
2753.25,0.0073
2753.00,0.0073
2752.75,0.0073
2752.50,0.0073
2752.25,0.0073
2752.00,0.0073
2751.75,0.0073
2751.50,0.0074
2751.25,0.0074
2751.00,0.0073
2750.75,0.0072
2750.50,0.0071
2750.25,0.0070
2750.00,0.0070
2749.75,0.0070
2749.50,0.0070
2749.25,0.0070
2749.00,0.0070
2748.75,0.0071
2748.50,0.0072
2748.25,0.0073
2748.00,0.0074
2747.75,0.0074
2747.50,0.0073
2747.25,0.0072
2747.00,0.0072
2746.75,0.0072
2746.50,0.0072
2746.25,0.0072
2746.00,0.0072
2745.75,0.0072
2745.50,0.0072
2745.25,0.0073
2745.00,0.0073
2744.75,0.0073
2744.50,0.0073
2744.25,0.0073
2744.00,0.0071
2743.75,0.0070
2743.50,0.0069
2743.25,0.0069
2743.00,0.0070
2742.75,0.0072
2742.50,0.0073
2742.25,0.0075
2742.00,0.0075
2741.75,0.0075
2741.50,0.0074
2741.25,0.0073
2741.00,0.0071
2740.75,0.0071
2740.50,0.0071
2740.25,0.0072
2740.00,0.0073
2739.75,0.0074
2739.50,0.0074
2739.25,0.0074
2739.00,0.0074
2738.75,0.0073
2738.50,0.0073
2738.25,0.0073
2738.00,0.0074
2737.75,0.0074
2737.50,0.0075
2737.25,0.0075
2737.00,0.0075
2736.75,0.0074
2736.50,0.0074
2736.25,0.0073
2736.00,0.0073
2735.75,0.0073
2735.50,0.0073
2735.25,0.0073
2735.00,0.0073
2734.75,0.0073
2734.50,0.0073
2734.25,0.0073
2734.00,0.0073
2733.75,0.0073
2733.50,0.0072
2733.25,0.0072
2733.00,0.0071
2732.75,0.0071
2732.50,0.0071
2732.25,0.0071
2732.00,0.0072
2731.75,0.0072
2731.50,0.0072
2731.25,0.0072
2731.00,0.0072
2730.75,0.0072
2730.50,0.0072
2730.25,0.0072
2730.00,0.0073
2729.75,0.0074
2729.50,0.0074
2729.25,0.0075
2729.00,0.0075
2728.75,0.0074
2728.50,0.0074
2728.25,0.0073
2728.00,0.0073
2727.75,0.0072
2727.50,0.0072
2727.25,0.0072
2727.00,0.0073
2726.75,0.0075
2726.50,0.0076
2726.25,0.0076
2726.00,0.0075
2725.75,0.0074
2725.50,0.0074
2725.25,0.0074
2725.00,0.0074
2724.75,0.0073
2724.50,0.0072
2724.25,0.0071
2724.00,0.0070
2723.75,0.0069
2723.50,0.0069
2723.25,0.0070
2723.00,0.0071
2722.75,0.0072
2722.50,0.0073
2722.25,0.0074
2722.00,0.0075
2721.75,0.0075
2721.50,0.0075
2721.25,0.0074
2721.00,0.0072
2720.75,0.0072
2720.50,0.0072
2720.25,0.0072
2720.00,0.0072
2719.75,0.0072
2719.50,0.0071
2719.25,0.0071
2719.00,0.0072
2718.75,0.0072
2718.50,0.0073
2718.25,0.0073
2718.00,0.0072
2717.75,0.0071
2717.50,0.0070
2717.25,0.0069
2717.00,0.0069
2716.75,0.0070
2716.50,0.0071
2716.25,0.0072
2716.00,0.0072
2715.75,0.0073
2715.50,0.0073
2715.25,0.0073
2715.00,0.0072
2714.75,0.0072
2714.50,0.0072
2714.25,0.0072
2714.00,0.0073
2713.75,0.0074
2713.50,0.0074
2713.25,0.0075
2713.00,0.0075
2712.75,0.0074
2712.50,0.0073
2712.25,0.0072
2712.00,0.0071
2711.75,0.0070
2711.50,0.0071
2711.25,0.0072
2711.00,0.0073
2710.75,0.0074
2710.50,0.0075
2710.25,0.0074
2710.00,0.0074
2709.75,0.0073
2709.50,0.0073
2709.25,0.0074
2709.00,0.0075
2708.75,0.0075
2708.50,0.0075
2708.25,0.0075
2708.00,0.0073
2707.75,0.0072
2707.50,0.0070
2707.25,0.0070
2707.00,0.0070
2706.75,0.0070
2706.50,0.0071
2706.25,0.0072
2706.00,0.0072
2705.75,0.0072
2705.50,0.0072
2705.25,0.0072
2705.00,0.0072
2704.75,0.0072
2704.50,0.0072
2704.25,0.0072
2704.00,0.0073
2703.75,0.0073
2703.50,0.0074
2703.25,0.0075
2703.00,0.0076
2702.75,0.0076
2702.50,0.0075
2702.25,0.0074
2702.00,0.0072
2701.75,0.0071
2701.50,0.0070
2701.25,0.0070
2701.00,0.0071
2700.75,0.0072
2700.50,0.0072
2700.25,0.0072
2700.00,0.0072
2699.75,0.0072
2699.50,0.0071
2699.25,0.0071
2699.00,0.0072
2698.75,0.0073
2698.50,0.0074
2698.25,0.0075
2698.00,0.0075
2697.75,0.0074
2697.50,0.0073
2697.25,0.0072
2697.00,0.0071
2696.75,0.0071
2696.50,0.0072
2696.25,0.0073
2696.00,0.0073
2695.75,0.0072
2695.50,0.0072
2695.25,0.0072
2695.00,0.0072
2694.75,0.0073
2694.50,0.0074
2694.25,0.0075
2694.00,0.0074
2693.75,0.0074
2693.50,0.0073
2693.25,0.0072
2693.00,0.0072
2692.75,0.0072
2692.50,0.0072
2692.25,0.0072
2692.00,0.0072
2691.75,0.0072
2691.50,0.0071
2691.25,0.0070
2691.00,0.0070
2690.75,0.0069
2690.50,0.0070
2690.25,0.0071
2690.00,0.0072
2689.75,0.0074
2689.50,0.0075
2689.25,0.0076
2689.00,0.0077
2688.75,0.0077
2688.50,0.0077
2688.25,0.0077
2688.00,0.0077
2687.75,0.0077
2687.50,0.0076
2687.25,0.0075
2687.00,0.0075
2686.75,0.0074
2686.50,0.0074
2686.25,0.0075
2686.00,0.0074
2685.75,0.0074
2685.50,0.0073
2685.25,0.0072
2685.00,0.0071
2684.75,0.0070
2684.50,0.0070
2684.25,0.0070
2684.00,0.0071
2683.75,0.0072
2683.50,0.0073
2683.25,0.0073
2683.00,0.0073
2682.75,0.0073
2682.50,0.0073
2682.25,0.0073
2682.00,0.0073
2681.75,0.0073
2681.50,0.0072
2681.25,0.0072
2681.00,0.0071
2680.75,0.0071
2680.50,0.0070
2680.25,0.0070
2680.00,0.0071
2679.75,0.0071
2679.50,0.0072
2679.25,0.0072
2679.00,0.0072
2678.75,0.0071
2678.50,0.0071
2678.25,0.0071
2678.00,0.0072
2677.75,0.0072
2677.50,0.0073
2677.25,0.0073
2677.00,0.0073
2676.75,0.0073
2676.50,0.0073
2676.25,0.0073
2676.00,0.0073
2675.75,0.0073
2675.50,0.0073
2675.25,0.0073
2675.00,0.0073
2674.75,0.0072
2674.50,0.0072
2674.25,0.0071
2674.00,0.0071
2673.75,0.0071
2673.50,0.0072
2673.25,0.0072
2673.00,0.0073
2672.75,0.0073
2672.50,0.0073
2672.25,0.0073
2672.00,0.0072
2671.75,0.0072
2671.50,0.0071
2671.25,0.0071
2671.00,0.0071
2670.75,0.0071
2670.50,0.0072
2670.25,0.0073
2670.00,0.0074
2669.75,0.0074
2669.50,0.0074
2669.25,0.0073
2669.00,0.0072
2668.75,0.0070
2668.50,0.0069
2668.25,0.0069
2668.00,0.0069
2667.75,0.0069
2667.50,0.0070
2667.25,0.0070
2667.00,0.0070
2666.75,0.0070
2666.50,0.0070
2666.25,0.0070
2666.00,0.0070
2665.75,0.0070
2665.50,0.0071
2665.25,0.0073
2665.00,0.0073
2664.75,0.0074
2664.50,0.0073
2664.25,0.0073
2664.00,0.0074
2663.75,0.0074
2663.50,0.0074
2663.25,0.0073
2663.00,0.0073
2662.75,0.0072
2662.50,0.0072
2662.25,0.0073
2662.00,0.0073
2661.75,0.0073
2661.50,0.0073
2661.25,0.0072
2661.00,0.0072
2660.75,0.0071
2660.50,0.0072
2660.25,0.0073
2660.00,0.0074
2659.75,0.0074
2659.50,0.0074
2659.25,0.0073
2659.00,0.0072
2658.75,0.0071
2658.50,0.0071
2658.25,0.0071
2658.00,0.0071
2657.75,0.0072
2657.50,0.0073
2657.25,0.0073
2657.00,0.0074
2656.75,0.0074
2656.50,0.0074
2656.25,0.0073
2656.00,0.0072
2655.75,0.0071
2655.50,0.0071
2655.25,0.0071
2655.00,0.0071
2654.75,0.0071
2654.50,0.0071
2654.25,0.0072
2654.00,0.0073
2653.75,0.0074
2653.50,0.0075
2653.25,0.0075
2653.00,0.0075
2652.75,0.0074
2652.50,0.0073
2652.25,0.0073
2652.00,0.0073
2651.75,0.0073
2651.50,0.0073
2651.25,0.0073
2651.00,0.0073
2650.75,0.0072
2650.50,0.0072
2650.25,0.0072
2650.00,0.0073
2649.75,0.0075
2649.50,0.0076
2649.25,0.0076
2649.00,0.0076
2648.75,0.0075
2648.50,0.0074
2648.25,0.0073
2648.00,0.0073
2647.75,0.0073
2647.50,0.0073
2647.25,0.0074
2647.00,0.0074
2646.75,0.0074
2646.50,0.0074
2646.25,0.0074
2646.00,0.0074
2645.75,0.0073
2645.50,0.0073
2645.25,0.0072
2645.00,0.0072
2644.75,0.0073
2644.50,0.0073
2644.25,0.0073
2644.00,0.0073
2643.75,0.0072
2643.50,0.0072
2643.25,0.0072
2643.00,0.0073
2642.75,0.0075
2642.50,0.0075
2642.25,0.0076
2642.00,0.0075
2641.75,0.0075
2641.50,0.0075
2641.25,0.0074
2641.00,0.0074
2640.75,0.0074
2640.50,0.0074
2640.25,0.0073
2640.00,0.0073
2639.75,0.0073
2639.50,0.0074
2639.25,0.0073
2639.00,0.0073
2638.75,0.0072
2638.50,0.0072
2638.25,0.0073
2638.00,0.0074
2637.75,0.0074
2637.50,0.0074
2637.25,0.0074
2637.00,0.0073
2636.75,0.0072
2636.50,0.0071
2636.25,0.0070
2636.00,0.0069
2635.75,0.0069
2635.50,0.0069
2635.25,0.0070
2635.00,0.0072
2634.75,0.0074
2634.50,0.0074
2634.25,0.0074
2634.00,0.0073
2633.75,0.0072
2633.50,0.0072
2633.25,0.0073
2633.00,0.0075
2632.75,0.0076
2632.50,0.0076
2632.25,0.0076
2632.00,0.0075
2631.75,0.0074
2631.50,0.0073
2631.25,0.0072
2631.00,0.0071
2630.75,0.0071
2630.50,0.0071
2630.25,0.0071
2630.00,0.0071
2629.75,0.0070
2629.50,0.0069
2629.25,0.0070
2629.00,0.0070
2628.75,0.0072
2628.50,0.0072
2628.25,0.0072
2628.00,0.0071
2627.75,0.0071
2627.50,0.0070
2627.25,0.0071
2627.00,0.0072
2626.75,0.0074
2626.50,0.0076
2626.25,0.0078
2626.00,0.0078
2625.75,0.0078
2625.50,0.0076
2625.25,0.0073
2625.00,0.0071
2624.75,0.0070
2624.50,0.0070
2624.25,0.0071
2624.00,0.0073
2623.75,0.0073
2623.50,0.0073
2623.25,0.0072
2623.00,0.0070
2622.75,0.0069
2622.50,0.0069
2622.25,0.0069
2622.00,0.0070
2621.75,0.0071
2621.50,0.0072
2621.25,0.0073
2621.00,0.0074
2620.75,0.0074
2620.50,0.0074
2620.25,0.0074
2620.00,0.0073
2619.75,0.0072
2619.50,0.0071
2619.25,0.0071
2619.00,0.0071
2618.75,0.0071
2618.50,0.0072
2618.25,0.0072
2618.00,0.0074
2617.75,0.0075
2617.50,0.0076
2617.25,0.0076
2617.00,0.0074
2616.75,0.0073
2616.50,0.0071
2616.25,0.0070
2616.00,0.0069
2615.75,0.0069
2615.50,0.0069
2615.25,0.0070
2615.00,0.0071
2614.75,0.0073
2614.50,0.0074
2614.25,0.0074
2614.00,0.0074
2613.75,0.0074
2613.50,0.0073
2613.25,0.0072
2613.00,0.0071
2612.75,0.0070
2612.50,0.0071
2612.25,0.0071
2612.00,0.0071
2611.75,0.0072
2611.50,0.0072
2611.25,0.0072
2611.00,0.0072
2610.75,0.0072
2610.50,0.0073
2610.25,0.0074
2610.00,0.0074
2609.75,0.0075
2609.50,0.0074
2609.25,0.0074
2609.00,0.0074
2608.75,0.0074
2608.50,0.0073
2608.25,0.0071
2608.00,0.0069
2607.75,0.0067
2607.50,0.0067
2607.25,0.0068
2607.00,0.0070
2606.75,0.0072
2606.50,0.0074
2606.25,0.0075
2606.00,0.0075
2605.75,0.0075
2605.50,0.0075
2605.25,0.0075
2605.00,0.0074
2604.75,0.0073
2604.50,0.0072
2604.25,0.0071
2604.00,0.0070
2603.75,0.0069
2603.50,0.0070
2603.25,0.0071
2603.00,0.0072
2602.75,0.0074
2602.50,0.0074
2602.25,0.0074
2602.00,0.0073
2601.75,0.0072
2601.50,0.0071
2601.25,0.0070
2601.00,0.0069
2600.75,0.0069
2600.50,0.0068
2600.25,0.0069
2600.00,0.0069
2599.75,0.0070
2599.50,0.0070
2599.25,0.0069
2599.00,0.0069
2598.75,0.0068
2598.50,0.0067
2598.25,0.0068
2598.00,0.0070
2597.75,0.0072
2597.50,0.0075
2597.25,0.0076
2597.00,0.0076
2596.75,0.0076
2596.50,0.0074
2596.25,0.0073
2596.00,0.0071
2595.75,0.0069
2595.50,0.0068
2595.25,0.0066
2595.00,0.0065
2594.75,0.0065
2594.50,0.0066
2594.25,0.0067
2594.00,0.0068
2593.75,0.0068
2593.50,0.0067
2593.25,0.0067
2593.00,0.0068
2592.75,0.0069
2592.50,0.0071
2592.25,0.0072
2592.00,0.0072
2591.75,0.0071
2591.50,0.0070
2591.25,0.0068
2591.00,0.0068
2590.75,0.0069
2590.50,0.0070
2590.25,0.0072
2590.00,0.0073
2589.75,0.0072
2589.50,0.0072
2589.25,0.0071
2589.00,0.0070
2588.75,0.0070
2588.50,0.0070
2588.25,0.0071
2588.00,0.0072
2587.75,0.0072
2587.50,0.0073
2587.25,0.0072
2587.00,0.0070
2586.75,0.0069
2586.50,0.0067
2586.25,0.0066
2586.00,0.0067
2585.75,0.0067
2585.50,0.0069
2585.25,0.0070
2585.00,0.0070
2584.75,0.0070
2584.50,0.0070
2584.25,0.0069
2584.00,0.0068
2583.75,0.0067
2583.50,0.0067
2583.25,0.0067
2583.00,0.0069
2582.75,0.0070
2582.50,0.0071
2582.25,0.0071
2582.00,0.0069
2581.75,0.0066
2581.50,0.0064
2581.25,0.0064
2581.00,0.0066
2580.75,0.0069
2580.50,0.0072
2580.25,0.0073
2580.00,0.0073
2579.75,0.0072
2579.50,0.0073
2579.25,0.0074
2579.00,0.0075
2578.75,0.0076
2578.50,0.0076
2578.25,0.0076
2578.00,0.0075
2577.75,0.0073
2577.50,0.0071
2577.25,0.0068
2577.00,0.0067
2576.75,0.0067
2576.50,0.0068
2576.25,0.0070
2576.00,0.0072
2575.75,0.0074
2575.50,0.0074
2575.25,0.0074
2575.00,0.0073
2574.75,0.0072
2574.50,0.0070
2574.25,0.0068
2574.00,0.0068
2573.75,0.0069
2573.50,0.0070
2573.25,0.0071
2573.00,0.0072
2572.75,0.0071
2572.50,0.0070
2572.25,0.0068
2572.00,0.0068
2571.75,0.0068
2571.50,0.0068
2571.25,0.0068
2571.00,0.0068
2570.75,0.0068
2570.50,0.0068
2570.25,0.0068
2570.00,0.0068
2569.75,0.0068
2569.50,0.0068
2569.25,0.0069
2569.00,0.0071
2568.75,0.0073
2568.50,0.0074
2568.25,0.0073
2568.00,0.0072
2567.75,0.0070
2567.50,0.0069
2567.25,0.0069
2567.00,0.0068
2566.75,0.0069
2566.50,0.0070
2566.25,0.0071
2566.00,0.0073
2565.75,0.0074
2565.50,0.0073
2565.25,0.0072
2565.00,0.0071
2564.75,0.0071
2564.50,0.0071
2564.25,0.0072
2564.00,0.0073
2563.75,0.0074
2563.50,0.0075
2563.25,0.0075
2563.00,0.0073
2562.75,0.0072
2562.50,0.0070
2562.25,0.0068
2562.00,0.0067
2561.75,0.0067
2561.50,0.0068
2561.25,0.0069
2561.00,0.0070
2560.75,0.0070
2560.50,0.0071
2560.25,0.0070
2560.00,0.0069
2559.75,0.0069
2559.50,0.0070
2559.25,0.0071
2559.00,0.0072
2558.75,0.0072
2558.50,0.0071
2558.25,0.0070
2558.00,0.0070
2557.75,0.0069
2557.50,0.0069
2557.25,0.0068
2557.00,0.0069
2556.75,0.0070
2556.50,0.0072
2556.25,0.0074
2556.00,0.0075
2555.75,0.0077
2555.50,0.0078
2555.25,0.0078
2555.00,0.0077
2554.75,0.0075
2554.50,0.0073
2554.25,0.0070
2554.00,0.0067
2553.75,0.0066
2553.50,0.0065
2553.25,0.0065
2553.00,0.0065
2552.75,0.0065
2552.50,0.0066
2552.25,0.0066
2552.00,0.0066
2551.75,0.0066
2551.50,0.0065
2551.25,0.0065
2551.00,0.0065
2550.75,0.0067
2550.50,0.0069
2550.25,0.0072
2550.00,0.0075
2549.75,0.0076
2549.50,0.0075
2549.25,0.0073
2549.00,0.0070
2548.75,0.0068
2548.50,0.0067
2548.25,0.0067
2548.00,0.0069
2547.75,0.0071
2547.50,0.0072
2547.25,0.0071
2547.00,0.0070
2546.75,0.0069
2546.50,0.0069
2546.25,0.0070
2546.00,0.0072
2545.75,0.0074
2545.50,0.0075
2545.25,0.0074
2545.00,0.0072
2544.75,0.0070
2544.50,0.0067
2544.25,0.0065
2544.00,0.0063
2543.75,0.0062
2543.50,0.0061
2543.25,0.0061
2543.00,0.0061
2542.75,0.0063
2542.50,0.0065
2542.25,0.0067
2542.00,0.0070
2541.75,0.0072
2541.50,0.0073
2541.25,0.0072
2541.00,0.0070
2540.75,0.0068
2540.50,0.0065
2540.25,0.0063
2540.00,0.0062
2539.75,0.0062
2539.50,0.0063
2539.25,0.0064
2539.00,0.0064
2538.75,0.0064
2538.50,0.0064
2538.25,0.0064
2538.00,0.0065
2537.75,0.0066
2537.50,0.0067
2537.25,0.0068
2537.00,0.0070
2536.75,0.0072
2536.50,0.0073
2536.25,0.0074
2536.00,0.0074
2535.75,0.0072
2535.50,0.0070
2535.25,0.0067
2535.00,0.0066
2534.75,0.0066
2534.50,0.0069
2534.25,0.0073
2534.00,0.0076
2533.75,0.0077
2533.50,0.0076
2533.25,0.0073
2533.00,0.0070
2532.75,0.0067
2532.50,0.0065
2532.25,0.0064
2532.00,0.0064
2531.75,0.0064
2531.50,0.0065
2531.25,0.0067
2531.00,0.0069
2530.75,0.0070
2530.50,0.0071
2530.25,0.0070
2530.00,0.0070
2529.75,0.0071
2529.50,0.0072
2529.25,0.0072
2529.00,0.0072
2528.75,0.0071
2528.50,0.0070
2528.25,0.0069
2528.00,0.0068
2527.75,0.0067
2527.50,0.0066
2527.25,0.0065
2527.00,0.0064
2526.75,0.0063
2526.50,0.0063
2526.25,0.0064
2526.00,0.0065
2525.75,0.0066
2525.50,0.0066
2525.25,0.0066
2525.00,0.0067
2524.75,0.0068
2524.50,0.0069
2524.25,0.0069
2524.00,0.0068
2523.75,0.0066
2523.50,0.0063
2523.25,0.0060
2523.00,0.0060
2522.75,0.0060
2522.50,0.0062
2522.25,0.0063
2522.00,0.0064
2521.75,0.0064
2521.50,0.0065
2521.25,0.0065
2521.00,0.0067
2520.75,0.0067
2520.50,0.0067
2520.25,0.0067
2520.00,0.0067
2519.75,0.0068
2519.50,0.0068
2519.25,0.0068
2519.00,0.0067
2518.75,0.0067
2518.50,0.0067
2518.25,0.0068
2518.00,0.0069
2517.75,0.0069
2517.50,0.0069
2517.25,0.0068
2517.00,0.0068
2516.75,0.0067
2516.50,0.0066
2516.25,0.0065
2516.00,0.0063
2515.75,0.0063
2515.50,0.0063
2515.25,0.0064
2515.00,0.0065
2514.75,0.0067
2514.50,0.0068
2514.25,0.0068
2514.00,0.0067
2513.75,0.0067
2513.50,0.0066
2513.25,0.0066
2513.00,0.0066
2512.75,0.0066
2512.50,0.0065
2512.25,0.0065
2512.00,0.0065
2511.75,0.0065
2511.50,0.0064
2511.25,0.0063
2511.00,0.0062
2510.75,0.0061
2510.50,0.0062
2510.25,0.0064
2510.00,0.0068
2509.75,0.0071
2509.50,0.0072
2509.25,0.0072
2509.00,0.0071
2508.75,0.0070
2508.50,0.0070
2508.25,0.0070
2508.00,0.0071
2507.75,0.0071
2507.50,0.0072
2507.25,0.0071
2507.00,0.0069
2506.75,0.0067
2506.50,0.0064
2506.25,0.0063
2506.00,0.0062
2505.75,0.0063
2505.50,0.0063
2505.25,0.0062
2505.00,0.0062
2504.75,0.0062
2504.50,0.0062
2504.25,0.0062
2504.00,0.0062
2503.75,0.0062
2503.50,0.0063
2503.25,0.0065
2503.00,0.0067
2502.75,0.0069
2502.50,0.0069
2502.25,0.0069
2502.00,0.0068
2501.75,0.0067
2501.50,0.0066
2501.25,0.0066
2501.00,0.0066
2500.75,0.0066
2500.50,0.0067
2500.25,0.0068
2500.00,0.0068
2499.75,0.0067
2499.50,0.0067
2499.25,0.0066
2499.00,0.0065
2498.75,0.0064
2498.50,0.0064
2498.25,0.0064
2498.00,0.0064
2497.75,0.0065
2497.50,0.0066
2497.25,0.0067
2497.00,0.0067
2496.75,0.0068
2496.50,0.0067
2496.25,0.0067
2496.00,0.0068
2495.75,0.0069
2495.50,0.0070
2495.25,0.0071
2495.00,0.0071
2494.75,0.0071
2494.50,0.0071
2494.25,0.0071
2494.00,0.0071
2493.75,0.0070
2493.50,0.0069
2493.25,0.0068
2493.00,0.0067
2492.75,0.0066
2492.50,0.0066
2492.25,0.0066
2492.00,0.0065
2491.75,0.0066
2491.50,0.0067
2491.25,0.0069
2491.00,0.0071
2490.75,0.0072
2490.50,0.0071
2490.25,0.0070
2490.00,0.0070
2489.75,0.0070
2489.50,0.0070
2489.25,0.0069
2489.00,0.0068
2488.75,0.0067
2488.50,0.0067
2488.25,0.0069
2488.00,0.0071
2487.75,0.0073
2487.50,0.0072
2487.25,0.0070
2487.00,0.0068
2486.75,0.0066
2486.50,0.0065
2486.25,0.0065
2486.00,0.0065
2485.75,0.0065
2485.50,0.0067
2485.25,0.0069
2485.00,0.0071
2484.75,0.0074
2484.50,0.0076
2484.25,0.0077
2484.00,0.0076
2483.75,0.0074
2483.50,0.0072
2483.25,0.0070
2483.00,0.0069
2482.75,0.0069
2482.50,0.0071
2482.25,0.0072
2482.00,0.0073
2481.75,0.0072
2481.50,0.0070
2481.25,0.0069
2481.00,0.0069
2480.75,0.0071
2480.50,0.0074
2480.25,0.0075
2480.00,0.0075
2479.75,0.0074
2479.50,0.0072
2479.25,0.0070
2479.00,0.0069
2478.75,0.0069
2478.50,0.0069
2478.25,0.0068
2478.00,0.0067
2477.75,0.0065
2477.50,0.0064
2477.25,0.0063
2477.00,0.0063
2476.75,0.0064
2476.50,0.0065
2476.25,0.0066
2476.00,0.0068
2475.75,0.0070
2475.50,0.0072
2475.25,0.0072
2475.00,0.0072
2474.75,0.0070
2474.50,0.0068
2474.25,0.0066
2474.00,0.0065
2473.75,0.0066
2473.50,0.0068
2473.25,0.0070
2473.00,0.0072
2472.75,0.0072
2472.50,0.0072
2472.25,0.0072
2472.00,0.0072
2471.75,0.0072
2471.50,0.0071
2471.25,0.0069
2471.00,0.0067
2470.75,0.0066
2470.50,0.0066
2470.25,0.0067
2470.00,0.0068
2469.75,0.0069
2469.50,0.0070
2469.25,0.0070
2469.00,0.0070
2468.75,0.0069
2468.50,0.0068
2468.25,0.0067
2468.00,0.0067
2467.75,0.0069
2467.50,0.0070
2467.25,0.0072
2467.00,0.0072
2466.75,0.0071
2466.50,0.0069
2466.25,0.0068
2466.00,0.0068
2465.75,0.0068
2465.50,0.0069
2465.25,0.0070
2465.00,0.0071
2464.75,0.0070
2464.50,0.0070
2464.25,0.0069
2464.00,0.0069
2463.75,0.0068
2463.50,0.0067
2463.25,0.0065
2463.00,0.0064
2462.75,0.0062
2462.50,0.0061
2462.25,0.0061
2462.00,0.0063
2461.75,0.0065
2461.50,0.0068
2461.25,0.0070
2461.00,0.0071
2460.75,0.0070
2460.50,0.0068
2460.25,0.0067
2460.00,0.0067
2459.75,0.0067
2459.50,0.0067
2459.25,0.0068
2459.00,0.0068
2458.75,0.0069
2458.50,0.0068
2458.25,0.0068
2458.00,0.0066
2457.75,0.0066
2457.50,0.0066
2457.25,0.0066
2457.00,0.0066
2456.75,0.0066
2456.50,0.0067
2456.25,0.0067
2456.00,0.0067
2455.75,0.0067
2455.50,0.0067
2455.25,0.0067
2455.00,0.0067
2454.75,0.0066
2454.50,0.0065
2454.25,0.0064
2454.00,0.0065
2453.75,0.0067
2453.50,0.0069
2453.25,0.0070
2453.00,0.0069
2452.75,0.0068
2452.50,0.0067
2452.25,0.0068
2452.00,0.0069
2451.75,0.0069
2451.50,0.0069
2451.25,0.0069
2451.00,0.0069
2450.75,0.0072
2450.50,0.0074
2450.25,0.0077
2450.00,0.0078
2449.75,0.0078
2449.50,0.0076
2449.25,0.0072
2449.00,0.0069
2448.75,0.0068
2448.50,0.0069
2448.25,0.0070
2448.00,0.0071
2447.75,0.0070
2447.50,0.0068
2447.25,0.0068
2447.00,0.0069
2446.75,0.0070
2446.50,0.0072
2446.25,0.0072
2446.00,0.0071
2445.75,0.0070
2445.50,0.0068
2445.25,0.0066
2445.00,0.0065
2444.75,0.0065
2444.50,0.0065
2444.25,0.0066
2444.00,0.0067
2443.75,0.0068
2443.50,0.0069
2443.25,0.0068
2443.00,0.0067
2442.75,0.0066
2442.50,0.0066
2442.25,0.0067
2442.00,0.0069
2441.75,0.0072
2441.50,0.0075
2441.25,0.0077
2441.00,0.0079
2440.75,0.0078
2440.50,0.0076
2440.25,0.0073
2440.00,0.0071
2439.75,0.0070
2439.50,0.0070
2439.25,0.0070
2439.00,0.0069
2438.75,0.0068
2438.50,0.0068
2438.25,0.0067
2438.00,0.0068
2437.75,0.0069
2437.50,0.0070
2437.25,0.0071
2437.00,0.0070
2436.75,0.0070
2436.50,0.0070
2436.25,0.0070
2436.00,0.0070
2435.75,0.0070
2435.50,0.0070
2435.25,0.0068
2435.00,0.0066
2434.75,0.0064
2434.50,0.0063
2434.25,0.0063
2434.00,0.0064
2433.75,0.0065
2433.50,0.0066
2433.25,0.0067
2433.00,0.0067
2432.75,0.0067
2432.50,0.0067
2432.25,0.0068
2432.00,0.0068
2431.75,0.0068
2431.50,0.0067
2431.25,0.0066
2431.00,0.0067
2430.75,0.0068
2430.50,0.0070
2430.25,0.0071
2430.00,0.0071
2429.75,0.0071
2429.50,0.0070
2429.25,0.0069
2429.00,0.0069
2428.75,0.0070
2428.50,0.0070
2428.25,0.0070
2428.00,0.0069
2427.75,0.0067
2427.50,0.0066
2427.25,0.0067
2427.00,0.0068
2426.75,0.0069
2426.50,0.0070
2426.25,0.0069
2426.00,0.0069
2425.75,0.0069
2425.50,0.0069
2425.25,0.0070
2425.00,0.0071
2424.75,0.0073
2424.50,0.0073
2424.25,0.0072
2424.00,0.0069
2423.75,0.0066
2423.50,0.0063
2423.25,0.0061
2423.00,0.0060
2422.75,0.0060
2422.50,0.0060
2422.25,0.0061
2422.00,0.0062
2421.75,0.0064
2421.50,0.0065
2421.25,0.0066
2421.00,0.0067
2420.75,0.0066
2420.50,0.0066
2420.25,0.0066
2420.00,0.0068
2419.75,0.0069
2419.50,0.0070
2419.25,0.0069
2419.00,0.0067
2418.75,0.0065
2418.50,0.0064
2418.25,0.0065
2418.00,0.0067
2417.75,0.0070
2417.50,0.0072
2417.25,0.0073
2417.00,0.0073
2416.75,0.0071
2416.50,0.0070
2416.25,0.0069
2416.00,0.0069
2415.75,0.0070
2415.50,0.0071
2415.25,0.0072
2415.00,0.0072
2414.75,0.0072
2414.50,0.0071
2414.25,0.0069
2414.00,0.0068
2413.75,0.0068
2413.50,0.0068
2413.25,0.0069
2413.00,0.0070
2412.75,0.0071
2412.50,0.0072
2412.25,0.0072
2412.00,0.0073
2411.75,0.0074
2411.50,0.0075
2411.25,0.0075
2411.00,0.0074
2410.75,0.0071
2410.50,0.0067
2410.25,0.0065
2410.00,0.0064
2409.75,0.0064
2409.50,0.0065
2409.25,0.0066
2409.00,0.0066
2408.75,0.0067
2408.50,0.0067
2408.25,0.0068
2408.00,0.0069
2407.75,0.0070
2407.50,0.0071
2407.25,0.0072
2407.00,0.0074
2406.75,0.0074
2406.50,0.0074
2406.25,0.0073
2406.00,0.0071
2405.75,0.0069
2405.50,0.0068
2405.25,0.0067
2405.00,0.0068
2404.75,0.0069
2404.50,0.0069
2404.25,0.0069
2404.00,0.0068
2403.75,0.0067
2403.50,0.0067
2403.25,0.0067
2403.00,0.0068
2402.75,0.0068
2402.50,0.0068
2402.25,0.0068
2402.00,0.0068
2401.75,0.0069
2401.50,0.0069
2401.25,0.0071
2401.00,0.0072
2400.75,0.0072
2400.50,0.0072
2400.25,0.0070
2400.00,0.0069
2399.75,0.0068
2399.50,0.0068
2399.25,0.0069
2399.00,0.0070
2398.75,0.0072
2398.50,0.0072
2398.25,0.0072
2398.00,0.0070
2397.75,0.0067
2397.50,0.0064
2397.25,0.0063
2397.00,0.0063
2396.75,0.0064
2396.50,0.0067
2396.25,0.0070
2396.00,0.0072
2395.75,0.0072
2395.50,0.0070
2395.25,0.0067
2395.00,0.0065
2394.75,0.0064
2394.50,0.0064
2394.25,0.0065
2394.00,0.0066
2393.75,0.0068
2393.50,0.0070
2393.25,0.0071
2393.00,0.0072
2392.75,0.0071
2392.50,0.0069
2392.25,0.0068
2392.00,0.0068
2391.75,0.0069
2391.50,0.0069
2391.25,0.0069
2391.00,0.0067
2390.75,0.0065
2390.50,0.0065
2390.25,0.0067
2390.00,0.0069
2389.75,0.0071
2389.50,0.0072
2389.25,0.0072
2389.00,0.0071
2388.75,0.0071
2388.50,0.0071
2388.25,0.0070
2388.00,0.0069
2387.75,0.0067
2387.50,0.0066
2387.25,0.0066
2387.00,0.0067
2386.75,0.0067
2386.50,0.0067
2386.25,0.0066
2386.00,0.0065
2385.75,0.0065
2385.50,0.0064
2385.25,0.0064
2385.00,0.0064
2384.75,0.0064
2384.50,0.0065
2384.25,0.0066
2384.00,0.0067
2383.75,0.0067
2383.50,0.0067
2383.25,0.0066
2383.00,0.0065
2382.75,0.0065
2382.50,0.0065
2382.25,0.0066
2382.00,0.0067
2381.75,0.0069
2381.50,0.0070
2381.25,0.0070
2381.00,0.0068
2380.75,0.0065
2380.50,0.0063
2380.25,0.0060
2380.00,0.0058
2379.75,0.0056
2379.50,0.0055
2379.25,0.0055
2379.00,0.0055
2378.75,0.0056
2378.50,0.0057
2378.25,0.0058
2378.00,0.0058
2377.75,0.0059
2377.50,0.0060
2377.25,0.0061
2377.00,0.0062
2376.75,0.0063
2376.50,0.0064
2376.25,0.0065
2376.00,0.0066
2375.75,0.0066
2375.50,0.0065
2375.25,0.0063
2375.00,0.0060
2374.75,0.0056
2374.50,0.0052
2374.25,0.0050
2374.00,0.0051
2373.75,0.0052
2373.50,0.0053
2373.25,0.0053
2373.00,0.0053
2372.75,0.0054
2372.50,0.0054
2372.25,0.0054
2372.00,0.0055
2371.75,0.0056
2371.50,0.0054
2371.25,0.0052
2371.00,0.0049
2370.75,0.0048
2370.50,0.0049
2370.25,0.0051
2370.00,0.0052
2369.75,0.0053
2369.50,0.0054
2369.25,0.0054
2369.00,0.0052
2368.75,0.0048
2368.50,0.0046
2368.25,0.0045
2368.00,0.0045
2367.75,0.0044
2367.50,0.0045
2367.25,0.0046
2367.00,0.0046
2366.75,0.0043
2366.50,0.0041
2366.25,0.0043
2366.00,0.0050
2365.75,0.0057
2365.50,0.0059
2365.25,0.0055
2365.00,0.0051
2364.75,0.0052
2364.50,0.0056
2364.25,0.0060
2364.00,0.0059
2363.75,0.0053
2363.50,0.0049
2363.25,0.0049
2363.00,0.0051
2362.75,0.0053
2362.50,0.0055
2362.25,0.0056
2362.00,0.0057
2361.75,0.0057
2361.50,0.0055
2361.25,0.0054
2361.00,0.0056
2360.75,0.0063
2360.50,0.0069
2360.25,0.0072
2360.00,0.0068
2359.75,0.0061
2359.50,0.0055
2359.25,0.0054
2359.00,0.0056
2358.75,0.0059
2358.50,0.0060
2358.25,0.0060
2358.00,0.0059
2357.75,0.0059
2357.50,0.0058
2357.25,0.0057
2357.00,0.0057
2356.75,0.0057
2356.50,0.0057
2356.25,0.0057
2356.00,0.0055
2355.75,0.0052
2355.50,0.0051
2355.25,0.0052
2355.00,0.0054
2354.75,0.0056
2354.50,0.0058
2354.25,0.0059
2354.00,0.0060
2353.75,0.0060
2353.50,0.0060
2353.25,0.0058
2353.00,0.0054
2352.75,0.0050
2352.50,0.0050
2352.25,0.0052
2352.00,0.0056
2351.75,0.0059
2351.50,0.0060
2351.25,0.0058
2351.00,0.0057
2350.75,0.0057
2350.50,0.0059
2350.25,0.0060
2350.00,0.0060
2349.75,0.0058
2349.50,0.0056
2349.25,0.0056
2349.00,0.0056
2348.75,0.0057
2348.50,0.0058
2348.25,0.0059
2348.00,0.0060
2347.75,0.0060
2347.50,0.0059
2347.25,0.0057
2347.00,0.0056
2346.75,0.0056
2346.50,0.0058
2346.25,0.0059
2346.00,0.0058
2345.75,0.0058
2345.50,0.0059
2345.25,0.0062
2345.00,0.0065
2344.75,0.0066
2344.50,0.0063
2344.25,0.0056
2344.00,0.0051
2343.75,0.0051
2343.50,0.0054
2343.25,0.0059
2343.00,0.0063
2342.75,0.0063
2342.50,0.0058
2342.25,0.0052
2342.00,0.0051
2341.75,0.0053
2341.50,0.0058
2341.25,0.0062
2341.00,0.0062
2340.75,0.0059
2340.50,0.0057
2340.25,0.0057
2340.00,0.0060
2339.75,0.0065
2339.50,0.0066
2339.25,0.0062
2339.00,0.0056
2338.75,0.0053
2338.50,0.0053
2338.25,0.0055
2338.00,0.0057
2337.75,0.0056
2337.50,0.0051
2337.25,0.0050
2337.00,0.0051
2336.75,0.0055
2336.50,0.0059
2336.25,0.0062
2336.00,0.0061
2335.75,0.0055
2335.50,0.0052
2335.25,0.0052
2335.00,0.0054
2334.75,0.0057
2334.50,0.0059
2334.25,0.0055
2334.00,0.0047
2333.75,0.0042
2333.50,0.0043
2333.25,0.0048
2333.00,0.0054
2332.75,0.0059
2332.50,0.0061
2332.25,0.0058
2332.00,0.0056
2331.75,0.0056
2331.50,0.0058
2331.25,0.0061
2331.00,0.0064
2330.75,0.0064
2330.50,0.0058
2330.25,0.0052
2330.00,0.0050
2329.75,0.0051
2329.50,0.0053
2329.25,0.0056
2329.00,0.0058
2328.75,0.0058
2328.50,0.0058
2328.25,0.0059
2328.00,0.0059
2327.75,0.0058
2327.50,0.0059
2327.25,0.0059
2327.00,0.0058
2326.75,0.0054
2326.50,0.0049
2326.25,0.0048
2326.00,0.0049
2325.75,0.0054
2325.50,0.0061
2325.25,0.0068
2325.00,0.0069
2324.75,0.0064
2324.50,0.0057
2324.25,0.0053
2324.00,0.0053
2323.75,0.0056
2323.50,0.0061
2323.25,0.0063
2323.00,0.0062
2322.75,0.0059
2322.50,0.0059
2322.25,0.0061
2322.00,0.0065
2321.75,0.0068
2321.50,0.0067
2321.25,0.0060
2321.00,0.0049
2320.75,0.0044
2320.50,0.0047
2320.25,0.0054
2320.00,0.0061
2319.75,0.0066
2319.50,0.0068
2319.25,0.0065
2319.00,0.0058
2318.75,0.0053
2318.50,0.0050
2318.25,0.0050
2318.00,0.0051
2317.75,0.0055
2317.50,0.0060
2317.25,0.0065
2317.00,0.0068
2316.75,0.0068
2316.50,0.0066
2316.25,0.0064
2316.00,0.0063
2315.75,0.0064
2315.50,0.0066
2315.25,0.0067
2315.00,0.0065
2314.75,0.0063
2314.50,0.0060
2314.25,0.0059
2314.00,0.0059
2313.75,0.0061
2313.50,0.0061
2313.25,0.0059
2313.00,0.0056
2312.75,0.0054
2312.50,0.0053
2312.25,0.0053
2312.00,0.0054
2311.75,0.0055
2311.50,0.0055
2311.25,0.0055
2311.00,0.0053
2310.75,0.0053
2310.50,0.0053
2310.25,0.0053
2310.00,0.0054
2309.75,0.0054
2309.50,0.0056
2309.25,0.0057
2309.00,0.0058
2308.75,0.0058
2308.50,0.0058
2308.25,0.0059
2308.00,0.0061
2307.75,0.0062
2307.50,0.0061
2307.25,0.0058
2307.00,0.0053
2306.75,0.0051
2306.50,0.0052
2306.25,0.0056
2306.00,0.0061
2305.75,0.0064
2305.50,0.0066
2305.25,0.0065
2305.00,0.0062
2304.75,0.0059
2304.50,0.0057
2304.25,0.0058
2304.00,0.0059
2303.75,0.0062
2303.50,0.0064
2303.25,0.0064
2303.00,0.0065
2302.75,0.0064
2302.50,0.0064
2302.25,0.0064
2302.00,0.0064
2301.75,0.0064
2301.50,0.0064
2301.25,0.0064
2301.00,0.0063
2300.75,0.0062
2300.50,0.0060
2300.25,0.0059
2300.00,0.0058
2299.75,0.0057
2299.50,0.0058
2299.25,0.0058
2299.00,0.0060
2298.75,0.0061
2298.50,0.0063
2298.25,0.0065
2298.00,0.0067
2297.75,0.0067
2297.50,0.0066
2297.25,0.0064
2297.00,0.0061
2296.75,0.0058
2296.50,0.0055
2296.25,0.0054
2296.00,0.0054
2295.75,0.0056
2295.50,0.0059
2295.25,0.0062
2295.00,0.0065
2294.75,0.0066
2294.50,0.0067
2294.25,0.0067
2294.00,0.0066
2293.75,0.0066
2293.50,0.0067
2293.25,0.0067
2293.00,0.0068
2292.75,0.0067
2292.50,0.0066
2292.25,0.0066
2292.00,0.0066
2291.75,0.0067
2291.50,0.0069
2291.25,0.0070
2291.00,0.0070
2290.75,0.0069
2290.50,0.0068
2290.25,0.0067
2290.00,0.0068
2289.75,0.0069
2289.50,0.0069
2289.25,0.0068
2289.00,0.0066
2288.75,0.0065
2288.50,0.0065
2288.25,0.0064
2288.00,0.0063
2287.75,0.0061
2287.50,0.0060
2287.25,0.0059
2287.00,0.0060
2286.75,0.0062
2286.50,0.0062
2286.25,0.0061
2286.00,0.0061
2285.75,0.0062
2285.50,0.0065
2285.25,0.0067
2285.00,0.0068
2284.75,0.0068
2284.50,0.0066
2284.25,0.0064
2284.00,0.0063
2283.75,0.0063
2283.50,0.0063
2283.25,0.0064
2283.00,0.0064
2282.75,0.0064
2282.50,0.0065
2282.25,0.0066
2282.00,0.0067
2281.75,0.0068
2281.50,0.0068
2281.25,0.0068
2281.00,0.0067
2280.75,0.0068
2280.50,0.0068
2280.25,0.0069
2280.00,0.0068
2279.75,0.0066
2279.50,0.0064
2279.25,0.0063
2279.00,0.0063
2278.75,0.0065
2278.50,0.0066
2278.25,0.0066
2278.00,0.0065
2277.75,0.0061
2277.50,0.0058
2277.25,0.0057
2277.00,0.0058
2276.75,0.0062
2276.50,0.0065
2276.25,0.0067
2276.00,0.0066
2275.75,0.0065
2275.50,0.0064
2275.25,0.0064
2275.00,0.0065
2274.75,0.0066
2274.50,0.0068
2274.25,0.0070
2274.00,0.0073
2273.75,0.0075
2273.50,0.0076
2273.25,0.0075
2273.00,0.0072
2272.75,0.0068
2272.50,0.0063
2272.25,0.0059
2272.00,0.0058
2271.75,0.0059
2271.50,0.0062
2271.25,0.0065
2271.00,0.0067
2270.75,0.0066
2270.50,0.0064
2270.25,0.0060
2270.00,0.0057
2269.75,0.0055
2269.50,0.0055
2269.25,0.0056
2269.00,0.0058
2268.75,0.0061
2268.50,0.0062
2268.25,0.0062
2268.00,0.0061
2267.75,0.0060
2267.50,0.0059
2267.25,0.0058
2267.00,0.0058
2266.75,0.0059
2266.50,0.0059
2266.25,0.0060
2266.00,0.0061
2265.75,0.0062
2265.50,0.0062
2265.25,0.0062
2265.00,0.0062
2264.75,0.0063
2264.50,0.0063
2264.25,0.0062
2264.00,0.0062
2263.75,0.0061
2263.50,0.0061
2263.25,0.0061
2263.00,0.0062
2262.75,0.0063
2262.50,0.0064
2262.25,0.0066
2262.00,0.0067
2261.75,0.0068
2261.50,0.0068
2261.25,0.0067
2261.00,0.0066
2260.75,0.0064
2260.50,0.0062
2260.25,0.0059
2260.00,0.0057
2259.75,0.0056
2259.50,0.0057
2259.25,0.0060
2259.00,0.0063
2258.75,0.0065
2258.50,0.0065
2258.25,0.0063
2258.00,0.0061
2257.75,0.0058
2257.50,0.0057
2257.25,0.0056
2257.00,0.0055
2256.75,0.0053
2256.50,0.0052
2256.25,0.0052
2256.00,0.0054
2255.75,0.0057
2255.50,0.0060
2255.25,0.0062
2255.00,0.0064
2254.75,0.0065
2254.50,0.0065
2254.25,0.0065
2254.00,0.0064
2253.75,0.0062
2253.50,0.0060
2253.25,0.0058
2253.00,0.0057
2252.75,0.0055
2252.50,0.0054
2252.25,0.0052
2252.00,0.0052
2251.75,0.0053
2251.50,0.0054
2251.25,0.0056
2251.00,0.0056
2250.75,0.0057
2250.50,0.0059
2250.25,0.0062
2250.00,0.0063
2249.75,0.0064
2249.50,0.0064
2249.25,0.0064
2249.00,0.0063
2248.75,0.0062
2248.50,0.0061
2248.25,0.0059
2248.00,0.0057
2247.75,0.0056
2247.50,0.0054
2247.25,0.0053
2247.00,0.0053
2246.75,0.0054
2246.50,0.0054
2246.25,0.0053
2246.00,0.0052
2245.75,0.0051
2245.50,0.0052
2245.25,0.0054
2245.00,0.0056
2244.75,0.0057
2244.50,0.0059
2244.25,0.0060
2244.00,0.0060
2243.75,0.0060
2243.50,0.0059
2243.25,0.0059
2243.00,0.0058
2242.75,0.0057
2242.50,0.0056
2242.25,0.0055
2242.00,0.0055
2241.75,0.0057
2241.50,0.0059
2241.25,0.0060
2241.00,0.0059
2240.75,0.0056
2240.50,0.0052
2240.25,0.0048
2240.00,0.0046
2239.75,0.0045
2239.50,0.0045
2239.25,0.0046
2239.00,0.0050
2238.75,0.0055
2238.50,0.0060
2238.25,0.0065
2238.00,0.0067
2237.75,0.0068
2237.50,0.0067
2237.25,0.0066
2237.00,0.0065
2236.75,0.0063
2236.50,0.0060
2236.25,0.0056
2236.00,0.0051
2235.75,0.0047
2235.50,0.0045
2235.25,0.0045
2235.00,0.0045
2234.75,0.0046
2234.50,0.0048
2234.25,0.0049
2234.00,0.0051
2233.75,0.0053
2233.50,0.0055
2233.25,0.0059
2233.00,0.0062
2232.75,0.0064
2232.50,0.0064
2232.25,0.0063
2232.00,0.0060
2231.75,0.0058
2231.50,0.0056
2231.25,0.0056
2231.00,0.0058
2230.75,0.0061
2230.50,0.0063
2230.25,0.0065
2230.00,0.0064
2229.75,0.0061
2229.50,0.0057
2229.25,0.0052
2229.00,0.0048
2228.75,0.0044
2228.50,0.0041
2228.25,0.0040
2228.00,0.0042
2227.75,0.0046
2227.50,0.0051
2227.25,0.0055
2227.00,0.0058
2226.75,0.0060
2226.50,0.0062
2226.25,0.0061
2226.00,0.0057
2225.75,0.0053
2225.50,0.0049
2225.25,0.0048
2225.00,0.0050
2224.75,0.0054
2224.50,0.0058
2224.25,0.0058
2224.00,0.0056
2223.75,0.0053
2223.50,0.0051
2223.25,0.0052
2223.00,0.0054
2222.75,0.0057
2222.50,0.0059
2222.25,0.0059
2222.00,0.0057
2221.75,0.0054
2221.50,0.0049
2221.25,0.0045
2221.00,0.0043
2220.75,0.0043
2220.50,0.0045
2220.25,0.0048
2220.00,0.0051
2219.75,0.0054
2219.50,0.0056
2219.25,0.0058
2219.00,0.0058
2218.75,0.0054
2218.50,0.0048
2218.25,0.0041
2218.00,0.0038
2217.75,0.0040
2217.50,0.0045
2217.25,0.0051
2217.00,0.0055
2216.75,0.0055
2216.50,0.0053
2216.25,0.0051
2216.00,0.0050
2215.75,0.0051
2215.50,0.0052
2215.25,0.0054
2215.00,0.0057
2214.75,0.0060
2214.50,0.0063
2214.25,0.0065
2214.00,0.0065
2213.75,0.0063
2213.50,0.0058
2213.25,0.0052
2213.00,0.0045
2212.75,0.0041
2212.50,0.0040
2212.25,0.0042
2212.00,0.0046
2211.75,0.0051
2211.50,0.0056
2211.25,0.0058
2211.00,0.0059
2210.75,0.0059
2210.50,0.0057
2210.25,0.0056
2210.00,0.0055
2209.75,0.0053
2209.50,0.0050
2209.25,0.0046
2209.00,0.0043
2208.75,0.0042
2208.50,0.0043
2208.25,0.0045
2208.00,0.0048
2207.75,0.0052
2207.50,0.0056
2207.25,0.0059
2207.00,0.0062
2206.75,0.0064
2206.50,0.0064
2206.25,0.0063
2206.00,0.0060
2205.75,0.0054
2205.50,0.0048
2205.25,0.0045
2205.00,0.0045
2204.75,0.0048
2204.50,0.0052
2204.25,0.0054
2204.00,0.0052
2203.75,0.0048
2203.50,0.0044
2203.25,0.0042
2203.00,0.0043
2202.75,0.0044
2202.50,0.0046
2202.25,0.0049
2202.00,0.0053
2201.75,0.0057
2201.50,0.0061
2201.25,0.0063
2201.00,0.0063
2200.75,0.0061
2200.50,0.0059
2200.25,0.0058
2200.00,0.0057
2199.75,0.0056
2199.50,0.0054
2199.25,0.0053
2199.00,0.0052
2198.75,0.0051
2198.50,0.0051
2198.25,0.0048
2198.00,0.0045
2197.75,0.0043
2197.50,0.0043
2197.25,0.0045
2197.00,0.0049
2196.75,0.0054
2196.50,0.0057
2196.25,0.0057
2196.00,0.0056
2195.75,0.0052
2195.50,0.0050
2195.25,0.0048
2195.00,0.0049
2194.75,0.0049
2194.50,0.0049
2194.25,0.0049
2194.00,0.0047
2193.75,0.0044
2193.50,0.0041
2193.25,0.0038
2193.00,0.0035
2192.75,0.0031
2192.50,0.0029
2192.25,0.0030
2192.00,0.0035
2191.75,0.0041
2191.50,0.0047
2191.25,0.0050
2191.00,0.0050
2190.75,0.0048
2190.50,0.0047
2190.25,0.0045
2190.00,0.0045
2189.75,0.0046
2189.50,0.0049
2189.25,0.0053
2189.00,0.0056
2188.75,0.0058
2188.50,0.0059
2188.25,0.0061
2188.00,0.0063
2187.75,0.0064
2187.50,0.0063
2187.25,0.0060
2187.00,0.0055
2186.75,0.0052
2186.50,0.0050
2186.25,0.0050
2186.00,0.0048
2185.75,0.0046
2185.50,0.0043
2185.25,0.0042
2185.00,0.0041
2184.75,0.0042
2184.50,0.0043
2184.25,0.0043
2184.00,0.0042
2183.75,0.0041
2183.50,0.0039
2183.25,0.0038
2183.00,0.0039
2182.75,0.0042
2182.50,0.0046
2182.25,0.0047
2182.00,0.0046
2181.75,0.0043
2181.50,0.0040
2181.25,0.0040
2181.00,0.0044
2180.75,0.0048
2180.50,0.0052
2180.25,0.0054
2180.00,0.0055
2179.75,0.0056
2179.50,0.0057
2179.25,0.0058
2179.00,0.0059
2178.75,0.0058
2178.50,0.0056
2178.25,0.0054
2178.00,0.0052
2177.75,0.0051
2177.50,0.0051
2177.25,0.0052
2177.00,0.0053
2176.75,0.0055
2176.50,0.0056
2176.25,0.0056
2176.00,0.0054
2175.75,0.0050
2175.50,0.0046
2175.25,0.0044
2175.00,0.0044
2174.75,0.0045
2174.50,0.0047
2174.25,0.0048
2174.00,0.0046
2173.75,0.0042
2173.50,0.0038
2173.25,0.0036
2173.00,0.0038
2172.75,0.0042
2172.50,0.0046
2172.25,0.0049
2172.00,0.0052
2171.75,0.0053
2171.50,0.0053
2171.25,0.0051
2171.00,0.0048
2170.75,0.0045
2170.50,0.0043
2170.25,0.0044
2170.00,0.0047
2169.75,0.0051
2169.50,0.0056
2169.25,0.0060
2169.00,0.0062
2168.75,0.0061
2168.50,0.0057
2168.25,0.0050
2168.00,0.0044
2167.75,0.0039
2167.50,0.0037
2167.25,0.0037
2167.00,0.0038
2166.75,0.0039
2166.50,0.0040
2166.25,0.0040
2166.00,0.0040
2165.75,0.0039
2165.50,0.0039
2165.25,0.0040
2165.00,0.0044
2164.75,0.0049
2164.50,0.0056
2164.25,0.0060
2164.00,0.0060
2163.75,0.0055
2163.50,0.0048
2163.25,0.0042
2163.00,0.0040
2162.75,0.0041
2162.50,0.0045
2162.25,0.0050
2162.00,0.0052
2161.75,0.0053
2161.50,0.0050
2161.25,0.0045
2161.00,0.0040
2160.75,0.0036
2160.50,0.0035
2160.25,0.0036
2160.00,0.0038
2159.75,0.0040
2159.50,0.0042
2159.25,0.0044
2159.00,0.0047
2158.75,0.0049
2158.50,0.0049
2158.25,0.0047
2158.00,0.0043
2157.75,0.0038
2157.50,0.0033
2157.25,0.0030
2157.00,0.0030
2156.75,0.0032
2156.50,0.0035
2156.25,0.0038
2156.00,0.0039
2155.75,0.0040
2155.50,0.0041
2155.25,0.0042
2155.00,0.0042
2154.75,0.0040
2154.50,0.0037
2154.25,0.0035
2154.00,0.0037
2153.75,0.0042
2153.50,0.0048
2153.25,0.0052
2153.00,0.0054
2152.75,0.0053
2152.50,0.0050
2152.25,0.0046
2152.00,0.0041
2151.75,0.0036
2151.50,0.0035
2151.25,0.0036
2151.00,0.0038
2150.75,0.0040
2150.50,0.0039
2150.25,0.0037
2150.00,0.0036
2149.75,0.0039
2149.50,0.0045
2149.25,0.0052
2149.00,0.0057
2148.75,0.0060
2148.50,0.0060
2148.25,0.0058
2148.00,0.0055
2147.75,0.0051
2147.50,0.0046
2147.25,0.0044
2147.00,0.0043
2146.75,0.0044
2146.50,0.0046
2146.25,0.0049
2146.00,0.0052
2145.75,0.0055
2145.50,0.0058
2145.25,0.0061
2145.00,0.0063
2144.75,0.0061
2144.50,0.0058
2144.25,0.0053
2144.00,0.0049
2143.75,0.0047
2143.50,0.0048
2143.25,0.0051
2143.00,0.0054
2142.75,0.0057
2142.50,0.0059
2142.25,0.0059
2142.00,0.0056
2141.75,0.0051
2141.50,0.0046
2141.25,0.0040
2141.00,0.0037
2140.75,0.0035
2140.50,0.0036
2140.25,0.0039
2140.00,0.0045
2139.75,0.0052
2139.50,0.0057
2139.25,0.0061
2139.00,0.0061
2138.75,0.0060
2138.50,0.0057
2138.25,0.0055
2138.00,0.0054
2137.75,0.0053
2137.50,0.0053
2137.25,0.0052
2137.00,0.0052
2136.75,0.0052
2136.50,0.0053
2136.25,0.0055
2136.00,0.0057
2135.75,0.0056
2135.50,0.0054
2135.25,0.0053
2135.00,0.0053
2134.75,0.0053
2134.50,0.0053
2134.25,0.0053
2134.00,0.0053
2133.75,0.0053
2133.50,0.0055
2133.25,0.0056
2133.00,0.0057
2132.75,0.0057
2132.50,0.0055
2132.25,0.0051
2132.00,0.0050
2131.75,0.0050
2131.50,0.0052
2131.25,0.0055
2131.00,0.0055
2130.75,0.0052
2130.50,0.0049
2130.25,0.0046
2130.00,0.0044
2129.75,0.0045
2129.50,0.0048
2129.25,0.0053
2129.00,0.0059
2128.75,0.0065
2128.50,0.0067
2128.25,0.0066
2128.00,0.0063
2127.75,0.0059
2127.50,0.0058
2127.25,0.0058
2127.00,0.0060
2126.75,0.0060
2126.50,0.0058
2126.25,0.0055
2126.00,0.0053
2125.75,0.0052
2125.50,0.0054
2125.25,0.0055
2125.00,0.0057
2124.75,0.0057
2124.50,0.0057
2124.25,0.0057
2124.00,0.0058
2123.75,0.0059
2123.50,0.0059
2123.25,0.0059
2123.00,0.0059
2122.75,0.0058
2122.50,0.0058
2122.25,0.0061
2122.00,0.0065
2121.75,0.0069
2121.50,0.0072
2121.25,0.0074
2121.00,0.0074
2120.75,0.0070
2120.50,0.0065
2120.25,0.0059
2120.00,0.0055
2119.75,0.0053
2119.50,0.0054
2119.25,0.0056
2119.00,0.0056
2118.75,0.0055
2118.50,0.0052
2118.25,0.0050
2118.00,0.0051
2117.75,0.0054
2117.50,0.0056
2117.25,0.0056
2117.00,0.0054
2116.75,0.0051
2116.50,0.0049
2116.25,0.0049
2116.00,0.0051
2115.75,0.0052
2115.50,0.0054
2115.25,0.0055
2115.00,0.0056
2114.75,0.0059
2114.50,0.0062
2114.25,0.0065
2114.00,0.0066
2113.75,0.0066
2113.50,0.0064
2113.25,0.0061
2113.00,0.0057
2112.75,0.0053
2112.50,0.0050
2112.25,0.0048
2112.00,0.0048
2111.75,0.0050
2111.50,0.0052
2111.25,0.0053
2111.00,0.0053
2110.75,0.0052
2110.50,0.0049
2110.25,0.0048
2110.00,0.0048
2109.75,0.0050
2109.50,0.0052
2109.25,0.0054
2109.00,0.0053
2108.75,0.0051
2108.50,0.0049
2108.25,0.0050
2108.00,0.0054
2107.75,0.0059
2107.50,0.0063
2107.25,0.0066
2107.00,0.0067
2106.75,0.0067
2106.50,0.0066
2106.25,0.0064
2106.00,0.0063
2105.75,0.0061
2105.50,0.0061
2105.25,0.0061
2105.00,0.0062
2104.75,0.0063
2104.50,0.0064
2104.25,0.0065
2104.00,0.0064
2103.75,0.0063
2103.50,0.0061
2103.25,0.0060
2103.00,0.0061
2102.75,0.0063
2102.50,0.0065
2102.25,0.0066
2102.00,0.0066
2101.75,0.0066
2101.50,0.0066
2101.25,0.0067
2101.00,0.0067
2100.75,0.0066
2100.50,0.0062
2100.25,0.0057
2100.00,0.0054
2099.75,0.0053
2099.50,0.0055
2099.25,0.0058
2099.00,0.0060
2098.75,0.0061
2098.50,0.0061
2098.25,0.0059
2098.00,0.0057
2097.75,0.0054
2097.50,0.0051
2097.25,0.0050
2097.00,0.0052
2096.75,0.0054
2096.50,0.0056
2096.25,0.0057
2096.00,0.0057
2095.75,0.0057
2095.50,0.0058
2095.25,0.0060
2095.00,0.0062
2094.75,0.0064
2094.50,0.0065
2094.25,0.0065
2094.00,0.0064
2093.75,0.0062
2093.50,0.0060
2093.25,0.0057
2093.00,0.0055
2092.75,0.0054
2092.50,0.0055
2092.25,0.0056
2092.00,0.0057
2091.75,0.0056
2091.50,0.0054
2091.25,0.0053
2091.00,0.0054
2090.75,0.0057
2090.50,0.0061
2090.25,0.0065
2090.00,0.0066
2089.75,0.0064
2089.50,0.0060
2089.25,0.0057
2089.00,0.0053
2088.75,0.0051
2088.50,0.0051
2088.25,0.0052
2088.00,0.0053
2087.75,0.0054
2087.50,0.0054
2087.25,0.0054
2087.00,0.0055
2086.75,0.0055
2086.50,0.0056
2086.25,0.0055
2086.00,0.0054
2085.75,0.0052
2085.50,0.0052
2085.25,0.0052
2085.00,0.0054
2084.75,0.0055
2084.50,0.0055
2084.25,0.0053
2084.00,0.0051
2083.75,0.0049
2083.50,0.0049
2083.25,0.0049
2083.00,0.0050
2082.75,0.0051
2082.50,0.0052
2082.25,0.0054
2082.00,0.0057
2081.75,0.0061
2081.50,0.0062
2081.25,0.0061
2081.00,0.0059
2080.75,0.0056
2080.50,0.0055
2080.25,0.0056
2080.00,0.0059
2079.75,0.0062
2079.50,0.0064
2079.25,0.0064
2079.00,0.0064
2078.75,0.0062
2078.50,0.0060
2078.25,0.0058
2078.00,0.0057
2077.75,0.0055
2077.50,0.0054
2077.25,0.0052
2077.00,0.0050
2076.75,0.0048
2076.50,0.0046
2076.25,0.0044
2076.00,0.0044
2075.75,0.0046
2075.50,0.0047
2075.25,0.0048
2075.00,0.0047
2074.75,0.0047
2074.50,0.0048
2074.25,0.0051
2074.00,0.0054
2073.75,0.0056
2073.50,0.0056
2073.25,0.0055
2073.00,0.0052
2072.75,0.0050
2072.50,0.0047
2072.25,0.0044
2072.00,0.0042
2071.75,0.0043
2071.50,0.0045
2071.25,0.0049
2071.00,0.0052
2070.75,0.0053
2070.50,0.0053
2070.25,0.0052
2070.00,0.0053
2069.75,0.0055
2069.50,0.0058
2069.25,0.0060
2069.00,0.0061
2068.75,0.0061
2068.50,0.0061
2068.25,0.0059
2068.00,0.0057
2067.75,0.0056
2067.50,0.0056
2067.25,0.0055
2067.00,0.0055
2066.75,0.0055
2066.50,0.0055
2066.25,0.0055
2066.00,0.0054
2065.75,0.0055
2065.50,0.0056
2065.25,0.0059
2065.00,0.0061
2064.75,0.0060
2064.50,0.0058
2064.25,0.0056
2064.00,0.0056
2063.75,0.0056
2063.50,0.0057
2063.25,0.0058
2063.00,0.0057
2062.75,0.0056
2062.50,0.0055
2062.25,0.0053
2062.00,0.0052
2061.75,0.0051
2061.50,0.0050
2061.25,0.0051
2061.00,0.0053
2060.75,0.0057
2060.50,0.0062
2060.25,0.0067
2060.00,0.0070
2059.75,0.0070
2059.50,0.0068
2059.25,0.0063
2059.00,0.0058
2058.75,0.0054
2058.50,0.0052
2058.25,0.0050
2058.00,0.0049
2057.75,0.0047
2057.50,0.0046
2057.25,0.0046
2057.00,0.0047
2056.75,0.0050
2056.50,0.0053
2056.25,0.0057
2056.00,0.0061
2055.75,0.0064
2055.50,0.0065
2055.25,0.0064
2055.00,0.0061
2054.75,0.0058
2054.50,0.0056
2054.25,0.0055
2054.00,0.0055
2053.75,0.0053
2053.50,0.0052
2053.25,0.0052
2053.00,0.0054
2052.75,0.0055
2052.50,0.0055
2052.25,0.0054
2052.00,0.0052
2051.75,0.0051
2051.50,0.0053
2051.25,0.0056
2051.00,0.0058
2050.75,0.0060
2050.50,0.0059
2050.25,0.0057
2050.00,0.0053
2049.75,0.0047
2049.50,0.0042
2049.25,0.0039
2049.00,0.0039
2048.75,0.0041
2048.50,0.0043
2048.25,0.0044
2048.00,0.0045
2047.75,0.0047
2047.50,0.0050
2047.25,0.0052
2047.00,0.0052
2046.75,0.0053
2046.50,0.0054
2046.25,0.0058
2046.00,0.0061
2045.75,0.0062
2045.50,0.0060
2045.25,0.0056
2045.00,0.0052
2044.75,0.0050
2044.50,0.0049
2044.25,0.0049
2044.00,0.0049
2043.75,0.0048
2043.50,0.0046
2043.25,0.0044
2043.00,0.0042
2042.75,0.0041
2042.50,0.0041
2042.25,0.0042
2042.00,0.0044
2041.75,0.0046
2041.50,0.0049
2041.25,0.0051
2041.00,0.0052
2040.75,0.0050
2040.50,0.0046
2040.25,0.0041
2040.00,0.0040
2039.75,0.0042
2039.50,0.0048
2039.25,0.0054
2039.00,0.0058
2038.75,0.0058
2038.50,0.0053
2038.25,0.0048
2038.00,0.0045
2037.75,0.0046
2037.50,0.0050
2037.25,0.0055
2037.00,0.0059
2036.75,0.0061
2036.50,0.0058
2036.25,0.0054
2036.00,0.0049
2035.75,0.0046
2035.50,0.0046
2035.25,0.0047
2035.00,0.0049
2034.75,0.0050
2034.50,0.0049
2034.25,0.0047
2034.00,0.0045
2033.75,0.0044
2033.50,0.0044
2033.25,0.0045
2033.00,0.0046
2032.75,0.0047
2032.50,0.0046
2032.25,0.0044
2032.00,0.0042
2031.75,0.0041
2031.50,0.0040
2031.25,0.0040
2031.00,0.0040
2030.75,0.0040
2030.50,0.0041
2030.25,0.0041
2030.00,0.0042
2029.75,0.0043
2029.50,0.0043
2029.25,0.0042
2029.00,0.0040
2028.75,0.0039
2028.50,0.0040
2028.25,0.0042
2028.00,0.0044
2027.75,0.0046
2027.50,0.0046
2027.25,0.0046
2027.00,0.0045
2026.75,0.0043
2026.50,0.0040
2026.25,0.0037
2026.00,0.0035
2025.75,0.0033
2025.50,0.0031
2025.25,0.0030
2025.00,0.0030
2024.75,0.0031
2024.50,0.0035
2024.25,0.0039
2024.00,0.0042
2023.75,0.0043
2023.50,0.0044
2023.25,0.0044
2023.00,0.0041
2022.75,0.0038
2022.50,0.0035
2022.25,0.0034
2022.00,0.0036
2021.75,0.0039
2021.50,0.0042
2021.25,0.0043
2021.00,0.0043
2020.75,0.0044
2020.50,0.0046
2020.25,0.0049
2020.00,0.0052
2019.75,0.0052
2019.50,0.0051
2019.25,0.0050
2019.00,0.0051
2018.75,0.0053
2018.50,0.0054
2018.25,0.0053
2018.00,0.0052
2017.75,0.0052
2017.50,0.0053
2017.25,0.0054
2017.00,0.0053
2016.75,0.0049
2016.50,0.0047
2016.25,0.0047
2016.00,0.0051
2015.75,0.0055
2015.50,0.0057
2015.25,0.0055
2015.00,0.0050
2014.75,0.0045
2014.50,0.0042
2014.25,0.0042
2014.00,0.0043
2013.75,0.0044
2013.50,0.0044
2013.25,0.0043
2013.00,0.0044
2012.75,0.0046
2012.50,0.0052
2012.25,0.0058
2012.00,0.0063
2011.75,0.0067
2011.50,0.0067
2011.25,0.0065
2011.00,0.0060
2010.75,0.0053
2010.50,0.0048
2010.25,0.0046
2010.00,0.0047
2009.75,0.0050
2009.50,0.0052
2009.25,0.0051
2009.00,0.0047
2008.75,0.0044
2008.50,0.0043
2008.25,0.0046
2008.00,0.0052
2007.75,0.0059
2007.50,0.0064
2007.25,0.0065
2007.00,0.0062
2006.75,0.0056
2006.50,0.0051
2006.25,0.0048
2006.00,0.0048
2005.75,0.0048
2005.50,0.0047
2005.25,0.0045
2005.00,0.0042
2004.75,0.0040
2004.50,0.0039
2004.25,0.0041
2004.00,0.0043
2003.75,0.0044
2003.50,0.0045
2003.25,0.0045
2003.00,0.0046
2002.75,0.0047
2002.50,0.0048
2002.25,0.0047
2002.00,0.0045
2001.75,0.0043
2001.50,0.0042
2001.25,0.0043
2001.00,0.0047
2000.75,0.0051
2000.50,0.0054
2000.25,0.0054
2000.00,0.0053
1999.75,0.0052
1999.50,0.0052
1999.25,0.0054
1999.00,0.0057
1998.75,0.0059
1998.50,0.0060
1998.25,0.0059
1998.00,0.0057
1997.75,0.0054
1997.50,0.0049
1997.25,0.0046
1997.00,0.0044
1996.75,0.0043
1996.50,0.0044
1996.25,0.0044
1996.00,0.0044
1995.75,0.0043
1995.50,0.0043
1995.25,0.0045
1995.00,0.0048
1994.75,0.0051
1994.50,0.0055
1994.25,0.0056
1994.00,0.0054
1993.75,0.0051
1993.50,0.0047
1993.25,0.0044
1993.00,0.0044
1992.75,0.0046
1992.50,0.0049
1992.25,0.0050
1992.00,0.0051
1991.75,0.0051
1991.50,0.0052
1991.25,0.0054
1991.00,0.0057
1990.75,0.0059
1990.50,0.0060
1990.25,0.0059
1990.00,0.0057
1989.75,0.0056
1989.50,0.0055
1989.25,0.0055
1989.00,0.0055
1988.75,0.0054
1988.50,0.0051
1988.25,0.0045
1988.00,0.0037
1987.75,0.0031
1987.50,0.0029
1987.25,0.0033
1987.00,0.0041
1986.75,0.0049
1986.50,0.0054
1986.25,0.0057
1986.00,0.0058
1985.75,0.0058
1985.50,0.0058
1985.25,0.0057
1985.00,0.0054
1984.75,0.0052
1984.50,0.0049
1984.25,0.0046
1984.00,0.0045
1983.75,0.0045
1983.50,0.0046
1983.25,0.0045
1983.00,0.0043
1982.75,0.0041
1982.50,0.0041
1982.25,0.0042
1982.00,0.0045
1981.75,0.0046
1981.50,0.0045
1981.25,0.0043
1981.00,0.0041
1980.75,0.0041
1980.50,0.0042
1980.25,0.0043
1980.00,0.0045
1979.75,0.0048
1979.50,0.0052
1979.25,0.0056
1979.00,0.0059
1978.75,0.0058
1978.50,0.0054
1978.25,0.0049
1978.00,0.0042
1977.75,0.0036
1977.50,0.0032
1977.25,0.0032
1977.00,0.0038
1976.75,0.0046
1976.50,0.0056
1976.25,0.0061
1976.00,0.0062
1975.75,0.0058
1975.50,0.0052
1975.25,0.0049
1975.00,0.0051
1974.75,0.0057
1974.50,0.0063
1974.25,0.0067
1974.00,0.0066
1973.75,0.0062
1973.50,0.0057
1973.25,0.0054
1973.00,0.0051
1972.75,0.0048
1972.50,0.0043
1972.25,0.0039
1972.00,0.0036
1971.75,0.0037
1971.50,0.0039
1971.25,0.0042
1971.00,0.0044
1970.75,0.0044
1970.50,0.0044
1970.25,0.0044
1970.00,0.0045
1969.75,0.0047
1969.50,0.0047
1969.25,0.0043
1969.00,0.0039
1968.75,0.0037
1968.50,0.0040
1968.25,0.0047
1968.00,0.0053
1967.75,0.0056
1967.50,0.0055
1967.25,0.0052
1967.00,0.0051
1966.75,0.0053
1966.50,0.0055
1966.25,0.0057
1966.00,0.0057
1965.75,0.0054
1965.50,0.0050
1965.25,0.0046
1965.00,0.0044
1964.75,0.0042
1964.50,0.0042
1964.25,0.0043
1964.00,0.0045
1963.75,0.0047
1963.50,0.0048
1963.25,0.0049
1963.00,0.0049
1962.75,0.0051
1962.50,0.0054
1962.25,0.0059
1962.00,0.0063
1961.75,0.0063
1961.50,0.0061
1961.25,0.0059
1961.00,0.0057
1960.75,0.0057
1960.50,0.0058
1960.25,0.0057
1960.00,0.0055
1959.75,0.0051
1959.50,0.0049
1959.25,0.0048
1959.00,0.0051
1958.75,0.0055
1958.50,0.0058
1958.25,0.0058
1958.00,0.0054
1957.75,0.0049
1957.50,0.0047
1957.25,0.0047
1957.00,0.0050
1956.75,0.0052
1956.50,0.0053
1956.25,0.0054
1956.00,0.0053
1955.75,0.0053
1955.50,0.0052
1955.25,0.0052
1955.00,0.0053
1954.75,0.0056
1954.50,0.0057
1954.25,0.0057
1954.00,0.0054
1953.75,0.0052
1953.50,0.0051
1953.25,0.0053
1953.00,0.0056
1952.75,0.0058
1952.50,0.0057
1952.25,0.0053
1952.00,0.0047
1951.75,0.0042
1951.50,0.0040
1951.25,0.0041
1951.00,0.0044
1950.75,0.0048
1950.50,0.0053
1950.25,0.0058
1950.00,0.0061
1949.75,0.0063
1949.50,0.0062
1949.25,0.0060
1949.00,0.0059
1948.75,0.0058
1948.50,0.0056
1948.25,0.0054
1948.00,0.0053
1947.75,0.0054
1947.50,0.0056
1947.25,0.0058
1947.00,0.0060
1946.75,0.0061
1946.50,0.0062
1946.25,0.0065
1946.00,0.0069
1945.75,0.0073
1945.50,0.0073
1945.25,0.0070
1945.00,0.0065
1944.75,0.0059
1944.50,0.0056
1944.25,0.0054
1944.00,0.0054
1943.75,0.0056
1943.50,0.0057
1943.25,0.0058
1943.00,0.0059
1942.75,0.0060
1942.50,0.0060
1942.25,0.0059
1942.00,0.0057
1941.75,0.0055
1941.50,0.0053
1941.25,0.0052
1941.00,0.0052
1940.75,0.0053
1940.50,0.0055
1940.25,0.0057
1940.00,0.0059
1939.75,0.0060
1939.50,0.0061
1939.25,0.0063
1939.00,0.0065
1938.75,0.0067
1938.50,0.0068
1938.25,0.0068
1938.00,0.0066
1937.75,0.0063
1937.50,0.0059
1937.25,0.0056
1937.00,0.0054
1936.75,0.0053
1936.50,0.0053
1936.25,0.0054
1936.00,0.0054
1935.75,0.0054
1935.50,0.0053
1935.25,0.0052
1935.00,0.0052
1934.75,0.0054
1934.50,0.0058
1934.25,0.0061
1934.00,0.0062
1933.75,0.0061
1933.50,0.0059
1933.25,0.0057
1933.00,0.0056
1932.75,0.0056
1932.50,0.0056
1932.25,0.0056
1932.00,0.0056
1931.75,0.0057
1931.50,0.0058
1931.25,0.0058
1931.00,0.0058
1930.75,0.0057
1930.50,0.0057
1930.25,0.0056
1930.00,0.0057
1929.75,0.0058
1929.50,0.0061
1929.25,0.0063
1929.00,0.0066
1928.75,0.0066
1928.50,0.0065
1928.25,0.0063
1928.00,0.0062
1927.75,0.0062
1927.50,0.0064
1927.25,0.0065
1927.00,0.0066
1926.75,0.0065
1926.50,0.0063
1926.25,0.0061
1926.00,0.0057
1925.75,0.0055
1925.50,0.0055
1925.25,0.0057
1925.00,0.0059
1924.75,0.0060
1924.50,0.0060
1924.25,0.0060
1924.00,0.0059
1923.75,0.0060
1923.50,0.0062
1923.25,0.0063
1923.00,0.0062
1922.75,0.0059
1922.50,0.0056
1922.25,0.0054
1922.00,0.0054
1921.75,0.0055
1921.50,0.0056
1921.25,0.0056
1921.00,0.0056
1920.75,0.0056
1920.50,0.0057
1920.25,0.0060
1920.00,0.0064
1919.75,0.0067
1919.50,0.0069
1919.25,0.0067
1919.00,0.0063
1918.75,0.0058
1918.50,0.0053
1918.25,0.0051
1918.00,0.0052
1917.75,0.0055
1917.50,0.0057
1917.25,0.0058
1917.00,0.0058
1916.75,0.0057
1916.50,0.0057
1916.25,0.0057
1916.00,0.0059
1915.75,0.0061
1915.50,0.0064
1915.25,0.0066
1915.00,0.0067
1914.75,0.0067
1914.50,0.0067
1914.25,0.0066
1914.00,0.0065
1913.75,0.0065
1913.50,0.0064
1913.25,0.0063
1913.00,0.0062
1912.75,0.0062
1912.50,0.0063
1912.25,0.0065
1912.00,0.0068
1911.75,0.0069
1911.50,0.0068
1911.25,0.0066
1911.00,0.0064
1910.75,0.0063
1910.50,0.0063
1910.25,0.0064
1910.00,0.0065
1909.75,0.0063
1909.50,0.0061
1909.25,0.0059
1909.00,0.0059
1908.75,0.0060
1908.50,0.0064
1908.25,0.0067
1908.00,0.0070
1907.75,0.0071
1907.50,0.0070
1907.25,0.0068
1907.00,0.0066
1906.75,0.0064
1906.50,0.0063
1906.25,0.0062
1906.00,0.0061
1905.75,0.0060
1905.50,0.0059
1905.25,0.0059
1905.00,0.0060
1904.75,0.0060
1904.50,0.0060
1904.25,0.0060
1904.00,0.0061
1903.75,0.0062
1903.50,0.0063
1903.25,0.0064
1903.00,0.0066
1902.75,0.0067
1902.50,0.0068
1902.25,0.0068
1902.00,0.0066
1901.75,0.0062
1901.50,0.0059
1901.25,0.0057
1901.00,0.0058
1900.75,0.0060
1900.50,0.0063
1900.25,0.0065
1900.00,0.0067
1899.75,0.0067
1899.50,0.0067
1899.25,0.0067
1899.00,0.0067
1898.75,0.0067
1898.50,0.0067
1898.25,0.0067
1898.00,0.0067
1897.75,0.0067
1897.50,0.0067
1897.25,0.0066
1897.00,0.0065
1896.75,0.0064
1896.50,0.0064
1896.25,0.0066
1896.00,0.0068
1895.75,0.0071
1895.50,0.0074
1895.25,0.0075
1895.00,0.0073
1894.75,0.0070
1894.50,0.0067
1894.25,0.0064
1894.00,0.0063
1893.75,0.0063
1893.50,0.0064
1893.25,0.0065
1893.00,0.0066
1892.75,0.0066
1892.50,0.0067
1892.25,0.0068
1892.00,0.0070
1891.75,0.0072
1891.50,0.0074
1891.25,0.0073
1891.00,0.0071
1890.75,0.0068
1890.50,0.0064
1890.25,0.0061
1890.00,0.0059
1889.75,0.0058
1889.50,0.0059
1889.25,0.0061
1889.00,0.0063
1888.75,0.0064
1888.50,0.0065
1888.25,0.0066
1888.00,0.0067
1887.75,0.0067
1887.50,0.0066
1887.25,0.0064
1887.00,0.0063
1886.75,0.0064
1886.50,0.0066
1886.25,0.0068
1886.00,0.0069
1885.75,0.0067
1885.50,0.0065
1885.25,0.0063
1885.00,0.0062
1884.75,0.0063
1884.50,0.0063
1884.25,0.0063
1884.00,0.0063
1883.75,0.0063
1883.50,0.0063
1883.25,0.0062
1883.00,0.0061
1882.75,0.0060
1882.50,0.0060
1882.25,0.0061
1882.00,0.0063
1881.75,0.0064
1881.50,0.0065
1881.25,0.0064
1881.00,0.0063
1880.75,0.0061
1880.50,0.0061
1880.25,0.0062
1880.00,0.0065
1879.75,0.0068
1879.50,0.0070
1879.25,0.0071
1879.00,0.0071
1878.75,0.0071
1878.50,0.0070
1878.25,0.0070
1878.00,0.0069
1877.75,0.0068
1877.50,0.0067
1877.25,0.0065
1877.00,0.0064
1876.75,0.0063
1876.50,0.0063
1876.25,0.0064
1876.00,0.0064
1875.75,0.0063
1875.50,0.0061
1875.25,0.0061
1875.00,0.0061
1874.75,0.0062
1874.50,0.0063
1874.25,0.0064
1874.00,0.0064
1873.75,0.0064
1873.50,0.0064
1873.25,0.0065
1873.00,0.0067
1872.75,0.0069
1872.50,0.0070
1872.25,0.0069
1872.00,0.0068
1871.75,0.0065
1871.50,0.0063
1871.25,0.0062
1871.00,0.0063
1870.75,0.0064
1870.50,0.0066
1870.25,0.0068
1870.00,0.0070
1869.75,0.0070
1869.50,0.0069
1869.25,0.0070
1869.00,0.0070
1868.75,0.0071
1868.50,0.0070
1868.25,0.0069
1868.00,0.0067
1867.75,0.0066
1867.50,0.0066
1867.25,0.0066
1867.00,0.0066
1866.75,0.0067
1866.50,0.0068
1866.25,0.0069
1866.00,0.0069
1865.75,0.0069
1865.50,0.0069
1865.25,0.0070
1865.00,0.0071
1864.75,0.0072
1864.50,0.0072
1864.25,0.0072
1864.00,0.0071
1863.75,0.0070
1863.50,0.0069
1863.25,0.0069
1863.00,0.0070
1862.75,0.0070
1862.50,0.0069
1862.25,0.0067
1862.00,0.0064
1861.75,0.0062
1861.50,0.0062
1861.25,0.0063
1861.00,0.0065
1860.75,0.0068
1860.50,0.0069
1860.25,0.0070
1860.00,0.0069
1859.75,0.0069
1859.50,0.0070
1859.25,0.0072
1859.00,0.0074
1858.75,0.0075
1858.50,0.0074
1858.25,0.0071
1858.00,0.0066
1857.75,0.0062
1857.50,0.0058
1857.25,0.0056
1857.00,0.0056
1856.75,0.0058
1856.50,0.0062
1856.25,0.0066
1856.00,0.0069
1855.75,0.0071
1855.50,0.0073
1855.25,0.0074
1855.00,0.0074
1854.75,0.0073
1854.50,0.0071
1854.25,0.0068
1854.00,0.0067
1853.75,0.0066
1853.50,0.0067
1853.25,0.0068
1853.00,0.0069
1852.75,0.0070
1852.50,0.0071
1852.25,0.0070
1852.00,0.0069
1851.75,0.0067
1851.50,0.0067
1851.25,0.0068
1851.00,0.0069
1850.75,0.0070
1850.50,0.0071
1850.25,0.0071
1850.00,0.0072
1849.75,0.0072
1849.50,0.0072
1849.25,0.0072
1849.00,0.0070
1848.75,0.0068
1848.50,0.0067
1848.25,0.0067
1848.00,0.0066
1847.75,0.0065
1847.50,0.0063
1847.25,0.0060
1847.00,0.0059
1846.75,0.0060
1846.50,0.0063
1846.25,0.0066
1846.00,0.0069
1845.75,0.0070
1845.50,0.0070
1845.25,0.0070
1845.00,0.0070
1844.75,0.0070
1844.50,0.0071
1844.25,0.0072
1844.00,0.0072
1843.75,0.0072
1843.50,0.0072
1843.25,0.0072
1843.00,0.0072
1842.75,0.0071
1842.50,0.0070
1842.25,0.0069
1842.00,0.0068
1841.75,0.0067
1841.50,0.0066
1841.25,0.0067
1841.00,0.0069
1840.75,0.0071
1840.50,0.0073
1840.25,0.0075
1840.00,0.0077
1839.75,0.0077
1839.50,0.0077
1839.25,0.0075
1839.00,0.0073
1838.75,0.0071
1838.50,0.0070
1838.25,0.0070
1838.00,0.0069
1837.75,0.0068
1837.50,0.0066
1837.25,0.0065
1837.00,0.0065
1836.75,0.0066
1836.50,0.0067
1836.25,0.0069
1836.00,0.0070
1835.75,0.0071
1835.50,0.0072
1835.25,0.0072
1835.00,0.0072
1834.75,0.0071
1834.50,0.0069
1834.25,0.0067
1834.00,0.0065
1833.75,0.0064
1833.50,0.0065
1833.25,0.0067
1833.00,0.0069
1832.75,0.0072
1832.50,0.0073
1832.25,0.0074
1832.00,0.0075
1831.75,0.0074
1831.50,0.0073
1831.25,0.0072
1831.00,0.0071
1830.75,0.0071
1830.50,0.0071
1830.25,0.0071
1830.00,0.0071
1829.75,0.0072
1829.50,0.0073
1829.25,0.0075
1829.00,0.0077
1828.75,0.0077
1828.50,0.0075
1828.25,0.0073
1828.00,0.0071
1827.75,0.0069
1827.50,0.0069
1827.25,0.0069
1827.00,0.0071
1826.75,0.0072
1826.50,0.0073
1826.25,0.0073
1826.00,0.0072
1825.75,0.0071
1825.50,0.0071
1825.25,0.0071
1825.00,0.0071
1824.75,0.0071
1824.50,0.0071
1824.25,0.0071
1824.00,0.0071
1823.75,0.0071
1823.50,0.0070
1823.25,0.0069
1823.00,0.0069
1822.75,0.0071
1822.50,0.0072
1822.25,0.0074
1822.00,0.0074
1821.75,0.0074
1821.50,0.0073
1821.25,0.0073
1821.00,0.0072
1820.75,0.0073
1820.50,0.0073
1820.25,0.0073
1820.00,0.0072
1819.75,0.0071
1819.50,0.0069
1819.25,0.0067
1819.00,0.0066
1818.75,0.0067
1818.50,0.0068
1818.25,0.0069
1818.00,0.0070
1817.75,0.0069
1817.50,0.0068
1817.25,0.0066
1817.00,0.0065
1816.75,0.0066
1816.50,0.0068
1816.25,0.0070
1816.00,0.0072
1815.75,0.0072
1815.50,0.0073
1815.25,0.0073
1815.00,0.0074
1814.75,0.0074
1814.50,0.0074
1814.25,0.0073
1814.00,0.0072
1813.75,0.0072
1813.50,0.0073
1813.25,0.0073
1813.00,0.0074
1812.75,0.0074
1812.50,0.0074
1812.25,0.0073
1812.00,0.0074
1811.75,0.0074
1811.50,0.0075
1811.25,0.0075
1811.00,0.0074
1810.75,0.0074
1810.50,0.0073
1810.25,0.0072
1810.00,0.0071
1809.75,0.0070
1809.50,0.0070
1809.25,0.0071
1809.00,0.0072
1808.75,0.0072
1808.50,0.0072
1808.25,0.0072
1808.00,0.0071
1807.75,0.0070
1807.50,0.0069
1807.25,0.0068
1807.00,0.0067
1806.75,0.0067
1806.50,0.0067
1806.25,0.0069
1806.00,0.0070
1805.75,0.0071
1805.50,0.0072
1805.25,0.0072
1805.00,0.0071
1804.75,0.0071
1804.50,0.0071
1804.25,0.0071
1804.00,0.0072
1803.75,0.0073
1803.50,0.0073
1803.25,0.0071
1803.00,0.0069
1802.75,0.0067
1802.50,0.0066
1802.25,0.0067
1802.00,0.0068
1801.75,0.0069
1801.50,0.0069
1801.25,0.0068
1801.00,0.0067
1800.75,0.0068
1800.50,0.0069
1800.25,0.0072
1800.00,0.0074
1799.75,0.0076
1799.50,0.0077
1799.25,0.0075
1799.00,0.0072
1798.75,0.0070
1798.50,0.0069
1798.25,0.0069
1798.00,0.0070
1797.75,0.0071
1797.50,0.0071
1797.25,0.0071
1797.00,0.0070
1796.75,0.0071
1796.50,0.0071
1796.25,0.0072
1796.00,0.0073
1795.75,0.0074
1795.50,0.0074
1795.25,0.0074
1795.00,0.0073
1794.75,0.0071
1794.50,0.0069
1794.25,0.0068
1794.00,0.0067
1793.75,0.0067
1793.50,0.0067
1793.25,0.0068
1793.00,0.0069
1792.75,0.0072
1792.50,0.0074
1792.25,0.0075
1792.00,0.0075
1791.75,0.0075
1791.50,0.0074
1791.25,0.0073
1791.00,0.0071
1790.75,0.0071
1790.50,0.0071
1790.25,0.0073
1790.00,0.0074
1789.75,0.0075
1789.50,0.0076
1789.25,0.0077
1789.00,0.0076
1788.75,0.0076
1788.50,0.0074
1788.25,0.0073
1788.00,0.0071
1787.75,0.0070
1787.50,0.0069
1787.25,0.0069
1787.00,0.0070
1786.75,0.0072
1786.50,0.0074
1786.25,0.0075
1786.00,0.0076
1785.75,0.0076
1785.50,0.0075
1785.25,0.0074
1785.00,0.0073
1784.75,0.0072
1784.50,0.0072
1784.25,0.0073
1784.00,0.0075
1783.75,0.0076
1783.50,0.0076
1783.25,0.0075
1783.00,0.0074
1782.75,0.0074
1782.50,0.0074
1782.25,0.0075
1782.00,0.0075
1781.75,0.0074
1781.50,0.0072
1781.25,0.0071
1781.00,0.0072
1780.75,0.0074
1780.50,0.0075
1780.25,0.0075
1780.00,0.0073
1779.75,0.0072
1779.50,0.0071
1779.25,0.0072
1779.00,0.0073
1778.75,0.0074
1778.50,0.0075
1778.25,0.0075
1778.00,0.0075
1777.75,0.0075
1777.50,0.0075
1777.25,0.0075
1777.00,0.0075
1776.75,0.0076
1776.50,0.0077
1776.25,0.0077
1776.00,0.0076
1775.75,0.0075
1775.50,0.0075
1775.25,0.0074
1775.00,0.0073
1774.75,0.0072
1774.50,0.0072
1774.25,0.0072
1774.00,0.0072
1773.75,0.0072
1773.50,0.0072
1773.25,0.0073
1773.00,0.0073
1772.75,0.0074
1772.50,0.0075
1772.25,0.0074
1772.00,0.0074
1771.75,0.0075
1771.50,0.0075
1771.25,0.0076
1771.00,0.0076
1770.75,0.0075
1770.50,0.0075
1770.25,0.0074
1770.00,0.0074
1769.75,0.0075
1769.50,0.0074
1769.25,0.0074
1769.00,0.0072
1768.75,0.0070
1768.50,0.0068
1768.25,0.0067
1768.00,0.0069
1767.75,0.0071
1767.50,0.0072
1767.25,0.0073
1767.00,0.0073
1766.75,0.0072
1766.50,0.0073
1766.25,0.0073
1766.00,0.0074
1765.75,0.0075
1765.50,0.0075
1765.25,0.0074
1765.00,0.0074
1764.75,0.0074
1764.50,0.0074
1764.25,0.0075
1764.00,0.0075
1763.75,0.0075
1763.50,0.0075
1763.25,0.0076
1763.00,0.0076
1762.75,0.0076
1762.50,0.0074
1762.25,0.0070
1762.00,0.0067
1761.75,0.0065
1761.50,0.0068
1761.25,0.0071
1761.00,0.0074
1760.75,0.0074
1760.50,0.0074
1760.25,0.0074
1760.00,0.0073
1759.75,0.0072
1759.50,0.0072
1759.25,0.0071
1759.00,0.0071
1758.75,0.0071
1758.50,0.0073
1758.25,0.0074
1758.00,0.0075
1757.75,0.0076
1757.50,0.0076
1757.25,0.0076
1757.00,0.0076
1756.75,0.0074
1756.50,0.0073
1756.25,0.0072
1756.00,0.0073
1755.75,0.0074
1755.50,0.0075
1755.25,0.0075
1755.00,0.0076
1754.75,0.0076
1754.50,0.0076
1754.25,0.0075
1754.00,0.0075
1753.75,0.0075
1753.50,0.0075
1753.25,0.0075
1753.00,0.0075
1752.75,0.0074
1752.50,0.0074
1752.25,0.0074
1752.00,0.0073
1751.75,0.0074
1751.50,0.0076
1751.25,0.0077
1751.00,0.0077
1750.75,0.0074
1750.50,0.0073
1750.25,0.0072
1750.00,0.0072
1749.75,0.0073
1749.50,0.0074
1749.25,0.0075
1749.00,0.0076
1748.75,0.0078
1748.50,0.0078
1748.25,0.0078
1748.00,0.0079
1747.75,0.0079
1747.50,0.0080
1747.25,0.0081
1747.00,0.0081
1746.75,0.0080
1746.50,0.0080
1746.25,0.0080
1746.00,0.0081
1745.75,0.0081
1745.50,0.0080
1745.25,0.0080
1745.00,0.0079
1744.75,0.0078
1744.50,0.0077
1744.25,0.0076
1744.00,0.0075
1743.75,0.0075
1743.50,0.0076
1743.25,0.0076
1743.00,0.0076
1742.75,0.0075
1742.50,0.0074
1742.25,0.0074
1742.00,0.0074
1741.75,0.0075
1741.50,0.0076
1741.25,0.0077
1741.00,0.0078
1740.75,0.0079
1740.50,0.0080
1740.25,0.0080
1740.00,0.0081
1739.75,0.0080
1739.50,0.0079
1739.25,0.0077
1739.00,0.0077
1738.75,0.0076
1738.50,0.0076
1738.25,0.0075
1738.00,0.0075
1737.75,0.0074
1737.50,0.0074
1737.25,0.0074
1737.00,0.0075
1736.75,0.0076
1736.50,0.0078
1736.25,0.0080
1736.00,0.0081
1735.75,0.0082
1735.50,0.0082
1735.25,0.0081
1735.00,0.0077
1734.75,0.0072
1734.50,0.0067
1734.25,0.0066
1734.00,0.0069
1733.75,0.0072
1733.50,0.0074
1733.25,0.0073
1733.00,0.0072
1732.75,0.0072
1732.50,0.0072
1732.25,0.0073
1732.00,0.0074
1731.75,0.0075
1731.50,0.0077
1731.25,0.0079
1731.00,0.0081
1730.75,0.0083
1730.50,0.0083
1730.25,0.0083
1730.00,0.0082
1729.75,0.0080
1729.50,0.0077
1729.25,0.0077
1729.00,0.0077
1728.75,0.0078
1728.50,0.0079
1728.25,0.0079
1728.00,0.0078
1727.75,0.0078
1727.50,0.0077
1727.25,0.0077
1727.00,0.0076
1726.75,0.0076
1726.50,0.0075
1726.25,0.0075
1726.00,0.0074
1725.75,0.0074
1725.50,0.0075
1725.25,0.0075
1725.00,0.0076
1724.75,0.0076
1724.50,0.0075
1724.25,0.0075
1724.00,0.0075
1723.75,0.0075
1723.50,0.0076
1723.25,0.0077
1723.00,0.0077
1722.75,0.0078
1722.50,0.0078
1722.25,0.0078
1722.00,0.0078
1721.75,0.0078
1721.50,0.0078
1721.25,0.0078
1721.00,0.0078
1720.75,0.0078
1720.50,0.0078
1720.25,0.0078
1720.00,0.0077
1719.75,0.0077
1719.50,0.0076
1719.25,0.0076
1719.00,0.0077
1718.75,0.0078
1718.50,0.0080
1718.25,0.0080
1718.00,0.0079
1717.75,0.0076
1717.50,0.0071
1717.25,0.0067
1717.00,0.0067
1716.75,0.0071
1716.50,0.0075
1716.25,0.0078
1716.00,0.0079
1715.75,0.0081
1715.50,0.0082
1715.25,0.0083
1715.00,0.0080
1714.75,0.0078
1714.50,0.0076
1714.25,0.0076
1714.00,0.0077
1713.75,0.0077
1713.50,0.0077
1713.25,0.0076
1713.00,0.0076
1712.75,0.0076
1712.50,0.0076
1712.25,0.0075
1712.00,0.0075
1711.75,0.0076
1711.50,0.0077
1711.25,0.0079
1711.00,0.0080
1710.75,0.0080
1710.50,0.0080
1710.25,0.0079
1710.00,0.0078
1709.75,0.0076
1709.50,0.0076
1709.25,0.0075
1709.00,0.0075
1708.75,0.0075
1708.50,0.0074
1708.25,0.0073
1708.00,0.0073
1707.75,0.0073
1707.50,0.0075
1707.25,0.0076
1707.00,0.0077
1706.75,0.0078
1706.50,0.0079
1706.25,0.0080
1706.00,0.0081
1705.75,0.0081
1705.50,0.0079
1705.25,0.0077
1705.00,0.0075
1704.75,0.0073
1704.50,0.0073
1704.25,0.0074
1704.00,0.0075
1703.75,0.0078
1703.50,0.0079
1703.25,0.0081
1703.00,0.0081
1702.75,0.0081
1702.50,0.0079
1702.25,0.0078
1702.00,0.0076
1701.75,0.0076
1701.50,0.0077
1701.25,0.0080
1701.00,0.0083
1700.75,0.0083
1700.50,0.0078
1700.25,0.0070
1700.00,0.0067
1699.75,0.0075
1699.50,0.0078
1699.25,0.0079
1699.00,0.0078
1698.75,0.0078
1698.50,0.0077
1698.25,0.0077
1698.00,0.0077
1697.75,0.0078
1697.50,0.0079
1697.25,0.0079
1697.00,0.0078
1696.75,0.0075
1696.50,0.0071
1696.25,0.0068
1696.00,0.0068
1695.75,0.0074
1695.50,0.0080
1695.25,0.0083
1695.00,0.0082
1694.75,0.0081
1694.50,0.0080
1694.25,0.0079
1694.00,0.0078
1693.75,0.0078
1693.50,0.0077
1693.25,0.0078
1693.00,0.0079
1692.75,0.0079
1692.50,0.0080
1692.25,0.0080
1692.00,0.0081
1691.75,0.0081
1691.50,0.0081
1691.25,0.0080
1691.00,0.0078
1690.75,0.0077
1690.50,0.0077
1690.25,0.0077
1690.00,0.0078
1689.75,0.0078
1689.50,0.0077
1689.25,0.0077
1689.00,0.0077
1688.75,0.0078
1688.50,0.0078
1688.25,0.0079
1688.00,0.0080
1687.75,0.0081
1687.50,0.0081
1687.25,0.0080
1687.00,0.0078
1686.75,0.0076
1686.50,0.0075
1686.25,0.0075
1686.00,0.0077
1685.75,0.0079
1685.50,0.0081
1685.25,0.0083
1685.00,0.0085
1684.75,0.0088
1684.50,0.0089
1684.25,0.0087
1684.00,0.0085
1683.75,0.0083
1683.50,0.0080
1683.25,0.0079
1683.00,0.0077
1682.75,0.0076
1682.50,0.0076
1682.25,0.0076
1682.00,0.0076
1681.75,0.0077
1681.50,0.0078
1681.25,0.0079
1681.00,0.0078
1680.75,0.0077
1680.50,0.0077
1680.25,0.0078
1680.00,0.0080
1679.75,0.0081
1679.50,0.0081
1679.25,0.0080
1679.00,0.0079
1678.75,0.0078
1678.50,0.0077
1678.25,0.0078
1678.00,0.0079
1677.75,0.0080
1677.50,0.0081
1677.25,0.0081
1677.00,0.0080
1676.75,0.0078
1676.50,0.0077
1676.25,0.0075
1676.00,0.0073
1675.75,0.0071
1675.50,0.0068
1675.25,0.0068
1675.00,0.0070
1674.75,0.0073
1674.50,0.0075
1674.25,0.0076
1674.00,0.0077
1673.75,0.0078
1673.50,0.0078
1673.25,0.0078
1673.00,0.0079
1672.75,0.0079
1672.50,0.0080
1672.25,0.0080
1672.00,0.0080
1671.75,0.0081
1671.50,0.0083
1671.25,0.0084
1671.00,0.0084
1670.75,0.0083
1670.50,0.0083
1670.25,0.0082
1670.00,0.0082
1669.75,0.0082
1669.50,0.0081
1669.25,0.0081
1669.00,0.0082
1668.75,0.0083
1668.50,0.0084
1668.25,0.0085
1668.00,0.0085
1667.75,0.0085
1667.50,0.0085
1667.25,0.0085
1667.00,0.0084
1666.75,0.0083
1666.50,0.0082
1666.25,0.0080
1666.00,0.0079
1665.75,0.0079
1665.50,0.0080
1665.25,0.0081
1665.00,0.0082
1664.75,0.0082
1664.50,0.0081
1664.25,0.0081
1664.00,0.0081
1663.75,0.0081
1663.50,0.0082
1663.25,0.0081
1663.00,0.0081
1662.75,0.0081
1662.50,0.0082
1662.25,0.0082
1662.00,0.0083
1661.75,0.0084
1661.50,0.0084
1661.25,0.0083
1661.00,0.0081
1660.75,0.0080
1660.50,0.0079
1660.25,0.0080
1660.00,0.0081
1659.75,0.0082
1659.50,0.0082
1659.25,0.0082
1659.00,0.0082
1658.75,0.0082
1658.50,0.0083
1658.25,0.0083
1658.00,0.0083
1657.75,0.0083
1657.50,0.0082
1657.25,0.0081
1657.00,0.0080
1656.75,0.0078
1656.50,0.0078
1656.25,0.0078
1656.00,0.0078
1655.75,0.0079
1655.50,0.0080
1655.25,0.0081
1655.00,0.0082
1654.75,0.0083
1654.50,0.0082
1654.25,0.0079
1654.00,0.0075
1653.75,0.0069
1653.50,0.0063
1653.25,0.0056
1653.00,0.0052
1652.75,0.0057
1652.50,0.0065
1652.25,0.0074
1652.00,0.0078
1651.75,0.0080
1651.50,0.0081
1651.25,0.0082
1651.00,0.0083
1650.75,0.0084
1650.50,0.0085
1650.25,0.0086
1650.00,0.0086
1649.75,0.0085
1649.50,0.0084
1649.25,0.0084
1649.00,0.0085
1648.75,0.0086
1648.50,0.0087
1648.25,0.0086
1648.00,0.0084
1647.75,0.0083
1647.50,0.0083
1647.25,0.0084
1647.00,0.0084
1646.75,0.0084
1646.50,0.0084
1646.25,0.0083
1646.00,0.0084
1645.75,0.0084
1645.50,0.0084
1645.25,0.0083
1645.00,0.0083
1644.75,0.0082
1644.50,0.0082
1644.25,0.0081
1644.00,0.0082
1643.75,0.0082
1643.50,0.0083
1643.25,0.0084
1643.00,0.0084
1642.75,0.0085
1642.50,0.0085
1642.25,0.0085
1642.00,0.0084
1641.75,0.0084
1641.50,0.0084
1641.25,0.0084
1641.00,0.0084
1640.75,0.0085
1640.50,0.0085
1640.25,0.0085
1640.00,0.0084
1639.75,0.0083
1639.50,0.0082
1639.25,0.0082
1639.00,0.0082
1638.75,0.0083
1638.50,0.0083
1638.25,0.0084
1638.00,0.0084
1637.75,0.0085
1637.50,0.0084
1637.25,0.0084
1637.00,0.0083
1636.75,0.0082
1636.50,0.0082
1636.25,0.0083
1636.00,0.0084
1635.75,0.0087
1635.50,0.0091
1635.25,0.0091
1635.00,0.0086
1634.75,0.0082
1634.50,0.0080
1634.25,0.0079
1634.00,0.0079
1633.75,0.0080
1633.50,0.0081
1633.25,0.0083
1633.00,0.0085
1632.75,0.0086
1632.50,0.0087
1632.25,0.0087
1632.00,0.0087
1631.75,0.0086
1631.50,0.0085
1631.25,0.0084
1631.00,0.0083
1630.75,0.0082
1630.50,0.0082
1630.25,0.0082
1630.00,0.0083
1629.75,0.0083
1629.50,0.0084
1629.25,0.0083
1629.00,0.0082
1628.75,0.0081
1628.50,0.0080
1628.25,0.0080
1628.00,0.0080
1627.75,0.0079
1627.50,0.0079
1627.25,0.0079
1627.00,0.0080
1626.75,0.0081
1626.50,0.0083
1626.25,0.0084
1626.00,0.0084
1625.75,0.0083
1625.50,0.0083
1625.25,0.0083
1625.00,0.0082
1624.75,0.0082
1624.50,0.0081
1624.25,0.0081
1624.00,0.0081
1623.75,0.0081
1623.50,0.0082
1623.25,0.0082
1623.00,0.0082
1622.75,0.0081
1622.50,0.0081
1622.25,0.0081
1622.00,0.0082
1621.75,0.0082
1621.50,0.0081
1621.25,0.0081
1621.00,0.0081
1620.75,0.0081
1620.50,0.0081
1620.25,0.0081
1620.00,0.0081
1619.75,0.0080
1619.50,0.0080
1619.25,0.0079
1619.00,0.0079
1618.75,0.0080
1618.50,0.0082
1618.25,0.0083
1618.00,0.0084
1617.75,0.0084
1617.50,0.0084
1617.25,0.0083
1617.00,0.0082
1616.75,0.0081
1616.50,0.0080
1616.25,0.0081
1616.00,0.0082
1615.75,0.0083
1615.50,0.0083
1615.25,0.0083
1615.00,0.0083
1614.75,0.0083
1614.50,0.0082
1614.25,0.0081
1614.00,0.0081
1613.75,0.0081
1613.50,0.0082
1613.25,0.0083
1613.00,0.0083
1612.75,0.0082
1612.50,0.0081
1612.25,0.0080
1612.00,0.0080
1611.75,0.0081
1611.50,0.0081
1611.25,0.0081
1611.00,0.0081
1610.75,0.0081
1610.50,0.0082
1610.25,0.0083
1610.00,0.0085
1609.75,0.0087
1609.50,0.0088
1609.25,0.0087
1609.00,0.0085
1608.75,0.0082
1608.50,0.0080
1608.25,0.0079
1608.00,0.0079
1607.75,0.0080
1607.50,0.0081
1607.25,0.0082
1607.00,0.0083
1606.75,0.0084
1606.50,0.0084
1606.25,0.0085
1606.00,0.0085
1605.75,0.0085
1605.50,0.0084
1605.25,0.0082
1605.00,0.0080
1604.75,0.0079
1604.50,0.0078
1604.25,0.0078
1604.00,0.0078
1603.75,0.0079
1603.50,0.0080
1603.25,0.0081
1603.00,0.0082
1602.75,0.0082
1602.50,0.0082
1602.25,0.0082
1602.00,0.0081
1601.75,0.0081
1601.50,0.0080
1601.25,0.0079
1601.00,0.0079
1600.75,0.0079
1600.50,0.0079
1600.25,0.0079
1600.00,0.0080
1599.75,0.0080
1599.50,0.0081
1599.25,0.0082
1599.00,0.0083
1598.75,0.0083
1598.50,0.0083
1598.25,0.0082
1598.00,0.0081
1597.75,0.0081
1597.50,0.0080
1597.25,0.0081
1597.00,0.0081
1596.75,0.0082
1596.50,0.0083
1596.25,0.0084
1596.00,0.0084
1595.75,0.0084
1595.50,0.0084
1595.25,0.0084
1595.00,0.0085
1594.75,0.0085
1594.50,0.0086
1594.25,0.0085
1594.00,0.0084
1593.75,0.0082
1593.50,0.0081
1593.25,0.0081
1593.00,0.0081
1592.75,0.0081
1592.50,0.0081
1592.25,0.0082
1592.00,0.0083
1591.75,0.0084
1591.50,0.0083
1591.25,0.0082
1591.00,0.0082
1590.75,0.0082
1590.50,0.0082
1590.25,0.0083
1590.00,0.0082
1589.75,0.0081
1589.50,0.0080
1589.25,0.0080
1589.00,0.0081
1588.75,0.0082
1588.50,0.0084
1588.25,0.0085
1588.00,0.0085
1587.75,0.0085
1587.50,0.0085
1587.25,0.0083
1587.00,0.0082
1586.75,0.0081
1586.50,0.0081
1586.25,0.0082
1586.00,0.0083
1585.75,0.0083
1585.50,0.0083
1585.25,0.0082
1585.00,0.0082
1584.75,0.0083
1584.50,0.0083
1584.25,0.0083
1584.00,0.0082
1583.75,0.0081
1583.50,0.0080
1583.25,0.0080
1583.00,0.0080
1582.75,0.0080
1582.50,0.0081
1582.25,0.0081
1582.00,0.0081
1581.75,0.0082
1581.50,0.0082
1581.25,0.0082
1581.00,0.0082
1580.75,0.0082
1580.50,0.0081
1580.25,0.0081
1580.00,0.0081
1579.75,0.0082
1579.50,0.0084
1579.25,0.0085
1579.00,0.0085
1578.75,0.0084
1578.50,0.0083
1578.25,0.0083
1578.00,0.0083
1577.75,0.0083
1577.50,0.0084
1577.25,0.0084
1577.00,0.0084
1576.75,0.0083
1576.50,0.0082
1576.25,0.0079
1576.00,0.0076
1575.75,0.0075
1575.50,0.0076
1575.25,0.0079
1575.00,0.0080
1574.75,0.0081
1574.50,0.0082
1574.25,0.0082
1574.00,0.0081
1573.75,0.0080
1573.50,0.0079
1573.25,0.0079
1573.00,0.0079
1572.75,0.0080
1572.50,0.0081
1572.25,0.0081
1572.00,0.0080
1571.75,0.0080
1571.50,0.0080
1571.25,0.0080
1571.00,0.0080
1570.75,0.0080
1570.50,0.0080
1570.25,0.0079
1570.00,0.0078
1569.75,0.0076
1569.50,0.0077
1569.25,0.0078
1569.00,0.0079
1568.75,0.0078
1568.50,0.0078
1568.25,0.0078
1568.00,0.0079
1567.75,0.0081
1567.50,0.0081
1567.25,0.0081
1567.00,0.0081
1566.75,0.0081
1566.50,0.0082
1566.25,0.0083
1566.00,0.0084
1565.75,0.0085
1565.50,0.0085
1565.25,0.0086
1565.00,0.0086
1564.75,0.0085
1564.50,0.0084
1564.25,0.0082
1564.00,0.0081
1563.75,0.0080
1563.50,0.0079
1563.25,0.0079
1563.00,0.0078
1562.75,0.0078
1562.50,0.0078
1562.25,0.0079
1562.00,0.0080
1561.75,0.0081
1561.50,0.0082
1561.25,0.0082
1561.00,0.0081
1560.75,0.0077
1560.50,0.0072
1560.25,0.0065
1560.00,0.0064
1559.75,0.0075
1559.50,0.0087
1559.25,0.0092
1559.00,0.0095
1558.75,0.0096
1558.50,0.0097
1558.25,0.0096
1558.00,0.0093
1557.75,0.0089
1557.50,0.0086
1557.25,0.0085
1557.00,0.0083
1556.75,0.0082
1556.50,0.0081
1556.25,0.0081
1556.00,0.0082
1555.75,0.0083
1555.50,0.0084
1555.25,0.0084
1555.00,0.0083
1554.75,0.0081
1554.50,0.0080
1554.25,0.0080
1554.00,0.0080
1553.75,0.0081
1553.50,0.0081
1553.25,0.0080
1553.00,0.0079
1552.75,0.0078
1552.50,0.0078
1552.25,0.0078
1552.00,0.0080
1551.75,0.0081
1551.50,0.0083
1551.25,0.0084
1551.00,0.0084
1550.75,0.0084
1550.50,0.0083
1550.25,0.0081
1550.00,0.0080
1549.75,0.0080
1549.50,0.0079
1549.25,0.0080
1549.00,0.0080
1548.75,0.0081
1548.50,0.0081
1548.25,0.0081
1548.00,0.0080
1547.75,0.0079
1547.50,0.0079
1547.25,0.0079
1547.00,0.0079
1546.75,0.0078
1546.50,0.0078
1546.25,0.0077
1546.00,0.0077
1545.75,0.0076
1545.50,0.0076
1545.25,0.0077
1545.00,0.0078
1544.75,0.0079
1544.50,0.0079
1544.25,0.0078
1544.00,0.0078
1543.75,0.0077
1543.50,0.0077
1543.25,0.0077
1543.00,0.0078
1542.75,0.0080
1542.50,0.0084
1542.25,0.0088
1542.00,0.0091
1541.75,0.0090
1541.50,0.0087
1541.25,0.0085
1541.00,0.0084
1540.75,0.0084
1540.50,0.0085
1540.25,0.0086
1540.00,0.0087
1539.75,0.0086
1539.50,0.0084
1539.25,0.0083
1539.00,0.0082
1538.75,0.0080
1538.50,0.0078
1538.25,0.0077
1538.00,0.0076
1537.75,0.0076
1537.50,0.0076
1537.25,0.0077
1537.00,0.0077
1536.75,0.0078
1536.50,0.0078
1536.25,0.0079
1536.00,0.0080
1535.75,0.0080
1535.50,0.0080
1535.25,0.0079
1535.00,0.0078
1534.75,0.0077
1534.50,0.0076
1534.25,0.0074
1534.00,0.0071
1533.75,0.0070
1533.50,0.0070
1533.25,0.0073
1533.00,0.0076
1532.75,0.0077
1532.50,0.0078
1532.25,0.0079
1532.00,0.0078
1531.75,0.0078
1531.50,0.0078
1531.25,0.0078
1531.00,0.0079
1530.75,0.0080
1530.50,0.0080
1530.25,0.0081
1530.00,0.0081
1529.75,0.0081
1529.50,0.0081
1529.25,0.0081
1529.00,0.0081
1528.75,0.0082
1528.50,0.0081
1528.25,0.0080
1528.00,0.0078
1527.75,0.0077
1527.50,0.0076
1527.25,0.0075
1527.00,0.0075
1526.75,0.0076
1526.50,0.0078
1526.25,0.0079
1526.00,0.0079
1525.75,0.0078
1525.50,0.0076
1525.25,0.0075
1525.00,0.0076
1524.75,0.0078
1524.50,0.0079
1524.25,0.0079
1524.00,0.0079
1523.75,0.0079
1523.50,0.0079
1523.25,0.0078
1523.00,0.0078
1522.75,0.0078
1522.50,0.0079
1522.25,0.0079
1522.00,0.0080
1521.75,0.0081
1521.50,0.0082
1521.25,0.0082
1521.00,0.0080
1520.75,0.0078
1520.50,0.0076
1520.25,0.0076
1520.00,0.0077
1519.75,0.0077
1519.50,0.0078
1519.25,0.0077
1519.00,0.0076
1518.75,0.0076
1518.50,0.0075
1518.25,0.0075
1518.00,0.0076
1517.75,0.0077
1517.50,0.0078
1517.25,0.0079
1517.00,0.0080
1516.75,0.0081
1516.50,0.0081
1516.25,0.0081
1516.00,0.0080
1515.75,0.0080
1515.50,0.0079
1515.25,0.0080
1515.00,0.0081
1514.75,0.0082
1514.50,0.0082
1514.25,0.0080
1514.00,0.0079
1513.75,0.0077
1513.50,0.0076
1513.25,0.0076
1513.00,0.0076
1512.75,0.0076
1512.50,0.0076
1512.25,0.0075
1512.00,0.0074
1511.75,0.0074
1511.50,0.0073
1511.25,0.0074
1511.00,0.0075
1510.75,0.0075
1510.50,0.0075
1510.25,0.0075
1510.00,0.0074
1509.75,0.0073
1509.50,0.0073
1509.25,0.0072
1509.00,0.0072
1508.75,0.0071
1508.50,0.0070
1508.25,0.0068
1508.00,0.0068
1507.75,0.0068
1507.50,0.0069
1507.25,0.0073
1507.00,0.0078
1506.75,0.0079
1506.50,0.0077
1506.25,0.0075
1506.00,0.0074
1505.75,0.0073
1505.50,0.0071
1505.25,0.0069
1505.00,0.0068
1504.75,0.0068
1504.50,0.0069
1504.25,0.0070
1504.00,0.0071
1503.75,0.0073
1503.50,0.0074
1503.25,0.0076
1503.00,0.0077
1502.75,0.0077
1502.50,0.0077
1502.25,0.0076
1502.00,0.0075
1501.75,0.0074
1501.50,0.0074
1501.25,0.0073
1501.00,0.0073
1500.75,0.0073
1500.50,0.0072
1500.25,0.0072
1500.00,0.0072
1499.75,0.0073
1499.50,0.0074
1499.25,0.0076
1499.00,0.0079
1498.75,0.0080
1498.50,0.0079
1498.25,0.0077
1498.00,0.0075
1497.75,0.0074
1497.50,0.0073
1497.25,0.0073
1497.00,0.0073
1496.75,0.0075
1496.50,0.0077
1496.25,0.0079
1496.00,0.0079
1495.75,0.0077
1495.50,0.0076
1495.25,0.0076
1495.00,0.0077
1494.75,0.0077
1494.50,0.0076
1494.25,0.0075
1494.00,0.0074
1493.75,0.0074
1493.50,0.0075
1493.25,0.0076
1493.00,0.0077
1492.75,0.0077
1492.50,0.0076
1492.25,0.0076
1492.00,0.0075
1491.75,0.0075
1491.50,0.0075
1491.25,0.0076
1491.00,0.0078
1490.75,0.0079
1490.50,0.0079
1490.25,0.0078
1490.00,0.0075
1489.75,0.0072
1489.50,0.0070
1489.25,0.0069
1489.00,0.0070
1488.75,0.0071
1488.50,0.0073
1488.25,0.0075
1488.00,0.0077
1487.75,0.0078
1487.50,0.0077
1487.25,0.0076
1487.00,0.0074
1486.75,0.0074
1486.50,0.0074
1486.25,0.0074
1486.00,0.0073
1485.75,0.0072
1485.50,0.0072
1485.25,0.0072
1485.00,0.0073
1484.75,0.0073
1484.50,0.0074
1484.25,0.0075
1484.00,0.0076
1483.75,0.0077
1483.50,0.0077
1483.25,0.0078
1483.00,0.0079
1482.75,0.0080
1482.50,0.0080
1482.25,0.0079
1482.00,0.0079
1481.75,0.0078
1481.50,0.0078
1481.25,0.0078
1481.00,0.0078
1480.75,0.0077
1480.50,0.0077
1480.25,0.0078
1480.00,0.0079
1479.75,0.0080
1479.50,0.0080
1479.25,0.0080
1479.00,0.0079
1478.75,0.0079
1478.50,0.0079
1478.25,0.0079
1478.00,0.0079
1477.75,0.0079
1477.50,0.0078
1477.25,0.0078
1477.00,0.0077
1476.75,0.0077
1476.50,0.0077
1476.25,0.0076
1476.00,0.0075
1475.75,0.0074
1475.50,0.0074
1475.25,0.0075
1475.00,0.0075
1474.75,0.0076
1474.50,0.0076
1474.25,0.0077
1474.00,0.0078
1473.75,0.0079
1473.50,0.0081
1473.25,0.0081
1473.00,0.0081
1472.75,0.0080
1472.50,0.0079
1472.25,0.0078
1472.00,0.0078
1471.75,0.0078
1471.50,0.0078
1471.25,0.0077
1471.00,0.0076
1470.75,0.0076
1470.50,0.0076
1470.25,0.0077
1470.00,0.0077
1469.75,0.0078
1469.50,0.0078
1469.25,0.0078
1469.00,0.0078
1468.75,0.0078
1468.50,0.0078
1468.25,0.0079
1468.00,0.0079
1467.75,0.0079
1467.50,0.0079
1467.25,0.0080
1467.00,0.0081
1466.75,0.0082
1466.50,0.0082
1466.25,0.0081
1466.00,0.0080
1465.75,0.0079
1465.50,0.0080
1465.25,0.0082
1465.00,0.0084
1464.75,0.0085
1464.50,0.0084
1464.25,0.0082
1464.00,0.0081
1463.75,0.0081
1463.50,0.0080
1463.25,0.0080
1463.00,0.0080
1462.75,0.0080
1462.50,0.0079
1462.25,0.0079
1462.00,0.0079
1461.75,0.0079
1461.50,0.0079
1461.25,0.0080
1461.00,0.0080
1460.75,0.0081
1460.50,0.0080
1460.25,0.0079
1460.00,0.0078
1459.75,0.0078
1459.50,0.0077
1459.25,0.0078
1459.00,0.0078
1458.75,0.0078
1458.50,0.0079
1458.25,0.0079
1458.00,0.0080
1457.75,0.0081
1457.50,0.0082
1457.25,0.0082
1457.00,0.0083
1456.75,0.0080
1456.50,0.0075
1456.25,0.0073
1456.00,0.0073
1455.75,0.0074
1455.50,0.0075
1455.25,0.0077
1455.00,0.0080
1454.75,0.0082
1454.50,0.0085
1454.25,0.0086
1454.00,0.0086
1453.75,0.0085
1453.50,0.0083
1453.25,0.0082
1453.00,0.0082
1452.75,0.0082
1452.50,0.0083
1452.25,0.0083
1452.00,0.0083
1451.75,0.0083
1451.50,0.0083
1451.25,0.0083
1451.00,0.0084
1450.75,0.0083
1450.50,0.0082
1450.25,0.0080
1450.00,0.0079
1449.75,0.0078
1449.50,0.0078
1449.25,0.0079
1449.00,0.0081
1448.75,0.0082
1448.50,0.0082
1448.25,0.0082
1448.00,0.0082
1447.75,0.0082
1447.50,0.0083
1447.25,0.0084
1447.00,0.0085
1446.75,0.0085
1446.50,0.0086
1446.25,0.0087
1446.00,0.0087
1445.75,0.0088
1445.50,0.0088
1445.25,0.0088
1445.00,0.0087
1444.75,0.0086
1444.50,0.0085
1444.25,0.0085
1444.00,0.0085
1443.75,0.0086
1443.50,0.0086
1443.25,0.0086
1443.00,0.0086
1442.75,0.0086
1442.50,0.0086
1442.25,0.0087
1442.00,0.0087
1441.75,0.0087
1441.50,0.0086
1441.25,0.0085
1441.00,0.0084
1440.75,0.0083
1440.50,0.0083
1440.25,0.0082
1440.00,0.0082
1439.75,0.0083
1439.50,0.0083
1439.25,0.0084
1439.00,0.0084
1438.75,0.0084
1438.50,0.0084
1438.25,0.0084
1438.00,0.0084
1437.75,0.0086
1437.50,0.0088
1437.25,0.0090
1437.00,0.0090
1436.75,0.0087
1436.50,0.0082
1436.25,0.0079
1436.00,0.0080
1435.75,0.0080
1435.50,0.0081
1435.25,0.0081
1435.00,0.0081
1434.75,0.0081
1434.50,0.0081
1434.25,0.0082
1434.00,0.0083
1433.75,0.0083
1433.50,0.0083
1433.25,0.0082
1433.00,0.0081
1432.75,0.0080
1432.50,0.0080
1432.25,0.0081
1432.00,0.0082
1431.75,0.0083
1431.50,0.0084
1431.25,0.0084
1431.00,0.0084
1430.75,0.0083
1430.50,0.0083
1430.25,0.0083
1430.00,0.0084
1429.75,0.0085
1429.50,0.0086
1429.25,0.0085
1429.00,0.0085
1428.75,0.0085
1428.50,0.0085
1428.25,0.0085
1428.00,0.0085
1427.75,0.0086
1427.50,0.0086
1427.25,0.0087
1427.00,0.0088
1426.75,0.0088
1426.50,0.0088
1426.25,0.0088
1426.00,0.0088
1425.75,0.0088
1425.50,0.0087
1425.25,0.0087
1425.00,0.0085
1424.75,0.0085
1424.50,0.0085
1424.25,0.0087
1424.00,0.0089
1423.75,0.0091
1423.50,0.0092
1423.25,0.0091
1423.00,0.0091
1422.75,0.0090
1422.50,0.0089
1422.25,0.0089
1422.00,0.0089
1421.75,0.0089
1421.50,0.0090
1421.25,0.0092
1421.00,0.0093
1420.75,0.0095
1420.50,0.0096
1420.25,0.0096
1420.00,0.0097
1419.75,0.0097
1419.50,0.0096
1419.25,0.0095
1419.00,0.0094
1418.75,0.0093
1418.50,0.0094
1418.25,0.0095
1418.00,0.0096
1417.75,0.0097
1417.50,0.0097
1417.25,0.0097
1417.00,0.0098
1416.75,0.0099
1416.50,0.0100
1416.25,0.0101
1416.00,0.0101
1415.75,0.0101
1415.50,0.0101
1415.25,0.0102
1415.00,0.0102
1414.75,0.0103
1414.50,0.0104
1414.25,0.0105
1414.00,0.0106
1413.75,0.0107
1413.50,0.0107
1413.25,0.0107
1413.00,0.0106
1412.75,0.0106
1412.50,0.0105
1412.25,0.0104
1412.00,0.0105
1411.75,0.0105
1411.50,0.0107
1411.25,0.0108
1411.00,0.0108
1410.75,0.0108
1410.50,0.0108
1410.25,0.0107
1410.00,0.0107
1409.75,0.0107
1409.50,0.0107
1409.25,0.0106
1409.00,0.0104
1408.75,0.0102
1408.50,0.0101
1408.25,0.0099
1408.00,0.0099
1407.75,0.0100
1407.50,0.0101
1407.25,0.0102
1407.00,0.0103
1406.75,0.0103
1406.50,0.0104
1406.25,0.0104
1406.00,0.0104
1405.75,0.0104
1405.50,0.0103
1405.25,0.0101
1405.00,0.0100
1404.75,0.0100
1404.50,0.0102
1404.25,0.0103
1404.00,0.0105
1403.75,0.0105
1403.50,0.0105
1403.25,0.0104
1403.00,0.0103
1402.75,0.0102
1402.50,0.0101
1402.25,0.0100
1402.00,0.0100
1401.75,0.0099
1401.50,0.0099
1401.25,0.0099
1401.00,0.0099
1400.75,0.0099
1400.50,0.0099
1400.25,0.0098
1400.00,0.0099
1399.75,0.0099
1399.50,0.0099
1399.25,0.0099
1399.00,0.0098
1398.75,0.0096
1398.50,0.0095
1398.25,0.0093
1398.00,0.0093
1397.75,0.0092
1397.50,0.0092
1397.25,0.0092
1397.00,0.0092
1396.75,0.0092
1396.50,0.0092
1396.25,0.0091
1396.00,0.0091
1395.75,0.0092
1395.50,0.0092
1395.25,0.0092
1395.00,0.0093
1394.75,0.0094
1394.50,0.0093
1394.25,0.0091
1394.00,0.0089
1393.75,0.0088
1393.50,0.0088
1393.25,0.0089
1393.00,0.0090
1392.75,0.0091
1392.50,0.0091
1392.25,0.0090
1392.00,0.0089
1391.75,0.0089
1391.50,0.0088
1391.25,0.0088
1391.00,0.0087
1390.75,0.0086
1390.50,0.0085
1390.25,0.0085
1390.00,0.0085
1389.75,0.0085
1389.50,0.0086
1389.25,0.0087
1389.00,0.0087
1388.75,0.0088
1388.50,0.0087
1388.25,0.0086
1388.00,0.0085
1387.75,0.0084
1387.50,0.0084
1387.25,0.0084
1387.00,0.0084
1386.75,0.0084
1386.50,0.0084
1386.25,0.0083
1386.00,0.0084
1385.75,0.0085
1385.50,0.0086
1385.25,0.0088
1385.00,0.0090
1384.75,0.0090
1384.50,0.0089
1384.25,0.0087
1384.00,0.0085
1383.75,0.0084
1383.50,0.0084
1383.25,0.0084
1383.00,0.0085
1382.75,0.0085
1382.50,0.0086
1382.25,0.0086
1382.00,0.0086
1381.75,0.0086
1381.50,0.0085
1381.25,0.0085
1381.00,0.0085
1380.75,0.0085
1380.50,0.0085
1380.25,0.0085
1380.00,0.0085
1379.75,0.0084
1379.50,0.0084
1379.25,0.0084
1379.00,0.0083
1378.75,0.0083
1378.50,0.0083
1378.25,0.0083
1378.00,0.0084
1377.75,0.0084
1377.50,0.0084
1377.25,0.0084
1377.00,0.0084
1376.75,0.0084
1376.50,0.0084
1376.25,0.0084
1376.00,0.0085
1375.75,0.0086
1375.50,0.0086
1375.25,0.0087
1375.00,0.0086
1374.75,0.0085
1374.50,0.0084
1374.25,0.0083
1374.00,0.0082
1373.75,0.0081
1373.50,0.0081
1373.25,0.0081
1373.00,0.0083
1372.75,0.0084
1372.50,0.0085
1372.25,0.0085
1372.00,0.0085
1371.75,0.0085
1371.50,0.0085
1371.25,0.0086
1371.00,0.0087
1370.75,0.0087
1370.50,0.0087
1370.25,0.0086
1370.00,0.0085
1369.75,0.0085
1369.50,0.0085
1369.25,0.0086
1369.00,0.0086
1368.75,0.0085
1368.50,0.0085
1368.25,0.0084
1368.00,0.0083
1367.75,0.0084
1367.50,0.0084
1367.25,0.0085
1367.00,0.0085
1366.75,0.0085
1366.50,0.0083
1366.25,0.0082
1366.00,0.0081
1365.75,0.0080
1365.50,0.0080
1365.25,0.0080
1365.00,0.0080
1364.75,0.0081
1364.50,0.0082
1364.25,0.0082
1364.00,0.0082
1363.75,0.0081
1363.50,0.0081
1363.25,0.0081
1363.00,0.0082
1362.75,0.0083
1362.50,0.0083
1362.25,0.0083
1362.00,0.0082
1361.75,0.0081
1361.50,0.0079
1361.25,0.0077
1361.00,0.0076
1360.75,0.0078
1360.50,0.0080
1360.25,0.0083
1360.00,0.0085
1359.75,0.0086
1359.50,0.0087
1359.25,0.0088
1359.00,0.0088
1358.75,0.0087
1358.50,0.0087
1358.25,0.0086
1358.00,0.0085
1357.75,0.0085
1357.50,0.0084
1357.25,0.0083
1357.00,0.0083
1356.75,0.0083
1356.50,0.0083
1356.25,0.0082
1356.00,0.0081
1355.75,0.0080
1355.50,0.0080
1355.25,0.0080
1355.00,0.0081
1354.75,0.0083
1354.50,0.0084
1354.25,0.0085
1354.00,0.0086
1353.75,0.0086
1353.50,0.0087
1353.25,0.0087
1353.00,0.0086
1352.75,0.0086
1352.50,0.0085
1352.25,0.0085
1352.00,0.0086
1351.75,0.0086
1351.50,0.0086
1351.25,0.0084
1351.00,0.0082
1350.75,0.0080
1350.50,0.0079
1350.25,0.0080
1350.00,0.0081
1349.75,0.0082
1349.50,0.0083
1349.25,0.0083
1349.00,0.0083
1348.75,0.0083
1348.50,0.0082
1348.25,0.0082
1348.00,0.0082
1347.75,0.0082
1347.50,0.0082
1347.25,0.0083
1347.00,0.0083
1346.75,0.0084
1346.50,0.0084
1346.25,0.0084
1346.00,0.0084
1345.75,0.0084
1345.50,0.0085
1345.25,0.0085
1345.00,0.0085
1344.75,0.0084
1344.50,0.0084
1344.25,0.0083
1344.00,0.0083
1343.75,0.0083
1343.50,0.0082
1343.25,0.0083
1343.00,0.0083
1342.75,0.0083
1342.50,0.0084
1342.25,0.0084
1342.00,0.0084
1341.75,0.0084
1341.50,0.0084
1341.25,0.0083
1341.00,0.0082
1340.75,0.0081
1340.50,0.0081
1340.25,0.0081
1340.00,0.0082
1339.75,0.0082
1339.50,0.0082
1339.25,0.0082
1339.00,0.0082
1338.75,0.0083
1338.50,0.0082
1338.25,0.0081
1338.00,0.0080
1337.75,0.0078
1337.50,0.0078
1337.25,0.0078
1337.00,0.0079
1336.75,0.0080
1336.50,0.0081
1336.25,0.0082
1336.00,0.0083
1335.75,0.0083
1335.50,0.0082
1335.25,0.0082
1335.00,0.0081
1334.75,0.0082
1334.50,0.0083
1334.25,0.0084
1334.00,0.0085
1333.75,0.0086
1333.50,0.0086
1333.25,0.0085
1333.00,0.0084
1332.75,0.0082
1332.50,0.0080
1332.25,0.0079
1332.00,0.0079
1331.75,0.0079
1331.50,0.0080
1331.25,0.0080
1331.00,0.0081
1330.75,0.0082
1330.50,0.0084
1330.25,0.0085
1330.00,0.0085
1329.75,0.0084
1329.50,0.0083
1329.25,0.0083
1329.00,0.0083
1328.75,0.0083
1328.50,0.0084
1328.25,0.0084
1328.00,0.0084
1327.75,0.0084
1327.50,0.0084
1327.25,0.0084
1327.00,0.0084
1326.75,0.0085
1326.50,0.0085
1326.25,0.0084
1326.00,0.0084
1325.75,0.0084
1325.50,0.0083
1325.25,0.0083
1325.00,0.0083
1324.75,0.0083
1324.50,0.0083
1324.25,0.0083
1324.00,0.0083
1323.75,0.0083
1323.50,0.0083
1323.25,0.0083
1323.00,0.0084
1322.75,0.0084
1322.50,0.0085
1322.25,0.0085
1322.00,0.0085
1321.75,0.0085
1321.50,0.0085
1321.25,0.0085
1321.00,0.0085
1320.75,0.0085
1320.50,0.0086
1320.25,0.0087
1320.00,0.0087
1319.75,0.0087
1319.50,0.0087
1319.25,0.0087
1319.00,0.0086
1318.75,0.0085
1318.50,0.0084
1318.25,0.0085
1318.00,0.0087
1317.75,0.0088
1317.50,0.0089
1317.25,0.0088
1317.00,0.0087
1316.75,0.0086
1316.50,0.0085
1316.25,0.0085
1316.00,0.0085
1315.75,0.0085
1315.50,0.0085
1315.25,0.0085
1315.00,0.0085
1314.75,0.0085
1314.50,0.0084
1314.25,0.0084
1314.00,0.0085
1313.75,0.0085
1313.50,0.0086
1313.25,0.0086
1313.00,0.0086
1312.75,0.0086
1312.50,0.0085
1312.25,0.0084
1312.00,0.0083
1311.75,0.0083
1311.50,0.0084
1311.25,0.0084
1311.00,0.0084
1310.75,0.0084
1310.50,0.0084
1310.25,0.0084
1310.00,0.0086
1309.75,0.0088
1309.50,0.0089
1309.25,0.0090
1309.00,0.0089
1308.75,0.0088
1308.50,0.0087
1308.25,0.0086
1308.00,0.0086
1307.75,0.0086
1307.50,0.0085
1307.25,0.0085
1307.00,0.0086
1306.75,0.0086
1306.50,0.0087
1306.25,0.0088
1306.00,0.0088
1305.75,0.0088
1305.50,0.0088
1305.25,0.0089
1305.00,0.0089
1304.75,0.0090
1304.50,0.0090
1304.25,0.0090
1304.00,0.0090
1303.75,0.0089
1303.50,0.0089
1303.25,0.0089
1303.00,0.0090
1302.75,0.0090
1302.50,0.0090
1302.25,0.0089
1302.00,0.0089
1301.75,0.0090
1301.50,0.0090
1301.25,0.0090
1301.00,0.0090
1300.75,0.0089
1300.50,0.0089
1300.25,0.0088
1300.00,0.0089
1299.75,0.0089
1299.50,0.0090
1299.25,0.0091
1299.00,0.0091
1298.75,0.0091
1298.50,0.0091
1298.25,0.0091
1298.00,0.0091
1297.75,0.0092
1297.50,0.0093
1297.25,0.0094
1297.00,0.0094
1296.75,0.0094
1296.50,0.0093
1296.25,0.0093
1296.00,0.0093
1295.75,0.0093
1295.50,0.0092
1295.25,0.0092
1295.00,0.0091
1294.75,0.0091
1294.50,0.0091
1294.25,0.0091
1294.00,0.0091
1293.75,0.0091
1293.50,0.0091
1293.25,0.0091
1293.00,0.0092
1292.75,0.0092
1292.50,0.0093
1292.25,0.0094
1292.00,0.0095
1291.75,0.0096
1291.50,0.0096
1291.25,0.0097
1291.00,0.0098
1290.75,0.0097
1290.50,0.0096
1290.25,0.0095
1290.00,0.0095
1289.75,0.0095
1289.50,0.0095
1289.25,0.0096
1289.00,0.0096
1288.75,0.0096
1288.50,0.0096
1288.25,0.0097
1288.00,0.0097
1287.75,0.0097
1287.50,0.0098
1287.25,0.0098
1287.00,0.0099
1286.75,0.0099
1286.50,0.0098
1286.25,0.0098
1286.00,0.0098
1285.75,0.0099
1285.50,0.0100
1285.25,0.0101
1285.00,0.0102
1284.75,0.0104
1284.50,0.0105
1284.25,0.0106
1284.00,0.0106
1283.75,0.0106
1283.50,0.0105
1283.25,0.0103
1283.00,0.0102
1282.75,0.0102
1282.50,0.0104
1282.25,0.0105
1282.00,0.0107
1281.75,0.0109
1281.50,0.0111
1281.25,0.0112
1281.00,0.0113
1280.75,0.0115
1280.50,0.0117
1280.25,0.0119
1280.00,0.0120
1279.75,0.0120
1279.50,0.0120
1279.25,0.0121
1279.00,0.0123
1278.75,0.0125
1278.50,0.0128
1278.25,0.0130
1278.00,0.0133
1277.75,0.0135
1277.50,0.0136
1277.25,0.0137
1277.00,0.0138
1276.75,0.0140
1276.50,0.0143
1276.25,0.0146
1276.00,0.0149
1275.75,0.0152
1275.50,0.0156
1275.25,0.0159
1275.00,0.0162
1274.75,0.0164
1274.50,0.0166
1274.25,0.0169
1274.00,0.0171
1273.75,0.0174
1273.50,0.0177
1273.25,0.0179
1273.00,0.0182
1272.75,0.0185
1272.50,0.0188
1272.25,0.0192
1272.00,0.0195
1271.75,0.0198
1271.50,0.0201
1271.25,0.0205
1271.00,0.0208
1270.75,0.0212
1270.50,0.0216
1270.25,0.0219
1270.00,0.0223
1269.75,0.0227
1269.50,0.0230
1269.25,0.0235
1269.00,0.0239
1268.75,0.0245
1268.50,0.0250
1268.25,0.0257
1268.00,0.0264
1267.75,0.0272
1267.50,0.0279
1267.25,0.0287
1267.00,0.0294
1266.75,0.0302
1266.50,0.0310
1266.25,0.0320
1266.00,0.0329
1265.75,0.0340
1265.50,0.0350
1265.25,0.0360
1265.00,0.0371
1264.75,0.0382
1264.50,0.0393
1264.25,0.0403
1264.00,0.0413
1263.75,0.0423
1263.50,0.0432
1263.25,0.0443
1263.00,0.0453
1262.75,0.0464
1262.50,0.0474
1262.25,0.0483
1262.00,0.0491
1261.75,0.0497
1261.50,0.0502
1261.25,0.0507
1261.00,0.0511
1260.75,0.0516
1260.50,0.0520
1260.25,0.0524
1260.00,0.0525
1259.75,0.0525
1259.50,0.0523
1259.25,0.0521
1259.00,0.0518
1258.75,0.0517
1258.50,0.0514
1258.25,0.0512
1258.00,0.0507
1257.75,0.0502
1257.50,0.0496
1257.25,0.0490
1257.00,0.0483
1256.75,0.0475
1256.50,0.0466
1256.25,0.0458
1256.00,0.0449
1255.75,0.0441
1255.50,0.0433
1255.25,0.0425
1255.00,0.0416
1254.75,0.0407
1254.50,0.0399
1254.25,0.0391
1254.00,0.0384
1253.75,0.0376
1253.50,0.0369
1253.25,0.0360
1253.00,0.0352
1252.75,0.0344
1252.50,0.0335
1252.25,0.0327
1252.00,0.0318
1251.75,0.0310
1251.50,0.0301
1251.25,0.0293
1251.00,0.0284
1250.75,0.0276
1250.50,0.0269
1250.25,0.0261
1250.00,0.0254
1249.75,0.0246
1249.50,0.0238
1249.25,0.0231
1249.00,0.0224
1248.75,0.0217
1248.50,0.0212
1248.25,0.0206
1248.00,0.0200
1247.75,0.0194
1247.50,0.0189
1247.25,0.0184
1247.00,0.0180
1246.75,0.0177
1246.50,0.0175
1246.25,0.0171
1246.00,0.0168
1245.75,0.0164
1245.50,0.0160
1245.25,0.0157
1245.00,0.0154
1244.75,0.0151
1244.50,0.0148
1244.25,0.0146
1244.00,0.0144
1243.75,0.0143
1243.50,0.0142
1243.25,0.0141
1243.00,0.0140
1242.75,0.0138
1242.50,0.0137
1242.25,0.0136
1242.00,0.0135
1241.75,0.0134
1241.50,0.0134
1241.25,0.0133
1241.00,0.0134
1240.75,0.0134
1240.50,0.0133
1240.25,0.0131
1240.00,0.0129
1239.75,0.0127
1239.50,0.0126
1239.25,0.0125
1239.00,0.0126
1238.75,0.0126
1238.50,0.0126
1238.25,0.0125
1238.00,0.0124
1237.75,0.0123
1237.50,0.0122
1237.25,0.0121
1237.00,0.0121
1236.75,0.0122
1236.50,0.0122
1236.25,0.0122
1236.00,0.0122
1235.75,0.0123
1235.50,0.0123
1235.25,0.0123
1235.00,0.0124
1234.75,0.0123
1234.50,0.0122
1234.25,0.0121
1234.00,0.0119
1233.75,0.0116
1233.50,0.0115
1233.25,0.0113
1233.00,0.0113
1232.75,0.0114
1232.50,0.0116
1232.25,0.0118
1232.00,0.0121
1231.75,0.0123
1231.50,0.0125
1231.25,0.0125
1231.00,0.0124
1230.75,0.0123
1230.50,0.0121
1230.25,0.0119
1230.00,0.0119
1229.75,0.0120
1229.50,0.0121
1229.25,0.0122
1229.00,0.0123
1228.75,0.0123
1228.50,0.0123
1228.25,0.0123
1228.00,0.0123
1227.75,0.0123
1227.50,0.0123
1227.25,0.0123
1227.00,0.0123
1226.75,0.0122
1226.50,0.0121
1226.25,0.0120
1226.00,0.0120
1225.75,0.0121
1225.50,0.0122
1225.25,0.0123
1225.00,0.0125
1224.75,0.0126
1224.50,0.0126
1224.25,0.0126
1224.00,0.0126
1223.75,0.0127
1223.50,0.0128
1223.25,0.0129
1223.00,0.0128
1222.75,0.0127
1222.50,0.0125
1222.25,0.0125
1222.00,0.0126
1221.75,0.0127
1221.50,0.0129
1221.25,0.0131
1221.00,0.0132
1220.75,0.0132
1220.50,0.0131
1220.25,0.0130
1220.00,0.0129
1219.75,0.0128
1219.50,0.0128
1219.25,0.0129
1219.00,0.0131
1218.75,0.0134
1218.50,0.0136
1218.25,0.0138
1218.00,0.0139
1217.75,0.0139
1217.50,0.0138
1217.25,0.0137
1217.00,0.0136
1216.75,0.0135
1216.50,0.0135
1216.25,0.0136
1216.00,0.0138
1215.75,0.0139
1215.50,0.0139
1215.25,0.0140
1215.00,0.0140
1214.75,0.0141
1214.50,0.0142
1214.25,0.0143
1214.00,0.0144
1213.75,0.0145
1213.50,0.0147
1213.25,0.0148
1213.00,0.0149
1212.75,0.0150
1212.50,0.0150
1212.25,0.0149
1212.00,0.0148
1211.75,0.0148
1211.50,0.0148
1211.25,0.0148
1211.00,0.0149
1210.75,0.0151
1210.50,0.0152
1210.25,0.0152
1210.00,0.0151
1209.75,0.0152
1209.50,0.0152
1209.25,0.0153
1209.00,0.0155
1208.75,0.0155
1208.50,0.0155
1208.25,0.0154
1208.00,0.0152
1207.75,0.0151
1207.50,0.0151
1207.25,0.0151
1207.00,0.0152
1206.75,0.0154
1206.50,0.0155
1206.25,0.0156
1206.00,0.0156
1205.75,0.0156
1205.50,0.0156
1205.25,0.0157
1205.00,0.0158
1204.75,0.0160
1204.50,0.0160
1204.25,0.0161
1204.00,0.0162
1203.75,0.0163
1203.50,0.0165
1203.25,0.0167
1203.00,0.0167
1202.75,0.0167
1202.50,0.0166
1202.25,0.0165
1202.00,0.0164
1201.75,0.0164
1201.50,0.0165
1201.25,0.0166
1201.00,0.0166
1200.75,0.0165
1200.50,0.0165
1200.25,0.0164
1200.00,0.0164
1199.75,0.0164
1199.50,0.0165
1199.25,0.0167
1199.00,0.0170
1198.75,0.0172
1198.50,0.0173
1198.25,0.0174
1198.00,0.0173
1197.75,0.0172
1197.50,0.0171
1197.25,0.0170
1197.00,0.0168
1196.75,0.0168
1196.50,0.0168
1196.25,0.0170
1196.00,0.0171
1195.75,0.0173
1195.50,0.0173
1195.25,0.0173
1195.00,0.0172
1194.75,0.0172
1194.50,0.0171
1194.25,0.0171
1194.00,0.0171
1193.75,0.0171
1193.50,0.0171
1193.25,0.0171
1193.00,0.0172
1192.75,0.0174
1192.50,0.0176
1192.25,0.0178
1192.00,0.0178
1191.75,0.0179
1191.50,0.0179
1191.25,0.0179
1191.00,0.0179
1190.75,0.0179
1190.50,0.0179
1190.25,0.0179
1190.00,0.0178
1189.75,0.0177
1189.50,0.0177
1189.25,0.0177
1189.00,0.0177
1188.75,0.0178
1188.50,0.0179
1188.25,0.0180
1188.00,0.0181
1187.75,0.0181
1187.50,0.0182
1187.25,0.0183
1187.00,0.0183
1186.75,0.0184
1186.50,0.0184
1186.25,0.0184
1186.00,0.0184
1185.75,0.0184
1185.50,0.0185
1185.25,0.0186
1185.00,0.0187
1184.75,0.0187
1184.50,0.0188
1184.25,0.0188
1184.00,0.0188
1183.75,0.0188
1183.50,0.0187
1183.25,0.0186
1183.00,0.0185
1182.75,0.0184
1182.50,0.0184
1182.25,0.0185
1182.00,0.0185
1181.75,0.0186
1181.50,0.0186
1181.25,0.0186
1181.00,0.0186
1180.75,0.0187
1180.50,0.0188
1180.25,0.0189
1180.00,0.0189
1179.75,0.0189
1179.50,0.0190
1179.25,0.0191
1179.00,0.0191
1178.75,0.0192
1178.50,0.0192
1178.25,0.0193
1178.00,0.0193
1177.75,0.0193
1177.50,0.0193
1177.25,0.0194
1177.00,0.0194
1176.75,0.0195
1176.50,0.0196
1176.25,0.0196
1176.00,0.0196
1175.75,0.0196
1175.50,0.0196
1175.25,0.0195
1175.00,0.0195
1174.75,0.0195
1174.50,0.0196
1174.25,0.0197
1174.00,0.0198
1173.75,0.0197
1173.50,0.0196
1173.25,0.0195
1173.00,0.0195
1172.75,0.0197
1172.50,0.0199
1172.25,0.0201
1172.00,0.0202
1171.75,0.0201
1171.50,0.0200
1171.25,0.0199
1171.00,0.0199
1170.75,0.0200
1170.50,0.0202
1170.25,0.0203
1170.00,0.0204
1169.75,0.0205
1169.50,0.0206
1169.25,0.0206
1169.00,0.0206
1168.75,0.0206
1168.50,0.0206
1168.25,0.0205
1168.00,0.0204
1167.75,0.0204
1167.50,0.0204
1167.25,0.0205
1167.00,0.0207
1166.75,0.0210
1166.50,0.0212
1166.25,0.0213
1166.00,0.0213
1165.75,0.0214
1165.50,0.0215
1165.25,0.0216
1165.00,0.0216
1164.75,0.0216
1164.50,0.0216
1164.25,0.0215
1164.00,0.0214
1163.75,0.0215
1163.50,0.0215
1163.25,0.0216
1163.00,0.0217
1162.75,0.0217
1162.50,0.0217
1162.25,0.0217
1162.00,0.0217
1161.75,0.0216
1161.50,0.0215
1161.25,0.0215
1161.00,0.0216
1160.75,0.0218
1160.50,0.0219
1160.25,0.0220
1160.00,0.0220
1159.75,0.0220
1159.50,0.0219
1159.25,0.0218
1159.00,0.0218
1158.75,0.0217
1158.50,0.0218
1158.25,0.0220
1158.00,0.0223
1157.75,0.0225
1157.50,0.0227
1157.25,0.0228
1157.00,0.0229
1156.75,0.0229
1156.50,0.0229
1156.25,0.0230
1156.00,0.0231
1155.75,0.0233
1155.50,0.0235
1155.25,0.0236
1155.00,0.0237
1154.75,0.0238
1154.50,0.0239
1154.25,0.0240
1154.00,0.0240
1153.75,0.0240
1153.50,0.0240
1153.25,0.0239
1153.00,0.0239
1152.75,0.0239
1152.50,0.0239
1152.25,0.0241
1152.00,0.0242
1151.75,0.0244
1151.50,0.0244
1151.25,0.0245
1151.00,0.0245
1150.75,0.0246
1150.50,0.0248
1150.25,0.0250
1150.00,0.0251
1149.75,0.0252
1149.50,0.0253
1149.25,0.0253
1149.00,0.0253
1148.75,0.0253
1148.50,0.0254
1148.25,0.0254
1148.00,0.0254
1147.75,0.0253
1147.50,0.0253
1147.25,0.0254
1147.00,0.0255
1146.75,0.0257
1146.50,0.0259
1146.25,0.0261
1146.00,0.0261
1145.75,0.0261
1145.50,0.0262
1145.25,0.0263
1145.00,0.0263
1144.75,0.0264
1144.50,0.0264
1144.25,0.0265
1144.00,0.0266
1143.75,0.0269
1143.50,0.0271
1143.25,0.0274
1143.00,0.0276
1142.75,0.0278
1142.50,0.0278
1142.25,0.0277
1142.00,0.0277
1141.75,0.0277
1141.50,0.0278
1141.25,0.0279
1141.00,0.0280
1140.75,0.0281
1140.50,0.0281
1140.25,0.0281
1140.00,0.0281
1139.75,0.0281
1139.50,0.0284
1139.25,0.0288
1139.00,0.0291
1138.75,0.0294
1138.50,0.0295
1138.25,0.0295
1138.00,0.0296
1137.75,0.0297
1137.50,0.0299
1137.25,0.0302
1137.00,0.0304
1136.75,0.0305
1136.50,0.0306
1136.25,0.0306
1136.00,0.0306
1135.75,0.0305
1135.50,0.0305
1135.25,0.0305
1135.00,0.0306
1134.75,0.0307
1134.50,0.0308
1134.25,0.0308
1134.00,0.0307
1133.75,0.0306
1133.50,0.0306
1133.25,0.0307
1133.00,0.0308
1132.75,0.0311
1132.50,0.0314
1132.25,0.0317
1132.00,0.0320
1131.75,0.0323
1131.50,0.0326
1131.25,0.0327
1131.00,0.0328
1130.75,0.0328
1130.50,0.0330
1130.25,0.0332
1130.00,0.0333
1129.75,0.0333
1129.50,0.0331
1129.25,0.0330
1129.00,0.0329
1128.75,0.0329
1128.50,0.0332
1128.25,0.0335
1128.00,0.0339
1127.75,0.0341
1127.50,0.0342
1127.25,0.0343
1127.00,0.0344
1126.75,0.0346
1126.50,0.0348
1126.25,0.0351
1126.00,0.0352
1125.75,0.0354
1125.50,0.0356
1125.25,0.0358
1125.00,0.0360
1124.75,0.0361
1124.50,0.0363
1124.25,0.0364
1124.00,0.0366
1123.75,0.0368
1123.50,0.0372
1123.25,0.0375
1123.00,0.0379
1122.75,0.0382
1122.50,0.0384
1122.25,0.0384
1122.00,0.0385
1121.75,0.0387
1121.50,0.0390
1121.25,0.0392
1121.00,0.0393
1120.75,0.0394
1120.50,0.0396
1120.25,0.0399
1120.00,0.0401
1119.75,0.0404
1119.50,0.0406
1119.25,0.0406
1119.00,0.0406
1118.75,0.0407
1118.50,0.0409
1118.25,0.0412
1118.00,0.0416
1117.75,0.0420
1117.50,0.0425
1117.25,0.0429
1117.00,0.0432
1116.75,0.0434
1116.50,0.0436
1116.25,0.0438
1116.00,0.0441
1115.75,0.0444
1115.50,0.0448
1115.25,0.0452
1115.00,0.0456
1114.75,0.0458
1114.50,0.0460
1114.25,0.0462
1114.00,0.0464
1113.75,0.0467
1113.50,0.0470
1113.25,0.0473
1113.00,0.0477
1112.75,0.0480
1112.50,0.0483
1112.25,0.0487
1112.00,0.0490
1111.75,0.0494
1111.50,0.0497
1111.25,0.0501
1111.00,0.0503
1110.75,0.0506
1110.50,0.0508
1110.25,0.0511
1110.00,0.0515
1109.75,0.0519
1109.50,0.0523
1109.25,0.0526
1109.00,0.0529
1108.75,0.0531
1108.50,0.0534
1108.25,0.0539
1108.00,0.0544
1107.75,0.0548
1107.50,0.0550
1107.25,0.0552
1107.00,0.0553
1106.75,0.0556
1106.50,0.0560
1106.25,0.0565
1106.00,0.0570
1105.75,0.0574
1105.50,0.0579
1105.25,0.0583
1105.00,0.0586
1104.75,0.0589
1104.50,0.0592
1104.25,0.0594
1104.00,0.0597
1103.75,0.0600
1103.50,0.0603
1103.25,0.0607
1103.00,0.0611
1102.75,0.0615
1102.50,0.0619
1102.25,0.0624
1102.00,0.0629
1101.75,0.0634
1101.50,0.0636
1101.25,0.0637
1101.00,0.0637
1100.75,0.0639
1100.50,0.0642
1100.25,0.0648
1100.00,0.0654
1099.75,0.0658
1099.50,0.0662
1099.25,0.0664
1099.00,0.0667
1098.75,0.0671
1098.50,0.0676
1098.25,0.0682
1098.00,0.0686
1097.75,0.0688
1097.50,0.0690
1097.25,0.0691
1097.00,0.0693
1096.75,0.0696
1096.50,0.0700
1096.25,0.0703
1096.00,0.0708
1095.75,0.0712
1095.50,0.0717
1095.25,0.0721
1095.00,0.0724
1094.75,0.0727
1094.50,0.0731
1094.25,0.0736
1094.00,0.0739
1093.75,0.0742
1093.50,0.0743
1093.25,0.0743
1093.00,0.0745
1092.75,0.0749
1092.50,0.0754
1092.25,0.0759
1092.00,0.0764
1091.75,0.0768
1091.50,0.0772
1091.25,0.0775
1091.00,0.0776
1090.75,0.0777
1090.50,0.0779
1090.25,0.0782
1090.00,0.0786
1089.75,0.0790
1089.50,0.0794
1089.25,0.0796
1089.00,0.0797
1088.75,0.0798
1088.50,0.0800
1088.25,0.0803
1088.00,0.0807
1087.75,0.0810
1087.50,0.0814
1087.25,0.0817
1087.00,0.0820
1086.75,0.0823
1086.50,0.0826
1086.25,0.0829
1086.00,0.0833
1085.75,0.0836
1085.50,0.0838
1085.25,0.0838
1085.00,0.0837
1084.75,0.0835
1084.50,0.0834
1084.25,0.0834
1084.00,0.0836
1083.75,0.0837
1083.50,0.0839
1083.25,0.0840
1083.00,0.0841
1082.75,0.0844
1082.50,0.0847
1082.25,0.0851
1082.00,0.0854
1081.75,0.0858
1081.50,0.0860
1081.25,0.0862
1081.00,0.0863
1080.75,0.0864
1080.50,0.0864
1080.25,0.0864
1080.00,0.0864
1079.75,0.0864
1079.50,0.0864
1079.25,0.0864
1079.00,0.0863
1078.75,0.0863
1078.50,0.0864
1078.25,0.0866
1078.00,0.0868
1077.75,0.0870
1077.50,0.0871
1077.25,0.0871
1077.00,0.0871
1076.75,0.0871
1076.50,0.0872
1076.25,0.0874
1076.00,0.0877
1075.75,0.0879
1075.50,0.0881
1075.25,0.0881
1075.00,0.0881
1074.75,0.0882
1074.50,0.0882
1074.25,0.0882
1074.00,0.0881
1073.75,0.0880
1073.50,0.0880
1073.25,0.0882
1073.00,0.0885
1072.75,0.0888
1072.50,0.0888
1072.25,0.0886
1072.00,0.0883
1071.75,0.0881
1071.50,0.0880
1071.25,0.0880
1071.00,0.0880
1070.75,0.0880
1070.50,0.0881
1070.25,0.0883
1070.00,0.0885
1069.75,0.0887
1069.50,0.0888
1069.25,0.0889
1069.00,0.0888
1068.75,0.0888
1068.50,0.0888
1068.25,0.0889
1068.00,0.0890
1067.75,0.0891
1067.50,0.0893
1067.25,0.0894
1067.00,0.0895
1066.75,0.0894
1066.50,0.0893
1066.25,0.0891
1066.00,0.0890
1065.75,0.0890
1065.50,0.0892
1065.25,0.0894
1065.00,0.0895
1064.75,0.0894
1064.50,0.0891
1064.25,0.0888
1064.00,0.0886
1063.75,0.0885
1063.50,0.0885
1063.25,0.0885
1063.00,0.0885
1062.75,0.0885
1062.50,0.0887
1062.25,0.0890
1062.00,0.0892
1061.75,0.0893
1061.50,0.0892
1061.25,0.0890
1061.00,0.0888
1060.75,0.0886
1060.50,0.0886
1060.25,0.0886
1060.00,0.0886
1059.75,0.0886
1059.50,0.0888
1059.25,0.0890
1059.00,0.0893
1058.75,0.0896
1058.50,0.0898
1058.25,0.0898
1058.00,0.0896
1057.75,0.0893
1057.50,0.0891
1057.25,0.0887
1057.00,0.0884
1056.75,0.0882
1056.50,0.0881
1056.25,0.0882
1056.00,0.0885
1055.75,0.0889
1055.50,0.0891
1055.25,0.0891
1055.00,0.0890
1054.75,0.0889
1054.50,0.0889
1054.25,0.0890
1054.00,0.0890
1053.75,0.0891
1053.50,0.0890
1053.25,0.0887
1053.00,0.0884
1052.75,0.0883
1052.50,0.0882
1052.25,0.0882
1052.00,0.0882
1051.75,0.0881
1051.50,0.0879
1051.25,0.0877
1051.00,0.0876
1050.75,0.0876
1050.50,0.0877
1050.25,0.0879
1050.00,0.0881
1049.75,0.0883
1049.50,0.0885
1049.25,0.0886
1049.00,0.0887
1048.75,0.0888
1048.50,0.0888
1048.25,0.0887
1048.00,0.0886
1047.75,0.0884
1047.50,0.0883
1047.25,0.0883
1047.00,0.0883
1046.75,0.0884
1046.50,0.0884
1046.25,0.0884
1046.00,0.0885
1045.75,0.0886
1045.50,0.0888
1045.25,0.0890
1045.00,0.0892
1044.75,0.0892
1044.50,0.0892
1044.25,0.0891
1044.00,0.0890
1043.75,0.0889
1043.50,0.0889
1043.25,0.0888
1043.00,0.0888
1042.75,0.0889
1042.50,0.0890
1042.25,0.0891
1042.00,0.0893
1041.75,0.0894
1041.50,0.0895
1041.25,0.0896
1041.00,0.0898
1040.75,0.0899
1040.50,0.0899
1040.25,0.0900
1040.00,0.0899
1039.75,0.0898
1039.50,0.0897
1039.25,0.0898
1039.00,0.0900
1038.75,0.0903
1038.50,0.0905
1038.25,0.0907
1038.00,0.0908
1037.75,0.0909
1037.50,0.0910
1037.25,0.0911
1037.00,0.0912
1036.75,0.0914
1036.50,0.0917
1036.25,0.0921
1036.00,0.0926
1035.75,0.0931
1035.50,0.0935
1035.25,0.0938
1035.00,0.0939
1034.75,0.0940
1034.50,0.0939
1034.25,0.0939
1034.00,0.0939
1033.75,0.0940
1033.50,0.0942
1033.25,0.0945
1033.00,0.0948
1032.75,0.0952
1032.50,0.0954
1032.25,0.0955
1032.00,0.0955
1031.75,0.0956
1031.50,0.0958
1031.25,0.0960
1031.00,0.0963
1030.75,0.0964
1030.50,0.0965
1030.25,0.0966
1030.00,0.0967
1029.75,0.0970
1029.50,0.0973
1029.25,0.0976
1029.00,0.0981
1028.75,0.0986
1028.50,0.0992
1028.25,0.0997
1028.00,0.1000
1027.75,0.1000
1027.50,0.1000
1027.25,0.1001
1027.00,0.1003
1026.75,0.1005
1026.50,0.1007
1026.25,0.1007
1026.00,0.1009
1025.75,0.1011
1025.50,0.1014
1025.25,0.1018
1025.00,0.1021
1024.75,0.1025
1024.50,0.1028
1024.25,0.1030
1024.00,0.1032
1023.75,0.1035
1023.50,0.1040
1023.25,0.1045
1023.00,0.1050
1022.75,0.1052
1022.50,0.1053
1022.25,0.1053
1022.00,0.1054
1021.75,0.1057
1021.50,0.1060
1021.25,0.1064
1021.00,0.1067
1020.75,0.1068
1020.50,0.1070
1020.25,0.1072
1020.00,0.1075
1019.75,0.1078
1019.50,0.1081
1019.25,0.1083
1019.00,0.1084
1018.75,0.1087
1018.50,0.1090
1018.25,0.1093
1018.00,0.1096
1017.75,0.1099
1017.50,0.1102
1017.25,0.1105
1017.00,0.1107
1016.75,0.1109
1016.50,0.1110
1016.25,0.1110
1016.00,0.1111
1015.75,0.1112
1015.50,0.1114
1015.25,0.1116
1015.00,0.1118
1014.75,0.1119
1014.50,0.1118
1014.25,0.1116
1014.00,0.1115
1013.75,0.1115
1013.50,0.1117
1013.25,0.1118
1013.00,0.1118
1012.75,0.1116
1012.50,0.1113
1012.25,0.1109
1012.00,0.1106
1011.75,0.1103
1011.50,0.1101
1011.25,0.1100
1011.00,0.1100
1010.75,0.1101
1010.50,0.1101
1010.25,0.1100
1010.00,0.1098
1009.75,0.1094
1009.50,0.1089
1009.25,0.1083
1009.00,0.1077
1008.75,0.1072
1008.50,0.1069
1008.25,0.1067
1008.00,0.1066
1007.75,0.1063
1007.50,0.1057
1007.25,0.1050
1007.00,0.1043
1006.75,0.1036
1006.50,0.1031
1006.25,0.1025
1006.00,0.1020
1005.75,0.1014
1005.50,0.1007
1005.25,0.1000
1005.00,0.0994
1004.75,0.0988
1004.50,0.0983
1004.25,0.0980
1004.00,0.0976
1003.75,0.0971
1003.50,0.0967
1003.25,0.0962
1003.00,0.0956
1002.75,0.0950
1002.50,0.0944
1002.25,0.0937
1002.00,0.0930
1001.75,0.0924
1001.50,0.0919
1001.25,0.0914
1001.00,0.0909
1000.75,0.0905
1000.50,0.0899
1000.25,0.0893
1000.00,0.0885
999.75,0.0877
999.50,0.0869
999.25,0.0862
999.00,0.0855
998.75,0.0847
998.50,0.0838
998.25,0.0830
998.00,0.0822
997.75,0.0815
997.50,0.0809
997.25,0.0803
997.00,0.0797
996.75,0.0793
996.50,0.0789
996.25,0.0784
996.00,0.0779
995.75,0.0771
995.50,0.0762
995.25,0.0752
995.00,0.0744
994.75,0.0737
994.50,0.0731
994.25,0.0725
994.00,0.0719
993.75,0.0714
993.50,0.0708
993.25,0.0701
993.00,0.0695
992.75,0.0689
992.50,0.0681
992.25,0.0673
992.00,0.0664
991.75,0.0656
991.50,0.0650
991.25,0.0646
991.00,0.0642
990.75,0.0639
990.50,0.0634
990.25,0.0627
990.00,0.0620
989.75,0.0613
989.50,0.0607
989.25,0.0602
989.00,0.0597
988.75,0.0591
988.50,0.0583
988.25,0.0575
988.00,0.0568
987.75,0.0561
987.50,0.0555
987.25,0.0548
987.00,0.0542
986.75,0.0535
986.50,0.0528
986.25,0.0523
986.00,0.0518
985.75,0.0514
985.50,0.0509
985.25,0.0504
985.00,0.0499
984.75,0.0496
984.50,0.0493
984.25,0.0489
984.00,0.0484
983.75,0.0478
983.50,0.0471
983.25,0.0465
983.00,0.0459
982.75,0.0455
982.50,0.0450
982.25,0.0444
982.00,0.0438
981.75,0.0433
981.50,0.0429
981.25,0.0426
981.00,0.0424
980.75,0.0421
980.50,0.0417
980.25,0.0413
980.00,0.0408
979.75,0.0403
979.50,0.0397
979.25,0.0392
979.00,0.0388
978.75,0.0386
978.50,0.0384
978.25,0.0382
978.00,0.0379
977.75,0.0375
977.50,0.0371
977.25,0.0365
977.00,0.0360
976.75,0.0355
976.50,0.0352
976.25,0.0350
976.00,0.0348
975.75,0.0345
975.50,0.0342
975.25,0.0338
975.00,0.0335
974.75,0.0332
974.50,0.0331
974.25,0.0328
974.00,0.0326
973.75,0.0322
973.50,0.0319
973.25,0.0315
973.00,0.0312
972.75,0.0310
972.50,0.0309
972.25,0.0308
972.00,0.0306
971.75,0.0303
971.50,0.0300
971.25,0.0297
971.00,0.0294
970.75,0.0291
970.50,0.0288
970.25,0.0285
970.00,0.0284
969.75,0.0283
969.50,0.0282
969.25,0.0281
969.00,0.0278
968.75,0.0275
968.50,0.0271
968.25,0.0268
968.00,0.0266
967.75,0.0265
967.50,0.0266
967.25,0.0267
967.00,0.0266
966.75,0.0265
966.50,0.0261
966.25,0.0258
966.00,0.0255
965.75,0.0253
965.50,0.0252
965.25,0.0251
965.00,0.0249
964.75,0.0246
964.50,0.0243
964.25,0.0239
964.00,0.0237
963.75,0.0236
963.50,0.0236
963.25,0.0236
963.00,0.0236
962.75,0.0235
962.50,0.0234
962.25,0.0232
962.00,0.0231
961.75,0.0230
961.50,0.0228
961.25,0.0227
961.00,0.0226
960.75,0.0224
960.50,0.0222
960.25,0.0221
960.00,0.0221
959.75,0.0221
959.50,0.0221
959.25,0.0222
959.00,0.0222
958.75,0.0222
958.50,0.0221
958.25,0.0219
958.00,0.0217
957.75,0.0215
957.50,0.0214
957.25,0.0214
957.00,0.0214
956.75,0.0215
956.50,0.0216
956.25,0.0217
956.00,0.0216
955.75,0.0215
955.50,0.0213
955.25,0.0211
955.00,0.0210
954.75,0.0210
954.50,0.0209
954.25,0.0207
954.00,0.0205
953.75,0.0204
953.50,0.0205
953.25,0.0207
953.00,0.0208
952.75,0.0208
952.50,0.0206
952.25,0.0203
952.00,0.0200
951.75,0.0197
951.50,0.0195
951.25,0.0193
951.00,0.0192
950.75,0.0190
950.50,0.0190
950.25,0.0191
950.00,0.0192
949.75,0.0193
949.50,0.0193
949.25,0.0192
949.00,0.0190
948.75,0.0189
948.50,0.0189
948.25,0.0190
948.00,0.0191
947.75,0.0192
947.50,0.0190
947.25,0.0187
947.00,0.0186
946.75,0.0187
946.50,0.0189
946.25,0.0192
946.00,0.0193
945.75,0.0194
945.50,0.0193
945.25,0.0191
945.00,0.0187
944.75,0.0184
944.50,0.0182
944.25,0.0181
944.00,0.0183
943.75,0.0184
943.50,0.0186
943.25,0.0188
943.00,0.0189
942.75,0.0190
942.50,0.0190
942.25,0.0189
942.00,0.0187
941.75,0.0185
941.50,0.0184
941.25,0.0184
941.00,0.0183
940.75,0.0182
940.50,0.0180
940.25,0.0179
940.00,0.0178
939.75,0.0177
939.50,0.0177
939.25,0.0178
939.00,0.0180
938.75,0.0181
938.50,0.0181
938.25,0.0180
938.00,0.0178
937.75,0.0176
937.50,0.0176
937.25,0.0177
937.00,0.0178
936.75,0.0179
936.50,0.0179
936.25,0.0179
936.00,0.0178
935.75,0.0177
935.50,0.0176
935.25,0.0175
935.00,0.0175
934.75,0.0175
934.50,0.0176
934.25,0.0177
934.00,0.0177
933.75,0.0177
933.50,0.0176
933.25,0.0176
933.00,0.0177
932.75,0.0179
932.50,0.0181
932.25,0.0182
932.00,0.0183
931.75,0.0181
931.50,0.0180
931.25,0.0179
931.00,0.0179
930.75,0.0181
930.50,0.0183
930.25,0.0183
930.00,0.0183
929.75,0.0183
929.50,0.0184
929.25,0.0184
929.00,0.0182
928.75,0.0180
928.50,0.0177
928.25,0.0176
928.00,0.0177
927.75,0.0179
927.50,0.0183
927.25,0.0185
927.00,0.0186
926.75,0.0186
926.50,0.0185
926.25,0.0183
926.00,0.0182
925.75,0.0182
925.50,0.0181
925.25,0.0181
925.00,0.0182
924.75,0.0184
924.50,0.0185
924.25,0.0185
924.00,0.0184
923.75,0.0182
923.50,0.0181
923.25,0.0181
923.00,0.0180
922.75,0.0181
922.50,0.0181
922.25,0.0183
922.00,0.0185
921.75,0.0187
921.50,0.0188
921.25,0.0188
921.00,0.0189
920.75,0.0189
920.50,0.0188
920.25,0.0188
920.00,0.0188
919.75,0.0189
919.50,0.0190
919.25,0.0192
919.00,0.0192
918.75,0.0191
918.50,0.0189
918.25,0.0189
918.00,0.0190
917.75,0.0192
917.50,0.0194
917.25,0.0195
917.00,0.0196
916.75,0.0197
916.50,0.0197
916.25,0.0197
916.00,0.0197
915.75,0.0196
915.50,0.0196
915.25,0.0196
915.00,0.0196
914.75,0.0198
914.50,0.0200
914.25,0.0203
914.00,0.0206
913.75,0.0207
913.50,0.0207
913.25,0.0207
913.00,0.0206
912.75,0.0205
912.50,0.0205
912.25,0.0204
912.00,0.0203
911.75,0.0201
911.50,0.0198
911.25,0.0197
911.00,0.0195
910.75,0.0194
910.50,0.0194
910.25,0.0194
910.00,0.0196
909.75,0.0199
909.50,0.0202
909.25,0.0205
909.00,0.0206
908.75,0.0206
908.50,0.0205
908.25,0.0204
908.00,0.0202
907.75,0.0201
907.50,0.0200
907.25,0.0198
907.00,0.0197
906.75,0.0196
906.50,0.0195
906.25,0.0196
906.00,0.0196
905.75,0.0197
905.50,0.0196
905.25,0.0194
905.00,0.0192
904.75,0.0189
904.50,0.0187
904.25,0.0186
904.00,0.0188
903.75,0.0192
903.50,0.0196
903.25,0.0198
903.00,0.0200
902.75,0.0201
902.50,0.0203
902.25,0.0204
902.00,0.0206
901.75,0.0205
901.50,0.0203
901.25,0.0200
901.00,0.0197
900.75,0.0195
900.50,0.0194
900.25,0.0194
900.00,0.0194
899.75,0.0193
899.50,0.0192
899.25,0.0191
899.00,0.0192
898.75,0.0194
898.50,0.0197
898.25,0.0199
898.00,0.0200
897.75,0.0201
897.50,0.0201
897.25,0.0200
897.00,0.0199
896.75,0.0197
896.50,0.0196
896.25,0.0197
896.00,0.0199
895.75,0.0201
895.50,0.0202
895.25,0.0203
895.00,0.0205
894.75,0.0206
894.50,0.0208
894.25,0.0208
894.00,0.0208
893.75,0.0209
893.50,0.0210
893.25,0.0211
893.00,0.0211
892.75,0.0209
892.50,0.0205
892.25,0.0202
892.00,0.0200
891.75,0.0200
891.50,0.0202
891.25,0.0204
891.00,0.0206
890.75,0.0208
890.50,0.0209
890.25,0.0209
890.00,0.0210
889.75,0.0210
889.50,0.0210
889.25,0.0211
889.00,0.0213
888.75,0.0216
888.50,0.0218
888.25,0.0218
888.00,0.0216
887.75,0.0214
887.50,0.0214
887.25,0.0216
887.00,0.0218
886.75,0.0220
886.50,0.0221
886.25,0.0221
886.00,0.0220
885.75,0.0220
885.50,0.0221
885.25,0.0224
885.00,0.0228
884.75,0.0231
884.50,0.0234
884.25,0.0235
884.00,0.0236
883.75,0.0236
883.50,0.0237
883.25,0.0237
883.00,0.0237
882.75,0.0237
882.50,0.0237
882.25,0.0238
882.00,0.0240
881.75,0.0242
881.50,0.0243
881.25,0.0243
881.00,0.0242
880.75,0.0241
880.50,0.0243
880.25,0.0248
880.00,0.0253
879.75,0.0258
879.50,0.0260
879.25,0.0259
879.00,0.0256
878.75,0.0255
878.50,0.0256
878.25,0.0261
878.00,0.0267
877.75,0.0273
877.50,0.0276
877.25,0.0278
877.00,0.0279
876.75,0.0279
876.50,0.0280
876.25,0.0281
876.00,0.0283
875.75,0.0286
875.50,0.0290
875.25,0.0294
875.00,0.0298
874.75,0.0302
874.50,0.0305
874.25,0.0307
874.00,0.0309
873.75,0.0311
873.50,0.0313
873.25,0.0315
873.00,0.0317
872.75,0.0321
872.50,0.0325
872.25,0.0331
872.00,0.0336
871.75,0.0340
871.50,0.0344
871.25,0.0349
871.00,0.0354
870.75,0.0359
870.50,0.0363
870.25,0.0365
870.00,0.0367
869.75,0.0367
869.50,0.0368
869.25,0.0369
869.00,0.0370
868.75,0.0372
868.50,0.0375
868.25,0.0379
868.00,0.0385
867.75,0.0390
867.50,0.0394
867.25,0.0396
867.00,0.0397
866.75,0.0397
866.50,0.0397
866.25,0.0397
866.00,0.0398
865.75,0.0399
865.50,0.0402
865.25,0.0406
865.00,0.0411
864.75,0.0416
864.50,0.0418
864.25,0.0417
864.00,0.0413
863.75,0.0410
863.50,0.0408
863.25,0.0409
863.00,0.0412
862.75,0.0416
862.50,0.0419
862.25,0.0421
862.00,0.0421
861.75,0.0421
861.50,0.0419
861.25,0.0419
861.00,0.0419
860.75,0.0421
860.50,0.0423
860.25,0.0424
860.00,0.0424
859.75,0.0423
859.50,0.0421
859.25,0.0418
859.00,0.0415
858.75,0.0414
858.50,0.0416
858.25,0.0420
858.00,0.0424
857.75,0.0426
857.50,0.0424
857.25,0.0421
857.00,0.0418
856.75,0.0417
856.50,0.0418
856.25,0.0421
856.00,0.0424
855.75,0.0428
855.50,0.0434
855.25,0.0439
855.00,0.0444
854.75,0.0447
854.50,0.0447
854.25,0.0446
854.00,0.0445
853.75,0.0446
853.50,0.0450
853.25,0.0455
853.00,0.0461
852.75,0.0464
852.50,0.0466
852.25,0.0465
852.00,0.0464
851.75,0.0465
851.50,0.0469
851.25,0.0475
851.00,0.0481
850.75,0.0486
850.50,0.0489
850.25,0.0491
850.00,0.0491
849.75,0.0490
849.50,0.0489
849.25,0.0489
849.00,0.0492
848.75,0.0497
848.50,0.0503
848.25,0.0509
848.00,0.0511
847.75,0.0511
847.50,0.0512
847.25,0.0513
847.00,0.0517
846.75,0.0521
846.50,0.0524
846.25,0.0526
846.00,0.0528
845.75,0.0530
845.50,0.0530
845.25,0.0528
845.00,0.0526
844.75,0.0523
844.50,0.0523
844.25,0.0526
844.00,0.0530
843.75,0.0535
843.50,0.0538
843.25,0.0538
843.00,0.0536
842.75,0.0533
842.50,0.0531
842.25,0.0530
842.00,0.0529
841.75,0.0530
841.50,0.0529
841.25,0.0526
841.00,0.0523
840.75,0.0519
840.50,0.0516
840.25,0.0513
840.00,0.0513
839.75,0.0512
839.50,0.0512
839.25,0.0510
839.00,0.0506
838.75,0.0503
838.50,0.0502
838.25,0.0503
838.00,0.0504
837.75,0.0503
837.50,0.0498
837.25,0.0490
837.00,0.0480
836.75,0.0472
836.50,0.0466
836.25,0.0464
836.00,0.0464
835.75,0.0462
835.50,0.0458
835.25,0.0453
835.00,0.0449
834.75,0.0447
834.50,0.0447
834.25,0.0447
834.00,0.0446
833.75,0.0445
833.50,0.0443
833.25,0.0442
833.00,0.0441
832.75,0.0441
832.50,0.0443
832.25,0.0445
832.00,0.0448
831.75,0.0451
831.50,0.0453
831.25,0.0453
831.00,0.0450
830.75,0.0445
830.50,0.0441
830.25,0.0441
830.00,0.0445
829.75,0.0450
829.50,0.0455
829.25,0.0458
829.00,0.0460
828.75,0.0461
828.50,0.0462
828.25,0.0464
828.00,0.0467
827.75,0.0472
827.50,0.0477
827.25,0.0482
827.00,0.0484
826.75,0.0483
826.50,0.0482
826.25,0.0483
826.00,0.0487
825.75,0.0491
825.50,0.0495
825.25,0.0498
825.00,0.0501
824.75,0.0507
824.50,0.0514
824.25,0.0522
824.00,0.0530
823.75,0.0535
823.50,0.0538
823.25,0.0540
823.00,0.0540
822.75,0.0542
822.50,0.0548
822.25,0.0555
822.00,0.0563
821.75,0.0569
821.50,0.0570
821.25,0.0568
821.00,0.0566
820.75,0.0568
820.50,0.0575
820.25,0.0585
820.00,0.0595
819.75,0.0601
819.50,0.0604
819.25,0.0608
819.00,0.0613
818.75,0.0620
818.50,0.0626
818.25,0.0630
818.00,0.0631
817.75,0.0631
817.50,0.0632
817.25,0.0636
817.00,0.0642
816.75,0.0648
816.50,0.0655
816.25,0.0662
816.00,0.0670
815.75,0.0676
815.50,0.0681
815.25,0.0683
815.00,0.0686
814.75,0.0690
814.50,0.0694
814.25,0.0700
814.00,0.0706
813.75,0.0712
813.50,0.0716
813.25,0.0717
813.00,0.0716
812.75,0.0716
812.50,0.0719
812.25,0.0724
812.00,0.0731
811.75,0.0738
811.50,0.0745
811.25,0.0752
811.00,0.0761
810.75,0.0771
810.50,0.0782
810.25,0.0793
810.00,0.0801
809.75,0.0807
809.50,0.0811
809.25,0.0816
809.00,0.0823
808.75,0.0831
808.50,0.0842
808.25,0.0853
808.00,0.0864
807.75,0.0875
807.50,0.0883
807.25,0.0890
807.00,0.0897
806.75,0.0904
806.50,0.0914
806.25,0.0923
806.00,0.0931
805.75,0.0936
805.50,0.0941
805.25,0.0945
805.00,0.0951
804.75,0.0958
804.50,0.0967
804.25,0.0978
804.00,0.0992
803.75,0.1008
803.50,0.1023
803.25,0.1036
803.00,0.1045
802.75,0.1050
802.50,0.1053
802.25,0.1056
802.00,0.1061
801.75,0.1069
801.50,0.1079
801.25,0.1090
801.00,0.1101
800.75,0.1111
800.50,0.1120
800.25,0.1127
800.00,0.1133
