Created as New Dataset,Sample 031 By irlear Date Thursday, January 01 2009
cm-1,A
4000.00,0.0051
3999.75,0.0051
3999.50,0.0050
3999.25,0.0049
3999.00,0.0047
3998.75,0.0046
3998.50,0.0044
3998.25,0.0043
3998.00,0.0043
3997.75,0.0044
3997.50,0.0046
3997.25,0.0049
3997.00,0.0051
3996.75,0.0052
3996.50,0.0052
3996.25,0.0052
3996.00,0.0052
3995.75,0.0051
3995.50,0.0050
3995.25,0.0048
3995.00,0.0047
3994.75,0.0047
3994.50,0.0047
3994.25,0.0048
3994.00,0.0049
3993.75,0.0049
3993.50,0.0049
3993.25,0.0049
3993.00,0.0049
3992.75,0.0049
3992.50,0.0048
3992.25,0.0047
3992.00,0.0046
3991.75,0.0045
3991.50,0.0046
3991.25,0.0047
3991.00,0.0048
3990.75,0.0049
3990.50,0.0049
3990.25,0.0050
3990.00,0.0050
3989.75,0.0050
3989.50,0.0050
3989.25,0.0049
3989.00,0.0049
3988.75,0.0048
3988.50,0.0047
3988.25,0.0046
3988.00,0.0044
3987.75,0.0044
3987.50,0.0044
3987.25,0.0045
3987.00,0.0047
3986.75,0.0048
3986.50,0.0049
3986.25,0.0050
3986.00,0.0050
3985.75,0.0050
3985.50,0.0050
3985.25,0.0050
3985.00,0.0050
3984.75,0.0050
3984.50,0.0050
3984.25,0.0050
3984.00,0.0050
3983.75,0.0050
3983.50,0.0050
3983.25,0.0050
3983.00,0.0049
3982.75,0.0048
3982.50,0.0048
3982.25,0.0047
3982.00,0.0048
3981.75,0.0049
3981.50,0.0050
3981.25,0.0050
3981.00,0.0050
3980.75,0.0049
3980.50,0.0048
3980.25,0.0048
3980.00,0.0047
3979.75,0.0047
3979.50,0.0047
3979.25,0.0047
3979.00,0.0047
3978.75,0.0047
3978.50,0.0047
3978.25,0.0048
3978.00,0.0049
3977.75,0.0050
3977.50,0.0049
3977.25,0.0048
3977.00,0.0047
3976.75,0.0046
3976.50,0.0046
3976.25,0.0047
3976.00,0.0049
3975.75,0.0049
3975.50,0.0050
3975.25,0.0049
3975.00,0.0048
3974.75,0.0047
3974.50,0.0045
3974.25,0.0045
3974.00,0.0046
3973.75,0.0047
3973.50,0.0048
3973.25,0.0050
3973.00,0.0050
3972.75,0.0051
3972.50,0.0051
3972.25,0.0051
3972.00,0.0051
3971.75,0.0051
3971.50,0.0050
3971.25,0.0049
3971.00,0.0048
3970.75,0.0047
3970.50,0.0047
3970.25,0.0047
3970.00,0.0047
3969.75,0.0047
3969.50,0.0047
3969.25,0.0047
3969.00,0.0047
3968.75,0.0046
3968.50,0.0045
3968.25,0.0045
3968.00,0.0046
3967.75,0.0046
3967.50,0.0047
3967.25,0.0047
3967.00,0.0048
3966.75,0.0049
3966.50,0.0049
3966.25,0.0050
3966.00,0.0050
3965.75,0.0049
3965.50,0.0048
3965.25,0.0047
3965.00,0.0046
3964.75,0.0046
3964.50,0.0045
3964.25,0.0046
3964.00,0.0047
3963.75,0.0048
3963.50,0.0048
3963.25,0.0049
3963.00,0.0049
3962.75,0.0049
3962.50,0.0048
3962.25,0.0048
3962.00,0.0047
3961.75,0.0047
3961.50,0.0046
3961.25,0.0046
3961.00,0.0046
3960.75,0.0047
3960.50,0.0047
3960.25,0.0047
3960.00,0.0047
3959.75,0.0047
3959.50,0.0047
3959.25,0.0046
3959.00,0.0046
3958.75,0.0046
3958.50,0.0047
3958.25,0.0048
3958.00,0.0049
3957.75,0.0049
3957.50,0.0048
3957.25,0.0046
3957.00,0.0045
3956.75,0.0045
3956.50,0.0046
3956.25,0.0048
3956.00,0.0049
3955.75,0.0050
3955.50,0.0051
3955.25,0.0050
3955.00,0.0049
3954.75,0.0048
3954.50,0.0046
3954.25,0.0046
3954.00,0.0045
3953.75,0.0046
3953.50,0.0047
3953.25,0.0047
3953.00,0.0048
3952.75,0.0048
3952.50,0.0048
3952.25,0.0048
3952.00,0.0048
3951.75,0.0048
3951.50,0.0048
3951.25,0.0048
3951.00,0.0048
3950.75,0.0047
3950.50,0.0045
3950.25,0.0044
3950.00,0.0044
3949.75,0.0045
3949.50,0.0046
3949.25,0.0047
3949.00,0.0047
3948.75,0.0047
3948.50,0.0047
3948.25,0.0048
3948.00,0.0048
3947.75,0.0048
3947.50,0.0049
3947.25,0.0049
3947.00,0.0049
3946.75,0.0048
3946.50,0.0048
3946.25,0.0047
3946.00,0.0047
3945.75,0.0047
3945.50,0.0048
3945.25,0.0049
3945.00,0.0050
3944.75,0.0050
3944.50,0.0050
3944.25,0.0049
3944.00,0.0048
3943.75,0.0046
3943.50,0.0044
3943.25,0.0042
3943.00,0.0042
3942.75,0.0043
3942.50,0.0045
3942.25,0.0047
3942.00,0.0047
3941.75,0.0048
3941.50,0.0048
3941.25,0.0048
3941.00,0.0049
3940.75,0.0049
3940.50,0.0049
3940.25,0.0049
3940.00,0.0049
3939.75,0.0049
3939.50,0.0049
3939.25,0.0049
3939.00,0.0049
3938.75,0.0048
3938.50,0.0047
3938.25,0.0046
3938.00,0.0045
3937.75,0.0044
3937.50,0.0044
3937.25,0.0043
3937.00,0.0043
3936.75,0.0043
3936.50,0.0043
3936.25,0.0043
3936.00,0.0043
3935.75,0.0044
3935.50,0.0046
3935.25,0.0047
3935.00,0.0048
3934.75,0.0049
3934.50,0.0049
3934.25,0.0049
3934.00,0.0049
3933.75,0.0049
3933.50,0.0049
3933.25,0.0048
3933.00,0.0048
3932.75,0.0048
3932.50,0.0049
3932.25,0.0050
3932.00,0.0051
3931.75,0.0050
3931.50,0.0049
3931.25,0.0048
3931.00,0.0048
3930.75,0.0048
3930.50,0.0048
3930.25,0.0048
3930.00,0.0048
3929.75,0.0048
3929.50,0.0048
3929.25,0.0049
3929.00,0.0048
3928.75,0.0048
3928.50,0.0048
3928.25,0.0049
3928.00,0.0050
3927.75,0.0051
3927.50,0.0052
3927.25,0.0052
3927.00,0.0050
3926.75,0.0048
3926.50,0.0046
3926.25,0.0045
3926.00,0.0044
3925.75,0.0044
3925.50,0.0044
3925.25,0.0046
3925.00,0.0047
3924.75,0.0048
3924.50,0.0049
3924.25,0.0048
3924.00,0.0048
3923.75,0.0048
3923.50,0.0047
3923.25,0.0048
3923.00,0.0048
3922.75,0.0049
3922.50,0.0050
3922.25,0.0051
3922.00,0.0053
3921.75,0.0054
3921.50,0.0053
3921.25,0.0052
3921.00,0.0050
3920.75,0.0048
3920.50,0.0047
3920.25,0.0047
3920.00,0.0048
3919.75,0.0047
3919.50,0.0047
3919.25,0.0046
3919.00,0.0046
3918.75,0.0046
3918.50,0.0046
3918.25,0.0047
3918.00,0.0047
3917.75,0.0047
3917.50,0.0046
3917.25,0.0045
3917.00,0.0044
3916.75,0.0044
3916.50,0.0044
3916.25,0.0046
3916.00,0.0047
3915.75,0.0048
3915.50,0.0049
3915.25,0.0049
3915.00,0.0049
3914.75,0.0049
3914.50,0.0048
3914.25,0.0048
3914.00,0.0048
3913.75,0.0047
3913.50,0.0047
3913.25,0.0046
3913.00,0.0046
3912.75,0.0046
3912.50,0.0046
3912.25,0.0047
3912.00,0.0047
3911.75,0.0048
3911.50,0.0048
3911.25,0.0049
3911.00,0.0049
3910.75,0.0048
3910.50,0.0048
3910.25,0.0047
3910.00,0.0046
3909.75,0.0046
3909.50,0.0047
3909.25,0.0048
3909.00,0.0050
3908.75,0.0051
3908.50,0.0052
3908.25,0.0052
3908.00,0.0052
3907.75,0.0051
3907.50,0.0050
3907.25,0.0049
3907.00,0.0048
3906.75,0.0047
3906.50,0.0047
3906.25,0.0047
3906.00,0.0047
3905.75,0.0047
3905.50,0.0047
3905.25,0.0047
3905.00,0.0047
3904.75,0.0046
3904.50,0.0045
3904.25,0.0044
3904.00,0.0044
3903.75,0.0044
3903.50,0.0044
3903.25,0.0044
3903.00,0.0044
3902.75,0.0045
3902.50,0.0045
3902.25,0.0045
3902.00,0.0045
3901.75,0.0045
3901.50,0.0043
3901.25,0.0042
3901.00,0.0042
3900.75,0.0043
3900.50,0.0044
3900.25,0.0046
3900.00,0.0046
3899.75,0.0046
3899.50,0.0044
3899.25,0.0043
3899.00,0.0042
3898.75,0.0042
3898.50,0.0044
3898.25,0.0046
3898.00,0.0048
3897.75,0.0049
3897.50,0.0051
3897.25,0.0051
3897.00,0.0051
3896.75,0.0050
3896.50,0.0049
3896.25,0.0048
3896.00,0.0049
3895.75,0.0050
3895.50,0.0051
3895.25,0.0051
3895.00,0.0050
3894.75,0.0049
3894.50,0.0048
3894.25,0.0047
3894.00,0.0047
3893.75,0.0047
3893.50,0.0047
3893.25,0.0048
3893.00,0.0049
3892.75,0.0050
3892.50,0.0051
3892.25,0.0052
3892.00,0.0053
3891.75,0.0053
3891.50,0.0052
3891.25,0.0051
3891.00,0.0049
3890.75,0.0047
3890.50,0.0046
3890.25,0.0046
3890.00,0.0046
3889.75,0.0047
3889.50,0.0048
3889.25,0.0050
3889.00,0.0051
3888.75,0.0052
3888.50,0.0052
3888.25,0.0052
3888.00,0.0051
3887.75,0.0050
3887.50,0.0048
3887.25,0.0046
3887.00,0.0046
3886.75,0.0046
3886.50,0.0047
3886.25,0.0049
3886.00,0.0049
3885.75,0.0050
3885.50,0.0049
3885.25,0.0048
3885.00,0.0048
3884.75,0.0049
3884.50,0.0050
3884.25,0.0050
3884.00,0.0051
3883.75,0.0051
3883.50,0.0050
3883.25,0.0049
3883.00,0.0048
3882.75,0.0047
3882.50,0.0047
3882.25,0.0047
3882.00,0.0048
3881.75,0.0049
3881.50,0.0050
3881.25,0.0050
3881.00,0.0050
3880.75,0.0047
3880.50,0.0045
3880.25,0.0043
3880.00,0.0042
3879.75,0.0042
3879.50,0.0043
3879.25,0.0044
3879.00,0.0045
3878.75,0.0046
3878.50,0.0048
3878.25,0.0049
3878.00,0.0050
3877.75,0.0050
3877.50,0.0049
3877.25,0.0048
3877.00,0.0046
3876.75,0.0044
3876.50,0.0044
3876.25,0.0044
3876.00,0.0045
3875.75,0.0047
3875.50,0.0048
3875.25,0.0049
3875.00,0.0049
3874.75,0.0049
3874.50,0.0048
3874.25,0.0048
3874.00,0.0049
3873.75,0.0048
3873.50,0.0048
3873.25,0.0047
3873.00,0.0046
3872.75,0.0046
3872.50,0.0047
3872.25,0.0048
3872.00,0.0049
3871.75,0.0051
3871.50,0.0051
3871.25,0.0052
3871.00,0.0051
3870.75,0.0049
3870.50,0.0047
3870.25,0.0045
3870.00,0.0045
3869.75,0.0047
3869.50,0.0049
3869.25,0.0049
3869.00,0.0047
3868.75,0.0044
3868.50,0.0042
3868.25,0.0041
3868.00,0.0042
3867.75,0.0043
3867.50,0.0044
3867.25,0.0045
3867.00,0.0045
3866.75,0.0045
3866.50,0.0046
3866.25,0.0048
3866.00,0.0050
3865.75,0.0051
3865.50,0.0050
3865.25,0.0048
3865.00,0.0046
3864.75,0.0046
3864.50,0.0047
3864.25,0.0048
3864.00,0.0049
3863.75,0.0050
3863.50,0.0050
3863.25,0.0049
3863.00,0.0048
3862.75,0.0048
3862.50,0.0047
3862.25,0.0047
3862.00,0.0046
3861.75,0.0046
3861.50,0.0045
3861.25,0.0044
3861.00,0.0043
3860.75,0.0042
3860.50,0.0041
3860.25,0.0041
3860.00,0.0042
3859.75,0.0043
3859.50,0.0044
3859.25,0.0045
3859.00,0.0046
3858.75,0.0048
3858.50,0.0050
3858.25,0.0051
3858.00,0.0051
3857.75,0.0050
3857.50,0.0048
3857.25,0.0047
3857.00,0.0047
3856.75,0.0046
3856.50,0.0046
3856.25,0.0045
3856.00,0.0045
3855.75,0.0045
3855.50,0.0046
3855.25,0.0047
3855.00,0.0047
3854.75,0.0047
3854.50,0.0047
3854.25,0.0046
3854.00,0.0048
3853.75,0.0047
3853.50,0.0045
3853.25,0.0045
3853.00,0.0045
3852.75,0.0045
3852.50,0.0045
3852.25,0.0045
3852.00,0.0046
3851.75,0.0046
3851.50,0.0046
3851.25,0.0047
3851.00,0.0047
3850.75,0.0048
3850.50,0.0048
3850.25,0.0048
3850.00,0.0048
3849.75,0.0048
3849.50,0.0049
3849.25,0.0049
3849.00,0.0049
3848.75,0.0049
3848.50,0.0048
3848.25,0.0048
3848.00,0.0048
3847.75,0.0049
3847.50,0.0049
3847.25,0.0049
3847.00,0.0049
3846.75,0.0048
3846.50,0.0048
3846.25,0.0048
3846.00,0.0049
3845.75,0.0050
3845.50,0.0050
3845.25,0.0050
3845.00,0.0049
3844.75,0.0049
3844.50,0.0049
3844.25,0.0049
3844.00,0.0049
3843.75,0.0049
3843.50,0.0049
3843.25,0.0047
3843.00,0.0046
3842.75,0.0045
3842.50,0.0046
3842.25,0.0047
3842.00,0.0047
3841.75,0.0047
3841.50,0.0045
3841.25,0.0041
3841.00,0.0038
3840.75,0.0036
3840.50,0.0037
3840.25,0.0040
3840.00,0.0044
3839.75,0.0047
3839.50,0.0048
3839.25,0.0048
3839.00,0.0046
3838.75,0.0044
3838.50,0.0042
3838.25,0.0040
3838.00,0.0039
3837.75,0.0040
3837.50,0.0040
3837.25,0.0041
3837.00,0.0042
3836.75,0.0043
3836.50,0.0043
3836.25,0.0043
3836.00,0.0043
3835.75,0.0042
3835.50,0.0041
3835.25,0.0038
3835.00,0.0037
3834.75,0.0037
3834.50,0.0039
3834.25,0.0042
3834.00,0.0045
3833.75,0.0047
3833.50,0.0048
3833.25,0.0049
3833.00,0.0049
3832.75,0.0049
3832.50,0.0047
3832.25,0.0045
3832.00,0.0044
3831.75,0.0045
3831.50,0.0048
3831.25,0.0051
3831.00,0.0053
3830.75,0.0053
3830.50,0.0051
3830.25,0.0049
3830.00,0.0046
3829.75,0.0045
3829.50,0.0045
3829.25,0.0045
3829.00,0.0045
3828.75,0.0046
3828.50,0.0046
3828.25,0.0046
3828.00,0.0047
3827.75,0.0047
3827.50,0.0048
3827.25,0.0049
3827.00,0.0049
3826.75,0.0050
3826.50,0.0051
3826.25,0.0050
3826.00,0.0049
3825.75,0.0047
3825.50,0.0046
3825.25,0.0046
3825.00,0.0047
3824.75,0.0048
3824.50,0.0050
3824.25,0.0052
3824.00,0.0053
3823.75,0.0053
3823.50,0.0052
3823.25,0.0051
3823.00,0.0050
3822.75,0.0048
3822.50,0.0047
3822.25,0.0046
3822.00,0.0045
3821.75,0.0045
3821.50,0.0047
3821.25,0.0049
3821.00,0.0050
3820.75,0.0052
3820.50,0.0054
3820.25,0.0056
3820.00,0.0057
3819.75,0.0056
3819.50,0.0054
3819.25,0.0052
3819.00,0.0050
3818.75,0.0049
3818.50,0.0048
3818.25,0.0049
3818.00,0.0049
3817.75,0.0049
3817.50,0.0050
3817.25,0.0051
3817.00,0.0052
3816.75,0.0052
3816.50,0.0052
3816.25,0.0052
3816.00,0.0052
3815.75,0.0052
3815.50,0.0051
3815.25,0.0051
3815.00,0.0051
3814.75,0.0050
3814.50,0.0050
3814.25,0.0050
3814.00,0.0051
3813.75,0.0051
3813.50,0.0051
3813.25,0.0051
3813.00,0.0050
3812.75,0.0049
3812.50,0.0047
3812.25,0.0047
3812.00,0.0047
3811.75,0.0048
3811.50,0.0049
3811.25,0.0050
3811.00,0.0050
3810.75,0.0051
3810.50,0.0050
3810.25,0.0050
3810.00,0.0049
3809.75,0.0048
3809.50,0.0047
3809.25,0.0047
3809.00,0.0047
3808.75,0.0048
3808.50,0.0049
3808.25,0.0051
3808.00,0.0053
3807.75,0.0054
3807.50,0.0054
3807.25,0.0054
3807.00,0.0054
3806.75,0.0052
3806.50,0.0049
3806.25,0.0046
3806.00,0.0043
3805.75,0.0042
3805.50,0.0042
3805.25,0.0044
3805.00,0.0046
3804.75,0.0048
3804.50,0.0049
3804.25,0.0049
3804.00,0.0049
3803.75,0.0049
3803.50,0.0049
3803.25,0.0050
3803.00,0.0051
3802.75,0.0051
3802.50,0.0051
3802.25,0.0048
3802.00,0.0044
3801.75,0.0039
3801.50,0.0038
3801.25,0.0042
3801.00,0.0050
3800.75,0.0054
3800.50,0.0054
3800.25,0.0052
3800.00,0.0049
3799.75,0.0047
3799.50,0.0045
3799.25,0.0046
3799.00,0.0047
3798.75,0.0049
3798.50,0.0050
3798.25,0.0050
3798.00,0.0050
3797.75,0.0051
3797.50,0.0052
3797.25,0.0052
3797.00,0.0051
3796.75,0.0048
3796.50,0.0046
3796.25,0.0045
3796.00,0.0044
3795.75,0.0045
3795.50,0.0046
3795.25,0.0047
3795.00,0.0048
3794.75,0.0049
3794.50,0.0050
3794.25,0.0050
3794.00,0.0050
3793.75,0.0050
3793.50,0.0049
3793.25,0.0047
3793.00,0.0047
3792.75,0.0047
3792.50,0.0047
3792.25,0.0048
3792.00,0.0049
3791.75,0.0049
3791.50,0.0048
3791.25,0.0047
3791.00,0.0046
3790.75,0.0046
3790.50,0.0046
3790.25,0.0046
3790.00,0.0047
3789.75,0.0047
3789.50,0.0046
3789.25,0.0046
3789.00,0.0046
3788.75,0.0045
3788.50,0.0046
3788.25,0.0047
3788.00,0.0049
3787.75,0.0050
3787.50,0.0051
3787.25,0.0052
3787.00,0.0052
3786.75,0.0052
3786.50,0.0053
3786.25,0.0054
3786.00,0.0055
3785.75,0.0055
3785.50,0.0055
3785.25,0.0055
3785.00,0.0054
3784.75,0.0054
3784.50,0.0054
3784.25,0.0052
3784.00,0.0051
3783.75,0.0049
3783.50,0.0048
3783.25,0.0048
3783.00,0.0048
3782.75,0.0048
3782.50,0.0049
3782.25,0.0049
3782.00,0.0048
3781.75,0.0048
3781.50,0.0048
3781.25,0.0048
3781.00,0.0049
3780.75,0.0049
3780.50,0.0048
3780.25,0.0047
3780.00,0.0045
3779.75,0.0043
3779.50,0.0043
3779.25,0.0043
3779.00,0.0044
3778.75,0.0045
3778.50,0.0046
3778.25,0.0048
3778.00,0.0050
3777.75,0.0051
3777.50,0.0050
3777.25,0.0049
3777.00,0.0048
3776.75,0.0048
3776.50,0.0048
3776.25,0.0049
3776.00,0.0050
3775.75,0.0050
3775.50,0.0049
3775.25,0.0047
3775.00,0.0046
3774.75,0.0045
3774.50,0.0045
3774.25,0.0044
3774.00,0.0044
3773.75,0.0045
3773.50,0.0045
3773.25,0.0047
3773.00,0.0048
3772.75,0.0050
3772.50,0.0051
3772.25,0.0051
3772.00,0.0052
3771.75,0.0052
3771.50,0.0052
3771.25,0.0053
3771.00,0.0053
3770.75,0.0052
3770.50,0.0051
3770.25,0.0050
3770.00,0.0049
3769.75,0.0048
3769.50,0.0046
3769.25,0.0045
3769.00,0.0046
3768.75,0.0046
3768.50,0.0047
3768.25,0.0048
3768.00,0.0049
3767.75,0.0049
3767.50,0.0049
3767.25,0.0049
3767.00,0.0049
3766.75,0.0050
3766.50,0.0050
3766.25,0.0051
3766.00,0.0050
3765.75,0.0049
3765.50,0.0047
3765.25,0.0046
3765.00,0.0045
3764.75,0.0047
3764.50,0.0050
3764.25,0.0052
3764.00,0.0053
3763.75,0.0053
3763.50,0.0053
3763.25,0.0052
3763.00,0.0052
3762.75,0.0052
3762.50,0.0051
3762.25,0.0050
3762.00,0.0049
3761.75,0.0049
3761.50,0.0050
3761.25,0.0050
3761.00,0.0051
3760.75,0.0051
3760.50,0.0050
3760.25,0.0048
3760.00,0.0047
3759.75,0.0046
3759.50,0.0047
3759.25,0.0048
3759.00,0.0050
3758.75,0.0051
3758.50,0.0052
3758.25,0.0052
3758.00,0.0052
3757.75,0.0052
3757.50,0.0052
3757.25,0.0052
3757.00,0.0051
3756.75,0.0051
3756.50,0.0049
3756.25,0.0048
3756.00,0.0047
3755.75,0.0047
3755.50,0.0049
3755.25,0.0052
3755.00,0.0055
3754.75,0.0056
3754.50,0.0055
3754.25,0.0053
3754.00,0.0051
3753.75,0.0050
3753.50,0.0050
3753.25,0.0051
3753.00,0.0053
3752.75,0.0054
3752.50,0.0055
3752.25,0.0054
3752.00,0.0053
3751.75,0.0050
3751.50,0.0049
3751.25,0.0049
3751.00,0.0049
3750.75,0.0050
3750.50,0.0052
3750.25,0.0054
3750.00,0.0056
3749.75,0.0058
3749.50,0.0057
3749.25,0.0053
3749.00,0.0046
3748.75,0.0043
3748.50,0.0042
3748.25,0.0044
3748.00,0.0045
3747.75,0.0047
3747.50,0.0049
3747.25,0.0052
3747.00,0.0053
3746.75,0.0054
3746.50,0.0054
3746.25,0.0054
3746.00,0.0054
3745.75,0.0053
3745.50,0.0052
3745.25,0.0047
3745.00,0.0038
3744.75,0.0025
3744.50,0.0020
3744.25,0.0030
3744.00,0.0042
3743.75,0.0048
3743.50,0.0050
3743.25,0.0050
3743.00,0.0050
3742.75,0.0050
3742.50,0.0050
3742.25,0.0050
3742.00,0.0050
3741.75,0.0049
3741.50,0.0049
3741.25,0.0050
3741.00,0.0053
3740.75,0.0055
3740.50,0.0055
3740.25,0.0053
3740.00,0.0052
3739.75,0.0050
3739.50,0.0050
3739.25,0.0050
3739.00,0.0051
3738.75,0.0053
3738.50,0.0054
3738.25,0.0055
3738.00,0.0056
3737.75,0.0055
3737.50,0.0055
3737.25,0.0054
3737.00,0.0055
3736.75,0.0056
3736.50,0.0058
3736.25,0.0058
3736.00,0.0056
3735.75,0.0053
3735.50,0.0050
3735.25,0.0050
3735.00,0.0052
3734.75,0.0056
3734.50,0.0057
3734.25,0.0055
3734.00,0.0054
3733.75,0.0052
3733.50,0.0051
3733.25,0.0051
3733.00,0.0053
3732.75,0.0055
3732.50,0.0059
3732.25,0.0064
3732.00,0.0068
3731.75,0.0065
3731.50,0.0059
3731.25,0.0054
3731.00,0.0051
3730.75,0.0049
3730.50,0.0049
3730.25,0.0049
3730.00,0.0050
3729.75,0.0050
3729.50,0.0050
3729.25,0.0051
3729.00,0.0051
3728.75,0.0051
3728.50,0.0051
3728.25,0.0052
3728.00,0.0052
3727.75,0.0052
3727.50,0.0051
3727.25,0.0050
3727.00,0.0047
3726.75,0.0045
3726.50,0.0045
3726.25,0.0047
3726.00,0.0049
3725.75,0.0051
3725.50,0.0051
3725.25,0.0050
3725.00,0.0049
3724.75,0.0048
3724.50,0.0047
3724.25,0.0048
3724.00,0.0049
3723.75,0.0050
3723.50,0.0052
3723.25,0.0055
3723.00,0.0057
3722.75,0.0059
3722.50,0.0059
3722.25,0.0058
3722.00,0.0055
3721.75,0.0053
3721.50,0.0051
3721.25,0.0049
3721.00,0.0049
3720.75,0.0049
3720.50,0.0049
3720.25,0.0050
3720.00,0.0051
3719.75,0.0050
3719.50,0.0050
3719.25,0.0049
3719.00,0.0049
3718.75,0.0048
3718.50,0.0046
3718.25,0.0044
3718.00,0.0043
3717.75,0.0043
3717.50,0.0044
3717.25,0.0046
3717.00,0.0048
3716.75,0.0049
3716.50,0.0051
3716.25,0.0053
3716.00,0.0055
3715.75,0.0056
3715.50,0.0057
3715.25,0.0056
3715.00,0.0055
3714.75,0.0053
3714.50,0.0051
3714.25,0.0048
3714.00,0.0047
3713.75,0.0046
3713.50,0.0047
3713.25,0.0049
3713.00,0.0052
3712.75,0.0054
3712.50,0.0055
3712.25,0.0056
3712.00,0.0056
3711.75,0.0054
3711.50,0.0051
3711.25,0.0047
3711.00,0.0046
3710.75,0.0045
3710.50,0.0046
3710.25,0.0048
3710.00,0.0050
3709.75,0.0052
3709.50,0.0054
3709.25,0.0056
3709.00,0.0057
3708.75,0.0057
3708.50,0.0057
3708.25,0.0056
3708.00,0.0056
3707.75,0.0055
3707.50,0.0054
3707.25,0.0053
3707.00,0.0051
3706.75,0.0050
3706.50,0.0049
3706.25,0.0050
3706.00,0.0051
3705.75,0.0052
3705.50,0.0052
3705.25,0.0052
3705.00,0.0051
3704.75,0.0051
3704.50,0.0050
3704.25,0.0050
3704.00,0.0049
3703.75,0.0050
3703.50,0.0051
3703.25,0.0052
3703.00,0.0053
3702.75,0.0052
3702.50,0.0051
3702.25,0.0050
3702.00,0.0048
3701.75,0.0047
3701.50,0.0047
3701.25,0.0047
3701.00,0.0048
3700.75,0.0049
3700.50,0.0050
3700.25,0.0051
3700.00,0.0051
3699.75,0.0051
3699.50,0.0051
3699.25,0.0051
3699.00,0.0052
3698.75,0.0052
3698.50,0.0052
3698.25,0.0052
3698.00,0.0052
3697.75,0.0051
3697.50,0.0050
3697.25,0.0050
3697.00,0.0050
3696.75,0.0051
3696.50,0.0052
3696.25,0.0053
3696.00,0.0053
3695.75,0.0052
3695.50,0.0051
3695.25,0.0049
3695.00,0.0048
3694.75,0.0048
3694.50,0.0048
3694.25,0.0050
3694.00,0.0051
3693.75,0.0053
3693.50,0.0055
3693.25,0.0055
3693.00,0.0054
3692.75,0.0053
3692.50,0.0051
3692.25,0.0049
3692.00,0.0048
3691.75,0.0047
3691.50,0.0047
3691.25,0.0048
3691.00,0.0051
3690.75,0.0053
3690.50,0.0052
3690.25,0.0050
3690.00,0.0047
3689.75,0.0046
3689.50,0.0045
3689.25,0.0045
3689.00,0.0045
3688.75,0.0046
3688.50,0.0047
3688.25,0.0048
3688.00,0.0048
3687.75,0.0048
3687.50,0.0049
3687.25,0.0050
3687.00,0.0051
3686.75,0.0051
3686.50,0.0051
3686.25,0.0049
3686.00,0.0047
3685.75,0.0045
3685.50,0.0045
3685.25,0.0047
3685.00,0.0049
3684.75,0.0051
3684.50,0.0052
3684.25,0.0051
3684.00,0.0050
3683.75,0.0050
3683.50,0.0050
3683.25,0.0051
3683.00,0.0053
3682.75,0.0055
3682.50,0.0057
3682.25,0.0057
3682.00,0.0057
3681.75,0.0055
3681.50,0.0053
3681.25,0.0052
3681.00,0.0050
3680.75,0.0050
3680.50,0.0049
3680.25,0.0048
3680.00,0.0046
3679.75,0.0044
3679.50,0.0043
3679.25,0.0042
3679.00,0.0042
3678.75,0.0042
3678.50,0.0042
3678.25,0.0043
3678.00,0.0044
3677.75,0.0046
3677.50,0.0047
3677.25,0.0048
3677.00,0.0049
3676.75,0.0049
3676.50,0.0048
3676.25,0.0047
3676.00,0.0045
3675.75,0.0046
3675.50,0.0046
3675.25,0.0043
3675.00,0.0040
3674.75,0.0037
3674.50,0.0038
3674.25,0.0041
3674.00,0.0045
3673.75,0.0047
3673.50,0.0048
3673.25,0.0048
3673.00,0.0047
3672.75,0.0046
3672.50,0.0045
3672.25,0.0045
3672.00,0.0045
3671.75,0.0046
3671.50,0.0047
3671.25,0.0046
3671.00,0.0045
3670.75,0.0042
3670.50,0.0042
3670.25,0.0044
3670.00,0.0048
3669.75,0.0051
3669.50,0.0053
3669.25,0.0054
3669.00,0.0053
3668.75,0.0052
3668.50,0.0048
3668.25,0.0044
3668.00,0.0042
3667.75,0.0043
3667.50,0.0045
3667.25,0.0047
3667.00,0.0049
3666.75,0.0049
3666.50,0.0049
3666.25,0.0048
3666.00,0.0048
3665.75,0.0049
3665.50,0.0051
3665.25,0.0053
3665.00,0.0054
3664.75,0.0054
3664.50,0.0053
3664.25,0.0052
3664.00,0.0052
3663.75,0.0051
3663.50,0.0051
3663.25,0.0051
3663.00,0.0050
3662.75,0.0049
3662.50,0.0048
3662.25,0.0048
3662.00,0.0047
3661.75,0.0047
3661.50,0.0048
3661.25,0.0050
3661.00,0.0051
3660.75,0.0052
3660.50,0.0052
3660.25,0.0051
3660.00,0.0050
3659.75,0.0049
3659.50,0.0049
3659.25,0.0049
3659.00,0.0050
3658.75,0.0050
3658.50,0.0049
3658.25,0.0048
3658.00,0.0046
3657.75,0.0045
3657.50,0.0044
3657.25,0.0045
3657.00,0.0045
3656.75,0.0044
3656.50,0.0043
3656.25,0.0042
3656.00,0.0043
3655.75,0.0045
3655.50,0.0048
3655.25,0.0050
3655.00,0.0052
3654.75,0.0052
3654.50,0.0052
3654.25,0.0051
3654.00,0.0049
3653.75,0.0048
3653.50,0.0048
3653.25,0.0048
3653.00,0.0049
3652.75,0.0049
3652.50,0.0049
3652.25,0.0049
3652.00,0.0049
3651.75,0.0048
3651.50,0.0047
3651.25,0.0047
3651.00,0.0045
3650.75,0.0043
3650.50,0.0042
3650.25,0.0043
3650.00,0.0046
3649.75,0.0047
3649.50,0.0047
3649.25,0.0048
3649.00,0.0050
3648.75,0.0051
3648.50,0.0051
3648.25,0.0050
3648.00,0.0048
3647.75,0.0046
3647.50,0.0045
3647.25,0.0046
3647.00,0.0049
3646.75,0.0051
3646.50,0.0052
3646.25,0.0052
3646.00,0.0051
3645.75,0.0050
3645.50,0.0050
3645.25,0.0050
3645.00,0.0051
3644.75,0.0052
3644.50,0.0052
3644.25,0.0052
3644.00,0.0051
3643.75,0.0051
3643.50,0.0052
3643.25,0.0052
3643.00,0.0053
3642.75,0.0054
3642.50,0.0054
3642.25,0.0053
3642.00,0.0052
3641.75,0.0049
3641.50,0.0046
3641.25,0.0044
3641.00,0.0042
3640.75,0.0042
3640.50,0.0043
3640.25,0.0045
3640.00,0.0047
3639.75,0.0048
3639.50,0.0049
3639.25,0.0050
3639.00,0.0050
3638.75,0.0050
3638.50,0.0050
3638.25,0.0051
3638.00,0.0051
3637.75,0.0052
3637.50,0.0052
3637.25,0.0051
3637.00,0.0049
3636.75,0.0048
3636.50,0.0048
3636.25,0.0048
3636.00,0.0050
3635.75,0.0051
3635.50,0.0053
3635.25,0.0053
3635.00,0.0053
3634.75,0.0053
3634.50,0.0052
3634.25,0.0052
3634.00,0.0053
3633.75,0.0054
3633.50,0.0054
3633.25,0.0054
3633.00,0.0053
3632.75,0.0053
3632.50,0.0054
3632.25,0.0055
3632.00,0.0056
3631.75,0.0057
3631.50,0.0057
3631.25,0.0057
3631.00,0.0058
3630.75,0.0058
3630.50,0.0059
3630.25,0.0059
3630.00,0.0057
3629.75,0.0056
3629.50,0.0054
3629.25,0.0052
3629.00,0.0048
3628.75,0.0042
3628.50,0.0037
3628.25,0.0035
3628.00,0.0036
3627.75,0.0041
3627.50,0.0046
3627.25,0.0050
3627.00,0.0053
3626.75,0.0054
3626.50,0.0054
3626.25,0.0053
3626.00,0.0051
3625.75,0.0049
3625.50,0.0047
3625.25,0.0047
3625.00,0.0047
3624.75,0.0047
3624.50,0.0048
3624.25,0.0050
3624.00,0.0053
3623.75,0.0055
3623.50,0.0056
3623.25,0.0057
3623.00,0.0056
3622.75,0.0054
3622.50,0.0051
3622.25,0.0050
3622.00,0.0049
3621.75,0.0050
3621.50,0.0051
3621.25,0.0053
3621.00,0.0056
3620.75,0.0057
3620.50,0.0057
3620.25,0.0056
3620.00,0.0053
3619.75,0.0052
3619.50,0.0053
3619.25,0.0055
3619.00,0.0058
3618.75,0.0060
3618.50,0.0060
3618.25,0.0059
3618.00,0.0057
3617.75,0.0055
3617.50,0.0054
3617.25,0.0052
3617.00,0.0050
3616.75,0.0049
3616.50,0.0048
3616.25,0.0048
3616.00,0.0049
3615.75,0.0051
3615.50,0.0053
3615.25,0.0055
3615.00,0.0056
3614.75,0.0055
3614.50,0.0053
3614.25,0.0051
3614.00,0.0049
3613.75,0.0050
3613.50,0.0050
3613.25,0.0051
3613.00,0.0053
3612.75,0.0054
3612.50,0.0053
3612.25,0.0051
3612.00,0.0049
3611.75,0.0049
3611.50,0.0049
3611.25,0.0050
3611.00,0.0051
3610.75,0.0052
3610.50,0.0052
3610.25,0.0052
3610.00,0.0051
3609.75,0.0049
3609.50,0.0048
3609.25,0.0049
3609.00,0.0051
3608.75,0.0053
3608.50,0.0054
3608.25,0.0055
3608.00,0.0054
3607.75,0.0054
3607.50,0.0053
3607.25,0.0053
3607.00,0.0053
3606.75,0.0052
3606.50,0.0050
3606.25,0.0048
3606.00,0.0047
3605.75,0.0046
3605.50,0.0045
3605.25,0.0046
3605.00,0.0047
3604.75,0.0048
3604.50,0.0050
3604.25,0.0051
3604.00,0.0052
3603.75,0.0053
3603.50,0.0054
3603.25,0.0055
3603.00,0.0056
3602.75,0.0056
3602.50,0.0055
3602.25,0.0053
3602.00,0.0052
3601.75,0.0051
3601.50,0.0052
3601.25,0.0054
3601.00,0.0056
3600.75,0.0056
3600.50,0.0056
3600.25,0.0056
3600.00,0.0055
3599.75,0.0055
3599.50,0.0056
3599.25,0.0056
3599.00,0.0056
3598.75,0.0057
3598.50,0.0057
3598.25,0.0058
3598.00,0.0057
3597.75,0.0056
3597.50,0.0054
3597.25,0.0052
3597.00,0.0051
3596.75,0.0051
3596.50,0.0051
3596.25,0.0052
3596.00,0.0052
3595.75,0.0052
3595.50,0.0051
3595.25,0.0051
3595.00,0.0050
3594.75,0.0049
3594.50,0.0048
3594.25,0.0048
3594.00,0.0049
3593.75,0.0049
3593.50,0.0049
3593.25,0.0048
3593.00,0.0048
3592.75,0.0049
3592.50,0.0049
3592.25,0.0050
3592.00,0.0050
3591.75,0.0051
3591.50,0.0051
3591.25,0.0052
3591.00,0.0054
3590.75,0.0056
3590.50,0.0057
3590.25,0.0057
3590.00,0.0056
3589.75,0.0055
3589.50,0.0054
3589.25,0.0052
3589.00,0.0051
3588.75,0.0051
3588.50,0.0051
3588.25,0.0052
3588.00,0.0051
3587.75,0.0050
3587.50,0.0050
3587.25,0.0050
3587.00,0.0050
3586.75,0.0050
3586.50,0.0048
3586.25,0.0045
3586.00,0.0044
3585.75,0.0045
3585.50,0.0047
3585.25,0.0049
3585.00,0.0049
3584.75,0.0048
3584.50,0.0048
3584.25,0.0049
3584.00,0.0052
3583.75,0.0054
3583.50,0.0055
3583.25,0.0054
3583.00,0.0052
3582.75,0.0051
3582.50,0.0052
3582.25,0.0053
3582.00,0.0054
3581.75,0.0054
3581.50,0.0054
3581.25,0.0053
3581.00,0.0052
3580.75,0.0052
3580.50,0.0052
3580.25,0.0052
3580.00,0.0052
3579.75,0.0053
3579.50,0.0053
3579.25,0.0054
3579.00,0.0055
3578.75,0.0055
3578.50,0.0054
3578.25,0.0053
3578.00,0.0053
3577.75,0.0053
3577.50,0.0054
3577.25,0.0054
3577.00,0.0054
3576.75,0.0053
3576.50,0.0052
3576.25,0.0051
3576.00,0.0051
3575.75,0.0051
3575.50,0.0052
3575.25,0.0053
3575.00,0.0054
3574.75,0.0054
3574.50,0.0053
3574.25,0.0053
3574.00,0.0052
3573.75,0.0053
3573.50,0.0053
3573.25,0.0054
3573.00,0.0054
3572.75,0.0053
3572.50,0.0052
3572.25,0.0051
3572.00,0.0049
3571.75,0.0049
3571.50,0.0049
3571.25,0.0051
3571.00,0.0052
3570.75,0.0052
3570.50,0.0052
3570.25,0.0052
3570.00,0.0053
3569.75,0.0054
3569.50,0.0054
3569.25,0.0054
3569.00,0.0054
3568.75,0.0053
3568.50,0.0051
3568.25,0.0050
3568.00,0.0049
3567.75,0.0048
3567.50,0.0048
3567.25,0.0049
3567.00,0.0050
3566.75,0.0052
3566.50,0.0054
3566.25,0.0056
3566.00,0.0055
3565.75,0.0054
3565.50,0.0053
3565.25,0.0052
3565.00,0.0052
3564.75,0.0052
3564.50,0.0053
3564.25,0.0053
3564.00,0.0054
3563.75,0.0055
3563.50,0.0054
3563.25,0.0054
3563.00,0.0053
3562.75,0.0053
3562.50,0.0052
3562.25,0.0052
3562.00,0.0052
3561.75,0.0051
3561.50,0.0051
3561.25,0.0052
3561.00,0.0053
3560.75,0.0055
3560.50,0.0056
3560.25,0.0055
3560.00,0.0054
3559.75,0.0052
3559.50,0.0051
3559.25,0.0051
3559.00,0.0051
3558.75,0.0052
3558.50,0.0053
3558.25,0.0054
3558.00,0.0054
3557.75,0.0054
3557.50,0.0054
3557.25,0.0053
3557.00,0.0053
3556.75,0.0053
3556.50,0.0052
3556.25,0.0052
3556.00,0.0052
3555.75,0.0053
3555.50,0.0053
3555.25,0.0054
3555.00,0.0054
3554.75,0.0053
3554.50,0.0053
3554.25,0.0052
3554.00,0.0051
3553.75,0.0051
3553.50,0.0051
3553.25,0.0051
3553.00,0.0052
3552.75,0.0052
3552.50,0.0053
3552.25,0.0055
3552.00,0.0056
3551.75,0.0056
3551.50,0.0055
3551.25,0.0054
3551.00,0.0054
3550.75,0.0053
3550.50,0.0054
3550.25,0.0054
3550.00,0.0054
3549.75,0.0054
3549.50,0.0053
3549.25,0.0052
3549.00,0.0051
3548.75,0.0050
3548.50,0.0050
3548.25,0.0051
3548.00,0.0052
3547.75,0.0051
3547.50,0.0050
3547.25,0.0049
3547.00,0.0048
3546.75,0.0048
3546.50,0.0050
3546.25,0.0052
3546.00,0.0054
3545.75,0.0056
3545.50,0.0057
3545.25,0.0058
3545.00,0.0058
3544.75,0.0058
3544.50,0.0058
3544.25,0.0057
3544.00,0.0055
3543.75,0.0053
3543.50,0.0051
3543.25,0.0050
3543.00,0.0050
3542.75,0.0050
3542.50,0.0050
3542.25,0.0052
3542.00,0.0053
3541.75,0.0054
3541.50,0.0054
3541.25,0.0054
3541.00,0.0053
3540.75,0.0053
3540.50,0.0052
3540.25,0.0051
3540.00,0.0051
3539.75,0.0050
3539.50,0.0049
3539.25,0.0048
3539.00,0.0048
3538.75,0.0048
3538.50,0.0049
3538.25,0.0050
3538.00,0.0052
3537.75,0.0053
3537.50,0.0054
3537.25,0.0054
3537.00,0.0055
3536.75,0.0054
3536.50,0.0053
3536.25,0.0052
3536.00,0.0050
3535.75,0.0049
3535.50,0.0048
3535.25,0.0047
3535.00,0.0047
3534.75,0.0048
3534.50,0.0049
3534.25,0.0050
3534.00,0.0050
3533.75,0.0050
3533.50,0.0050
3533.25,0.0051
3533.00,0.0051
3532.75,0.0053
3532.50,0.0054
3532.25,0.0055
3532.00,0.0055
3531.75,0.0055
3531.50,0.0055
3531.25,0.0055
3531.00,0.0054
3530.75,0.0053
3530.50,0.0051
3530.25,0.0049
3530.00,0.0047
3529.75,0.0046
3529.50,0.0047
3529.25,0.0048
3529.00,0.0049
3528.75,0.0048
3528.50,0.0046
3528.25,0.0044
3528.00,0.0044
3527.75,0.0046
3527.50,0.0048
3527.25,0.0050
3527.00,0.0051
3526.75,0.0051
3526.50,0.0051
3526.25,0.0051
3526.00,0.0052
3525.75,0.0053
3525.50,0.0054
3525.25,0.0054
3525.00,0.0054
3524.75,0.0054
3524.50,0.0055
3524.25,0.0055
3524.00,0.0055
3523.75,0.0055
3523.50,0.0054
3523.25,0.0054
3523.00,0.0054
3522.75,0.0055
3522.50,0.0054
3522.25,0.0053
3522.00,0.0051
3521.75,0.0049
3521.50,0.0048
3521.25,0.0048
3521.00,0.0048
3520.75,0.0049
3520.50,0.0050
3520.25,0.0050
3520.00,0.0050
3519.75,0.0049
3519.50,0.0048
3519.25,0.0048
3519.00,0.0050
3518.75,0.0051
3518.50,0.0052
3518.25,0.0053
3518.00,0.0053
3517.75,0.0053
3517.50,0.0052
3517.25,0.0051
3517.00,0.0051
3516.75,0.0050
3516.50,0.0050
3516.25,0.0050
3516.00,0.0050
3515.75,0.0049
3515.50,0.0049
3515.25,0.0048
3515.00,0.0049
3514.75,0.0051
3514.50,0.0053
3514.25,0.0054
3514.00,0.0055
3513.75,0.0054
3513.50,0.0052
3513.25,0.0051
3513.00,0.0051
3512.75,0.0050
3512.50,0.0050
3512.25,0.0050
3512.00,0.0051
3511.75,0.0051
3511.50,0.0052
3511.25,0.0052
3511.00,0.0052
3510.75,0.0052
3510.50,0.0051
3510.25,0.0050
3510.00,0.0051
3509.75,0.0053
3509.50,0.0056
3509.25,0.0057
3509.00,0.0056
3508.75,0.0054
3508.50,0.0051
3508.25,0.0050
3508.00,0.0051
3507.75,0.0053
3507.50,0.0055
3507.25,0.0057
3507.00,0.0057
3506.75,0.0056
3506.50,0.0054
3506.25,0.0052
3506.00,0.0049
3505.75,0.0047
3505.50,0.0046
3505.25,0.0047
3505.00,0.0049
3504.75,0.0051
3504.50,0.0051
3504.25,0.0051
3504.00,0.0051
3503.75,0.0050
3503.50,0.0050
3503.25,0.0051
3503.00,0.0052
3502.75,0.0052
3502.50,0.0052
3502.25,0.0053
3502.00,0.0054
3501.75,0.0055
3501.50,0.0055
3501.25,0.0054
3501.00,0.0052
3500.75,0.0050
3500.50,0.0049
3500.25,0.0049
3500.00,0.0049
3499.75,0.0050
3499.50,0.0051
3499.25,0.0052
3499.00,0.0054
3498.75,0.0055
3498.50,0.0055
3498.25,0.0054
3498.00,0.0052
3497.75,0.0051
3497.50,0.0050
3497.25,0.0049
3497.00,0.0050
3496.75,0.0050
3496.50,0.0050
3496.25,0.0051
3496.00,0.0052
3495.75,0.0051
3495.50,0.0051
3495.25,0.0050
3495.00,0.0050
3494.75,0.0050
3494.50,0.0050
3494.25,0.0050
3494.00,0.0049
3493.75,0.0050
3493.50,0.0051
3493.25,0.0052
3493.00,0.0053
3492.75,0.0054
3492.50,0.0055
3492.25,0.0055
3492.00,0.0055
3491.75,0.0055
3491.50,0.0054
3491.25,0.0053
3491.00,0.0051
3490.75,0.0050
3490.50,0.0049
3490.25,0.0049
3490.00,0.0049
3489.75,0.0049
3489.50,0.0050
3489.25,0.0050
3489.00,0.0051
3488.75,0.0051
3488.50,0.0051
3488.25,0.0051
3488.00,0.0051
3487.75,0.0051
3487.50,0.0051
3487.25,0.0051
3487.00,0.0051
3486.75,0.0051
3486.50,0.0051
3486.25,0.0052
3486.00,0.0052
3485.75,0.0053
3485.50,0.0054
3485.25,0.0054
3485.00,0.0054
3484.75,0.0054
3484.50,0.0054
3484.25,0.0054
3484.00,0.0053
3483.75,0.0052
3483.50,0.0051
3483.25,0.0051
3483.00,0.0051
3482.75,0.0051
3482.50,0.0052
3482.25,0.0053
3482.00,0.0053
3481.75,0.0053
3481.50,0.0053
3481.25,0.0053
3481.00,0.0052
3480.75,0.0052
3480.50,0.0052
3480.25,0.0052
3480.00,0.0052
3479.75,0.0051
3479.50,0.0051
3479.25,0.0051
3479.00,0.0050
3478.75,0.0050
3478.50,0.0050
3478.25,0.0051
3478.00,0.0051
3477.75,0.0051
3477.50,0.0051
3477.25,0.0050
3477.00,0.0050
3476.75,0.0050
3476.50,0.0050
3476.25,0.0050
3476.00,0.0049
3475.75,0.0049
3475.50,0.0048
3475.25,0.0048
3475.00,0.0048
3474.75,0.0049
3474.50,0.0050
3474.25,0.0050
3474.00,0.0051
3473.75,0.0051
3473.50,0.0051
3473.25,0.0050
3473.00,0.0049
3472.75,0.0048
3472.50,0.0047
3472.25,0.0047
3472.00,0.0048
3471.75,0.0049
3471.50,0.0050
3471.25,0.0050
3471.00,0.0050
3470.75,0.0052
3470.50,0.0053
3470.25,0.0054
3470.00,0.0054
3469.75,0.0053
3469.50,0.0052
3469.25,0.0051
3469.00,0.0051
3468.75,0.0051
3468.50,0.0052
3468.25,0.0054
3468.00,0.0055
3467.75,0.0055
3467.50,0.0055
3467.25,0.0055
3467.00,0.0054
3466.75,0.0053
3466.50,0.0053
3466.25,0.0054
3466.00,0.0054
3465.75,0.0054
3465.50,0.0053
3465.25,0.0052
3465.00,0.0051
3464.75,0.0050
3464.50,0.0050
3464.25,0.0050
3464.00,0.0051
3463.75,0.0052
3463.50,0.0053
3463.25,0.0053
3463.00,0.0053
3462.75,0.0052
3462.50,0.0050
3462.25,0.0049
3462.00,0.0050
3461.75,0.0051
3461.50,0.0053
3461.25,0.0056
3461.00,0.0057
3460.75,0.0057
3460.50,0.0056
3460.25,0.0056
3460.00,0.0055
3459.75,0.0055
3459.50,0.0055
3459.25,0.0055
3459.00,0.0055
3458.75,0.0055
3458.50,0.0054
3458.25,0.0052
3458.00,0.0051
3457.75,0.0050
3457.50,0.0050
3457.25,0.0050
3457.00,0.0051
3456.75,0.0052
3456.50,0.0052
3456.25,0.0053
3456.00,0.0053
3455.75,0.0053
3455.50,0.0052
3455.25,0.0051
3455.00,0.0050
3454.75,0.0050
3454.50,0.0051
3454.25,0.0053
3454.00,0.0054
3453.75,0.0054
3453.50,0.0053
3453.25,0.0053
3453.00,0.0051
3452.75,0.0050
3452.50,0.0049
3452.25,0.0049
3452.00,0.0049
3451.75,0.0050
3451.50,0.0051
3451.25,0.0051
3451.00,0.0051
3450.75,0.0051
3450.50,0.0051
3450.25,0.0051
3450.00,0.0051
3449.75,0.0051
3449.50,0.0051
3449.25,0.0051
3449.00,0.0050
3448.75,0.0049
3448.50,0.0047
3448.25,0.0047
3448.00,0.0047
3447.75,0.0048
3447.50,0.0051
3447.25,0.0054
3447.00,0.0058
3446.75,0.0060
3446.50,0.0060
3446.25,0.0059
3446.00,0.0057
3445.75,0.0055
3445.50,0.0054
3445.25,0.0053
3445.00,0.0053
3444.75,0.0053
3444.50,0.0054
3444.25,0.0055
3444.00,0.0055
3443.75,0.0055
3443.50,0.0054
3443.25,0.0054
3443.00,0.0054
3442.75,0.0054
3442.50,0.0054
3442.25,0.0053
3442.00,0.0051
3441.75,0.0051
3441.50,0.0051
3441.25,0.0051
3441.00,0.0051
3440.75,0.0050
3440.50,0.0049
3440.25,0.0049
3440.00,0.0049
3439.75,0.0050
3439.50,0.0051
3439.25,0.0052
3439.00,0.0052
3438.75,0.0051
3438.50,0.0051
3438.25,0.0050
3438.00,0.0051
3437.75,0.0051
3437.50,0.0051
3437.25,0.0051
3437.00,0.0051
3436.75,0.0051
3436.50,0.0051
3436.25,0.0051
3436.00,0.0052
3435.75,0.0053
3435.50,0.0052
3435.25,0.0052
3435.00,0.0051
3434.75,0.0051
3434.50,0.0051
3434.25,0.0050
3434.00,0.0050
3433.75,0.0050
3433.50,0.0050
3433.25,0.0050
3433.00,0.0050
3432.75,0.0051
3432.50,0.0051
3432.25,0.0051
3432.00,0.0051
3431.75,0.0051
3431.50,0.0052
3431.25,0.0052
3431.00,0.0052
3430.75,0.0052
3430.50,0.0052
3430.25,0.0051
3430.00,0.0050
3429.75,0.0050
3429.50,0.0050
3429.25,0.0050
3429.00,0.0052
3428.75,0.0053
3428.50,0.0053
3428.25,0.0053
3428.00,0.0052
3427.75,0.0051
3427.50,0.0051
3427.25,0.0051
3427.00,0.0051
3426.75,0.0051
3426.50,0.0053
3426.25,0.0054
3426.00,0.0056
3425.75,0.0057
3425.50,0.0056
3425.25,0.0055
3425.00,0.0054
3424.75,0.0052
3424.50,0.0052
3424.25,0.0053
3424.00,0.0053
3423.75,0.0053
3423.50,0.0052
3423.25,0.0051
3423.00,0.0050
3422.75,0.0049
3422.50,0.0050
3422.25,0.0050
3422.00,0.0051
3421.75,0.0051
3421.50,0.0051
3421.25,0.0051
3421.00,0.0051
3420.75,0.0051
3420.50,0.0052
3420.25,0.0053
3420.00,0.0054
3419.75,0.0054
3419.50,0.0053
3419.25,0.0051
3419.00,0.0050
3418.75,0.0048
3418.50,0.0046
3418.25,0.0045
3418.00,0.0045
3417.75,0.0047
3417.50,0.0049
3417.25,0.0052
3417.00,0.0054
3416.75,0.0055
3416.50,0.0055
3416.25,0.0054
3416.00,0.0053
3415.75,0.0053
3415.50,0.0052
3415.25,0.0052
3415.00,0.0053
3414.75,0.0053
3414.50,0.0053
3414.25,0.0053
3414.00,0.0053
3413.75,0.0052
3413.50,0.0052
3413.25,0.0052
3413.00,0.0052
3412.75,0.0051
3412.50,0.0050
3412.25,0.0049
3412.00,0.0048
3411.75,0.0047
3411.50,0.0048
3411.25,0.0049
3411.00,0.0051
3410.75,0.0052
3410.50,0.0053
3410.25,0.0053
3410.00,0.0052
3409.75,0.0052
3409.50,0.0053
3409.25,0.0054
3409.00,0.0054
3408.75,0.0054
3408.50,0.0053
3408.25,0.0053
3408.00,0.0053
3407.75,0.0053
3407.50,0.0053
3407.25,0.0052
3407.00,0.0052
3406.75,0.0052
3406.50,0.0052
3406.25,0.0052
3406.00,0.0052
3405.75,0.0051
3405.50,0.0049
3405.25,0.0049
3405.00,0.0049
3404.75,0.0050
3404.50,0.0051
3404.25,0.0052
3404.00,0.0052
3403.75,0.0052
3403.50,0.0053
3403.25,0.0053
3403.00,0.0052
3402.75,0.0052
3402.50,0.0051
3402.25,0.0050
3402.00,0.0050
3401.75,0.0051
3401.50,0.0052
3401.25,0.0052
3401.00,0.0052
3400.75,0.0051
3400.50,0.0050
3400.25,0.0050
3400.00,0.0049
3399.75,0.0050
3399.50,0.0050
3399.25,0.0050
3399.00,0.0051
3398.75,0.0051
3398.50,0.0052
3398.25,0.0052
3398.00,0.0052
3397.75,0.0053
3397.50,0.0053
3397.25,0.0054
3397.00,0.0054
3396.75,0.0055
3396.50,0.0055
3396.25,0.0055
3396.00,0.0055
3395.75,0.0054
3395.50,0.0053
3395.25,0.0053
3395.00,0.0052
3394.75,0.0052
3394.50,0.0052
3394.25,0.0052
3394.00,0.0051
3393.75,0.0052
3393.50,0.0052
3393.25,0.0053
3393.00,0.0054
3392.75,0.0054
3392.50,0.0054
3392.25,0.0053
3392.00,0.0053
3391.75,0.0053
3391.50,0.0053
3391.25,0.0054
3391.00,0.0054
3390.75,0.0053
3390.50,0.0053
3390.25,0.0053
3390.00,0.0053
3389.75,0.0054
3389.50,0.0055
3389.25,0.0054
3389.00,0.0054
3388.75,0.0052
3388.50,0.0051
3388.25,0.0050
3388.00,0.0051
3387.75,0.0052
3387.50,0.0053
3387.25,0.0054
3387.00,0.0054
3386.75,0.0054
3386.50,0.0053
3386.25,0.0052
3386.00,0.0052
3385.75,0.0052
3385.50,0.0052
3385.25,0.0052
3385.00,0.0053
3384.75,0.0054
3384.50,0.0054
3384.25,0.0054
3384.00,0.0053
3383.75,0.0052
3383.50,0.0051
3383.25,0.0050
3383.00,0.0050
3382.75,0.0049
3382.50,0.0047
3382.25,0.0045
3382.00,0.0045
3381.75,0.0046
3381.50,0.0049
3381.25,0.0052
3381.00,0.0054
3380.75,0.0056
3380.50,0.0056
3380.25,0.0055
3380.00,0.0053
3379.75,0.0051
3379.50,0.0050
3379.25,0.0049
3379.00,0.0050
3378.75,0.0052
3378.50,0.0053
3378.25,0.0055
3378.00,0.0056
3377.75,0.0056
3377.50,0.0056
3377.25,0.0056
3377.00,0.0055
3376.75,0.0055
3376.50,0.0056
3376.25,0.0057
3376.00,0.0057
3375.75,0.0056
3375.50,0.0053
3375.25,0.0050
3375.00,0.0049
3374.75,0.0048
3374.50,0.0049
3374.25,0.0050
3374.00,0.0051
3373.75,0.0052
3373.50,0.0052
3373.25,0.0052
3373.00,0.0052
3372.75,0.0053
3372.50,0.0053
3372.25,0.0053
3372.00,0.0052
3371.75,0.0051
3371.50,0.0049
3371.25,0.0048
3371.00,0.0047
3370.75,0.0047
3370.50,0.0047
3370.25,0.0048
3370.00,0.0050
3369.75,0.0052
3369.50,0.0054
3369.25,0.0055
3369.00,0.0055
3368.75,0.0054
3368.50,0.0052
3368.25,0.0050
3368.00,0.0049
3367.75,0.0049
3367.50,0.0050
3367.25,0.0052
3367.00,0.0053
3366.75,0.0053
3366.50,0.0053
3366.25,0.0053
3366.00,0.0053
3365.75,0.0053
3365.50,0.0053
3365.25,0.0053
3365.00,0.0051
3364.75,0.0051
3364.50,0.0052
3364.25,0.0053
3364.00,0.0054
3363.75,0.0055
3363.50,0.0055
3363.25,0.0054
3363.00,0.0054
3362.75,0.0053
3362.50,0.0052
3362.25,0.0052
3362.00,0.0052
3361.75,0.0052
3361.50,0.0052
3361.25,0.0052
3361.00,0.0051
3360.75,0.0051
3360.50,0.0050
3360.25,0.0051
3360.00,0.0052
3359.75,0.0053
3359.50,0.0053
3359.25,0.0052
3359.00,0.0051
3358.75,0.0052
3358.50,0.0053
3358.25,0.0055
3358.00,0.0056
3357.75,0.0056
3357.50,0.0055
3357.25,0.0054
3357.00,0.0054
3356.75,0.0054
3356.50,0.0054
3356.25,0.0055
3356.00,0.0056
3355.75,0.0057
3355.50,0.0057
3355.25,0.0056
3355.00,0.0055
3354.75,0.0054
3354.50,0.0054
3354.25,0.0054
3354.00,0.0055
3353.75,0.0056
3353.50,0.0056
3353.25,0.0055
3353.00,0.0053
3352.75,0.0051
3352.50,0.0050
3352.25,0.0050
3352.00,0.0050
3351.75,0.0051
3351.50,0.0052
3351.25,0.0053
3351.00,0.0054
3350.75,0.0054
3350.50,0.0053
3350.25,0.0053
3350.00,0.0052
3349.75,0.0052
3349.50,0.0053
3349.25,0.0054
3349.00,0.0054
3348.75,0.0055
3348.50,0.0054
3348.25,0.0054
3348.00,0.0053
3347.75,0.0053
3347.50,0.0053
3347.25,0.0051
3347.00,0.0049
3346.75,0.0047
3346.50,0.0046
3346.25,0.0046
3346.00,0.0048
3345.75,0.0050
3345.50,0.0052
3345.25,0.0053
3345.00,0.0054
3344.75,0.0054
3344.50,0.0055
3344.25,0.0055
3344.00,0.0054
3343.75,0.0053
3343.50,0.0052
3343.25,0.0053
3343.00,0.0054
3342.75,0.0055
3342.50,0.0055
3342.25,0.0054
3342.00,0.0052
3341.75,0.0050
3341.50,0.0049
3341.25,0.0050
3341.00,0.0050
3340.75,0.0051
3340.50,0.0052
3340.25,0.0052
3340.00,0.0053
3339.75,0.0054
3339.50,0.0055
3339.25,0.0056
3339.00,0.0056
3338.75,0.0055
3338.50,0.0053
3338.25,0.0051
3338.00,0.0050
3337.75,0.0050
3337.50,0.0051
3337.25,0.0051
3337.00,0.0050
3336.75,0.0050
3336.50,0.0049
3336.25,0.0050
3336.00,0.0051
3335.75,0.0052
3335.50,0.0053
3335.25,0.0055
3335.00,0.0055
3334.75,0.0056
3334.50,0.0056
3334.25,0.0055
3334.00,0.0055
3333.75,0.0054
3333.50,0.0053
3333.25,0.0052
3333.00,0.0052
3332.75,0.0053
3332.50,0.0055
3332.25,0.0055
3332.00,0.0054
3331.75,0.0052
3331.50,0.0049
3331.25,0.0048
3331.00,0.0047
3330.75,0.0047
3330.50,0.0047
3330.25,0.0048
3330.00,0.0050
3329.75,0.0051
3329.50,0.0053
3329.25,0.0054
3329.00,0.0055
3328.75,0.0055
3328.50,0.0055
3328.25,0.0054
3328.00,0.0053
3327.75,0.0053
3327.50,0.0053
3327.25,0.0054
3327.00,0.0054
3326.75,0.0054
3326.50,0.0053
3326.25,0.0051
3326.00,0.0049
3325.75,0.0048
3325.50,0.0048
3325.25,0.0049
3325.00,0.0051
3324.75,0.0054
3324.50,0.0056
3324.25,0.0058
3324.00,0.0058
3323.75,0.0057
3323.50,0.0056
3323.25,0.0055
3323.00,0.0053
3322.75,0.0052
3322.50,0.0051
3322.25,0.0050
3322.00,0.0050
3321.75,0.0050
3321.50,0.0050
3321.25,0.0051
3321.00,0.0052
3320.75,0.0052
3320.50,0.0052
3320.25,0.0051
3320.00,0.0050
3319.75,0.0050
3319.50,0.0049
3319.25,0.0049
3319.00,0.0049
3318.75,0.0049
3318.50,0.0051
3318.25,0.0052
3318.00,0.0054
3317.75,0.0055
3317.50,0.0056
3317.25,0.0056
3317.00,0.0055
3316.75,0.0054
3316.50,0.0053
3316.25,0.0052
3316.00,0.0051
3315.75,0.0051
3315.50,0.0051
3315.25,0.0052
3315.00,0.0053
3314.75,0.0053
3314.50,0.0053
3314.25,0.0052
3314.00,0.0051
3313.75,0.0050
3313.50,0.0050
3313.25,0.0051
3313.00,0.0051
3312.75,0.0051
3312.50,0.0050
3312.25,0.0050
3312.00,0.0049
3311.75,0.0050
3311.50,0.0052
3311.25,0.0054
3311.00,0.0056
3310.75,0.0057
3310.50,0.0057
3310.25,0.0056
3310.00,0.0055
3309.75,0.0053
3309.50,0.0052
3309.25,0.0051
3309.00,0.0050
3308.75,0.0050
3308.50,0.0051
3308.25,0.0052
3308.00,0.0052
3307.75,0.0053
3307.50,0.0054
3307.25,0.0056
3307.00,0.0057
3306.75,0.0057
3306.50,0.0057
3306.25,0.0056
3306.00,0.0054
3305.75,0.0053
3305.50,0.0052
3305.25,0.0052
3305.00,0.0052
3304.75,0.0052
3304.50,0.0052
3304.25,0.0052
3304.00,0.0051
3303.75,0.0051
3303.50,0.0051
3303.25,0.0051
3303.00,0.0052
3302.75,0.0052
3302.50,0.0053
3302.25,0.0053
3302.00,0.0054
3301.75,0.0053
3301.50,0.0052
3301.25,0.0051
3301.00,0.0050
3300.75,0.0049
3300.50,0.0048
3300.25,0.0049
3300.00,0.0050
3299.75,0.0051
3299.50,0.0052
3299.25,0.0053
3299.00,0.0054
3298.75,0.0055
3298.50,0.0054
3298.25,0.0054
3298.00,0.0053
3297.75,0.0052
3297.50,0.0051
3297.25,0.0050
3297.00,0.0049
3296.75,0.0048
3296.50,0.0048
3296.25,0.0048
3296.00,0.0049
3295.75,0.0051
3295.50,0.0053
3295.25,0.0055
3295.00,0.0055
3294.75,0.0055
3294.50,0.0054
3294.25,0.0054
3294.00,0.0054
3293.75,0.0055
3293.50,0.0055
3293.25,0.0054
3293.00,0.0052
3292.75,0.0051
3292.50,0.0049
3292.25,0.0049
3292.00,0.0049
3291.75,0.0050
3291.50,0.0051
3291.25,0.0051
3291.00,0.0053
3290.75,0.0054
3290.50,0.0056
3290.25,0.0057
3290.00,0.0057
3289.75,0.0057
3289.50,0.0057
3289.25,0.0056
3289.00,0.0055
3288.75,0.0053
3288.50,0.0052
3288.25,0.0052
3288.00,0.0052
3287.75,0.0051
3287.50,0.0051
3287.25,0.0051
3287.00,0.0052
3286.75,0.0052
3286.50,0.0052
3286.25,0.0053
3286.00,0.0053
3285.75,0.0054
3285.50,0.0054
3285.25,0.0053
3285.00,0.0052
3284.75,0.0052
3284.50,0.0052
3284.25,0.0052
3284.00,0.0053
3283.75,0.0053
3283.50,0.0052
3283.25,0.0052
3283.00,0.0052
3282.75,0.0052
3282.50,0.0052
3282.25,0.0052
3282.00,0.0053
3281.75,0.0053
3281.50,0.0054
3281.25,0.0054
3281.00,0.0055
3280.75,0.0055
3280.50,0.0056
3280.25,0.0055
3280.00,0.0054
3279.75,0.0053
3279.50,0.0051
3279.25,0.0050
3279.00,0.0050
3278.75,0.0049
3278.50,0.0050
3278.25,0.0051
3278.00,0.0052
3277.75,0.0053
3277.50,0.0053
3277.25,0.0052
3277.00,0.0050
3276.75,0.0049
3276.50,0.0049
3276.25,0.0049
3276.00,0.0049
3275.75,0.0050
3275.50,0.0051
3275.25,0.0052
3275.00,0.0053
3274.75,0.0054
3274.50,0.0055
3274.25,0.0056
3274.00,0.0055
3273.75,0.0055
3273.50,0.0053
3273.25,0.0050
3273.00,0.0048
3272.75,0.0048
3272.50,0.0049
3272.25,0.0051
3272.00,0.0053
3271.75,0.0054
3271.50,0.0054
3271.25,0.0053
3271.00,0.0052
3270.75,0.0052
3270.50,0.0051
3270.25,0.0050
3270.00,0.0050
3269.75,0.0050
3269.50,0.0050
3269.25,0.0051
3269.00,0.0052
3268.75,0.0053
3268.50,0.0053
3268.25,0.0053
3268.00,0.0053
3267.75,0.0053
3267.50,0.0053
3267.25,0.0053
3267.00,0.0054
3266.75,0.0054
3266.50,0.0054
3266.25,0.0054
3266.00,0.0054
3265.75,0.0054
3265.50,0.0054
3265.25,0.0054
3265.00,0.0053
3264.75,0.0052
3264.50,0.0052
3264.25,0.0051
3264.00,0.0051
3263.75,0.0051
3263.50,0.0050
3263.25,0.0050
3263.00,0.0049
3262.75,0.0048
3262.50,0.0048
3262.25,0.0048
3262.00,0.0049
3261.75,0.0050
3261.50,0.0051
3261.25,0.0051
3261.00,0.0053
3260.75,0.0054
3260.50,0.0056
3260.25,0.0057
3260.00,0.0056
3259.75,0.0055
3259.50,0.0054
3259.25,0.0054
3259.00,0.0055
3258.75,0.0055
3258.50,0.0055
3258.25,0.0055
3258.00,0.0054
3257.75,0.0053
3257.50,0.0053
3257.25,0.0054
3257.00,0.0054
3256.75,0.0055
3256.50,0.0056
3256.25,0.0057
3256.00,0.0057
3255.75,0.0056
3255.50,0.0055
3255.25,0.0054
3255.00,0.0054
3254.75,0.0053
3254.50,0.0053
3254.25,0.0054
3254.00,0.0053
3253.75,0.0053
3253.50,0.0052
3253.25,0.0052
3253.00,0.0052
3252.75,0.0053
3252.50,0.0054
3252.25,0.0055
3252.00,0.0056
3251.75,0.0056
3251.50,0.0056
3251.25,0.0056
3251.00,0.0055
3250.75,0.0054
3250.50,0.0053
3250.25,0.0052
3250.00,0.0052
3249.75,0.0052
3249.50,0.0053
3249.25,0.0053
3249.00,0.0053
3248.75,0.0052
3248.50,0.0052
3248.25,0.0052
3248.00,0.0052
3247.75,0.0053
3247.50,0.0053
3247.25,0.0053
3247.00,0.0053
3246.75,0.0052
3246.50,0.0052
3246.25,0.0051
3246.00,0.0050
3245.75,0.0050
3245.50,0.0049
3245.25,0.0049
3245.00,0.0050
3244.75,0.0052
3244.50,0.0055
3244.25,0.0057
3244.00,0.0058
3243.75,0.0058
3243.50,0.0058
3243.25,0.0057
3243.00,0.0056
3242.75,0.0054
3242.50,0.0051
3242.25,0.0048
3242.00,0.0047
3241.75,0.0047
3241.50,0.0048
3241.25,0.0050
3241.00,0.0053
3240.75,0.0055
3240.50,0.0056
3240.25,0.0056
3240.00,0.0056
3239.75,0.0055
3239.50,0.0055
3239.25,0.0055
3239.00,0.0054
3238.75,0.0053
3238.50,0.0052
3238.25,0.0052
3238.00,0.0052
3237.75,0.0052
3237.50,0.0052
3237.25,0.0051
3237.00,0.0050
3236.75,0.0049
3236.50,0.0049
3236.25,0.0049
3236.00,0.0050
3235.75,0.0050
3235.50,0.0051
3235.25,0.0051
3235.00,0.0051
3234.75,0.0051
3234.50,0.0052
3234.25,0.0053
3234.00,0.0054
3233.75,0.0054
3233.50,0.0055
3233.25,0.0054
3233.00,0.0054
3232.75,0.0054
3232.50,0.0054
3232.25,0.0054
3232.00,0.0053
3231.75,0.0053
3231.50,0.0052
3231.25,0.0050
3231.00,0.0050
3230.75,0.0050
3230.50,0.0052
3230.25,0.0053
3230.00,0.0054
3229.75,0.0054
3229.50,0.0053
3229.25,0.0053
3229.00,0.0052
3228.75,0.0052
3228.50,0.0052
3228.25,0.0053
3228.00,0.0054
3227.75,0.0055
3227.50,0.0056
3227.25,0.0056
3227.00,0.0056
3226.75,0.0055
3226.50,0.0053
3226.25,0.0052
3226.00,0.0051
3225.75,0.0050
3225.50,0.0050
3225.25,0.0051
3225.00,0.0052
3224.75,0.0053
3224.50,0.0053
3224.25,0.0053
3224.00,0.0053
3223.75,0.0053
3223.50,0.0053
3223.25,0.0053
3223.00,0.0053
3222.75,0.0052
3222.50,0.0051
3222.25,0.0051
3222.00,0.0050
3221.75,0.0051
3221.50,0.0051
3221.25,0.0052
3221.00,0.0053
3220.75,0.0053
3220.50,0.0054
3220.25,0.0055
3220.00,0.0056
3219.75,0.0057
3219.50,0.0059
3219.25,0.0059
3219.00,0.0059
3218.75,0.0057
3218.50,0.0055
3218.25,0.0053
3218.00,0.0052
3217.75,0.0052
3217.50,0.0051
3217.25,0.0051
3217.00,0.0050
3216.75,0.0051
3216.50,0.0051
3216.25,0.0052
3216.00,0.0053
3215.75,0.0054
3215.50,0.0054
3215.25,0.0053
3215.00,0.0052
3214.75,0.0051
3214.50,0.0051
3214.25,0.0051
3214.00,0.0052
3213.75,0.0054
3213.50,0.0055
3213.25,0.0056
3213.00,0.0056
3212.75,0.0056
3212.50,0.0055
3212.25,0.0053
3212.00,0.0051
3211.75,0.0050
3211.50,0.0050
3211.25,0.0050
3211.00,0.0051
3210.75,0.0052
3210.50,0.0053
3210.25,0.0053
3210.00,0.0055
3209.75,0.0056
3209.50,0.0058
3209.25,0.0059
3209.00,0.0059
3208.75,0.0058
3208.50,0.0056
3208.25,0.0053
3208.00,0.0052
3207.75,0.0052
3207.50,0.0052
3207.25,0.0052
3207.00,0.0053
3206.75,0.0053
3206.50,0.0053
3206.25,0.0054
3206.00,0.0054
3205.75,0.0054
3205.50,0.0054
3205.25,0.0054
3205.00,0.0053
3204.75,0.0053
3204.50,0.0052
3204.25,0.0051
3204.00,0.0050
3203.75,0.0050
3203.50,0.0049
3203.25,0.0050
3203.00,0.0050
3202.75,0.0051
3202.50,0.0051
3202.25,0.0052
3202.00,0.0052
3201.75,0.0053
3201.50,0.0052
3201.25,0.0052
3201.00,0.0051
3200.75,0.0052
3200.50,0.0052
3200.25,0.0053
3200.00,0.0053
3199.75,0.0053
3199.50,0.0052
3199.25,0.0050
3199.00,0.0050
3198.75,0.0049
3198.50,0.0050
3198.25,0.0051
3198.00,0.0052
3197.75,0.0053
3197.50,0.0053
3197.25,0.0053
3197.00,0.0053
3196.75,0.0054
3196.50,0.0054
3196.25,0.0054
3196.00,0.0053
3195.75,0.0052
3195.50,0.0052
3195.25,0.0052
3195.00,0.0053
3194.75,0.0054
3194.50,0.0054
3194.25,0.0053
3194.00,0.0053
3193.75,0.0053
3193.50,0.0053
3193.25,0.0053
3193.00,0.0053
3192.75,0.0053
3192.50,0.0053
3192.25,0.0053
3192.00,0.0053
3191.75,0.0052
3191.50,0.0052
3191.25,0.0052
3191.00,0.0051
3190.75,0.0050
3190.50,0.0048
3190.25,0.0047
3190.00,0.0046
3189.75,0.0047
3189.50,0.0049
3189.25,0.0051
3189.00,0.0052
3188.75,0.0053
3188.50,0.0053
3188.25,0.0052
3188.00,0.0051
3187.75,0.0051
3187.50,0.0051
3187.25,0.0052
3187.00,0.0053
3186.75,0.0053
3186.50,0.0052
3186.25,0.0052
3186.00,0.0052
3185.75,0.0052
3185.50,0.0053
3185.25,0.0054
3185.00,0.0054
3184.75,0.0054
3184.50,0.0054
3184.25,0.0054
3184.00,0.0055
3183.75,0.0056
3183.50,0.0056
3183.25,0.0054
3183.00,0.0051
3182.75,0.0048
3182.50,0.0046
3182.25,0.0046
3182.00,0.0047
3181.75,0.0048
3181.50,0.0050
3181.25,0.0052
3181.00,0.0053
3180.75,0.0052
3180.50,0.0052
3180.25,0.0051
3180.00,0.0052
3179.75,0.0052
3179.50,0.0052
3179.25,0.0053
3179.00,0.0052
3178.75,0.0052
3178.50,0.0053
3178.25,0.0053
3178.00,0.0054
3177.75,0.0055
3177.50,0.0055
3177.25,0.0054
3177.00,0.0054
3176.75,0.0054
3176.50,0.0055
3176.25,0.0055
3176.00,0.0056
3175.75,0.0055
3175.50,0.0055
3175.25,0.0055
3175.00,0.0055
3174.75,0.0055
3174.50,0.0055
3174.25,0.0055
3174.00,0.0055
3173.75,0.0053
3173.50,0.0052
3173.25,0.0050
3173.00,0.0048
3172.75,0.0048
3172.50,0.0050
3172.25,0.0051
3172.00,0.0052
3171.75,0.0053
3171.50,0.0053
3171.25,0.0053
3171.00,0.0053
3170.75,0.0053
3170.50,0.0053
3170.25,0.0053
3170.00,0.0051
3169.75,0.0051
3169.50,0.0050
3169.25,0.0051
3169.00,0.0052
3168.75,0.0052
3168.50,0.0052
3168.25,0.0051
3168.00,0.0050
3167.75,0.0050
3167.50,0.0051
3167.25,0.0051
3167.00,0.0052
3166.75,0.0052
3166.50,0.0052
3166.25,0.0052
3166.00,0.0052
3165.75,0.0051
3165.50,0.0051
3165.25,0.0052
3165.00,0.0053
3164.75,0.0053
3164.50,0.0053
3164.25,0.0053
3164.00,0.0052
3163.75,0.0051
3163.50,0.0050
3163.25,0.0050
3163.00,0.0050
3162.75,0.0050
3162.50,0.0050
3162.25,0.0050
3162.00,0.0050
3161.75,0.0049
3161.50,0.0048
3161.25,0.0048
3161.00,0.0048
3160.75,0.0050
3160.50,0.0052
3160.25,0.0054
3160.00,0.0055
3159.75,0.0055
3159.50,0.0055
3159.25,0.0054
3159.00,0.0054
3158.75,0.0054
3158.50,0.0054
3158.25,0.0054
3158.00,0.0053
3157.75,0.0052
3157.50,0.0052
3157.25,0.0051
3157.00,0.0051
3156.75,0.0051
3156.50,0.0052
3156.25,0.0053
3156.00,0.0053
3155.75,0.0054
3155.50,0.0055
3155.25,0.0056
3155.00,0.0058
3154.75,0.0059
3154.50,0.0059
3154.25,0.0059
3154.00,0.0057
3153.75,0.0055
3153.50,0.0054
3153.25,0.0054
3153.00,0.0054
3152.75,0.0055
3152.50,0.0056
3152.25,0.0056
3152.00,0.0056
3151.75,0.0056
3151.50,0.0055
3151.25,0.0053
3151.00,0.0052
3150.75,0.0052
3150.50,0.0052
3150.25,0.0052
3150.00,0.0053
3149.75,0.0053
3149.50,0.0054
3149.25,0.0055
3149.00,0.0055
3148.75,0.0054
3148.50,0.0053
3148.25,0.0052
3148.00,0.0052
3147.75,0.0052
3147.50,0.0053
3147.25,0.0052
3147.00,0.0052
3146.75,0.0051
3146.50,0.0052
3146.25,0.0052
3146.00,0.0053
3145.75,0.0054
3145.50,0.0053
3145.25,0.0053
3145.00,0.0052
3144.75,0.0052
3144.50,0.0052
3144.25,0.0052
3144.00,0.0053
3143.75,0.0053
3143.50,0.0053
3143.25,0.0053
3143.00,0.0052
3142.75,0.0052
3142.50,0.0052
3142.25,0.0052
3142.00,0.0053
3141.75,0.0055
3141.50,0.0056
3141.25,0.0058
3141.00,0.0058
3140.75,0.0059
3140.50,0.0058
3140.25,0.0057
3140.00,0.0055
3139.75,0.0054
3139.50,0.0053
3139.25,0.0053
3139.00,0.0053
3138.75,0.0054
3138.50,0.0054
3138.25,0.0054
3138.00,0.0053
3137.75,0.0053
3137.50,0.0053
3137.25,0.0052
3137.00,0.0051
3136.75,0.0051
3136.50,0.0051
3136.25,0.0051
3136.00,0.0051
3135.75,0.0051
3135.50,0.0051
3135.25,0.0050
3135.00,0.0050
3134.75,0.0049
3134.50,0.0049
3134.25,0.0049
3134.00,0.0050
3133.75,0.0051
3133.50,0.0052
3133.25,0.0053
3133.00,0.0054
3132.75,0.0054
3132.50,0.0054
3132.25,0.0053
3132.00,0.0053
3131.75,0.0053
3131.50,0.0054
3131.25,0.0055
3131.00,0.0055
3130.75,0.0056
3130.50,0.0056
3130.25,0.0055
3130.00,0.0054
3129.75,0.0053
3129.50,0.0052
3129.25,0.0051
3129.00,0.0050
3128.75,0.0049
3128.50,0.0049
3128.25,0.0049
3128.00,0.0049
3127.75,0.0049
3127.50,0.0050
3127.25,0.0051
3127.00,0.0052
3126.75,0.0053
3126.50,0.0054
3126.25,0.0054
3126.00,0.0054
3125.75,0.0054
3125.50,0.0053
3125.25,0.0052
3125.00,0.0052
3124.75,0.0051
3124.50,0.0051
3124.25,0.0051
3124.00,0.0052
3123.75,0.0052
3123.50,0.0053
3123.25,0.0053
3123.00,0.0054
3122.75,0.0054
3122.50,0.0053
3122.25,0.0053
3122.00,0.0052
3121.75,0.0051
3121.50,0.0051
3121.25,0.0052
3121.00,0.0053
3120.75,0.0054
3120.50,0.0054
3120.25,0.0054
3120.00,0.0053
3119.75,0.0052
3119.50,0.0052
3119.25,0.0052
3119.00,0.0052
3118.75,0.0052
3118.50,0.0051
3118.25,0.0051
3118.00,0.0051
3117.75,0.0051
3117.50,0.0051
3117.25,0.0050
3117.00,0.0050
3116.75,0.0050
3116.50,0.0050
3116.25,0.0051
3116.00,0.0051
3115.75,0.0051
3115.50,0.0051
3115.25,0.0051
3115.00,0.0051
3114.75,0.0052
3114.50,0.0052
3114.25,0.0053
3114.00,0.0053
3113.75,0.0053
3113.50,0.0053
3113.25,0.0053
3113.00,0.0052
3112.75,0.0051
3112.50,0.0050
3112.25,0.0050
3112.00,0.0049
3111.75,0.0049
3111.50,0.0050
3111.25,0.0050
3111.00,0.0051
3110.75,0.0052
3110.50,0.0053
3110.25,0.0053
3110.00,0.0053
3109.75,0.0052
3109.50,0.0051
3109.25,0.0050
3109.00,0.0049
3108.75,0.0048
3108.50,0.0048
3108.25,0.0048
3108.00,0.0049
3107.75,0.0049
3107.50,0.0049
3107.25,0.0050
3107.00,0.0051
3106.75,0.0052
3106.50,0.0053
3106.25,0.0053
3106.00,0.0053
3105.75,0.0053
3105.50,0.0052
3105.25,0.0050
3105.00,0.0048
3104.75,0.0046
3104.50,0.0045
3104.25,0.0044
3104.00,0.0045
3103.75,0.0046
3103.50,0.0048
3103.25,0.0050
3103.00,0.0052
3102.75,0.0053
3102.50,0.0054
3102.25,0.0053
3102.00,0.0052
3101.75,0.0051
3101.50,0.0052
3101.25,0.0052
3101.00,0.0053
3100.75,0.0054
3100.50,0.0055
3100.25,0.0055
3100.00,0.0054
3099.75,0.0053
3099.50,0.0052
3099.25,0.0050
3099.00,0.0049
3098.75,0.0048
3098.50,0.0047
3098.25,0.0047
3098.00,0.0047
3097.75,0.0047
3097.50,0.0048
3097.25,0.0049
3097.00,0.0050
3096.75,0.0051
3096.50,0.0051
3096.25,0.0051
3096.00,0.0051
3095.75,0.0051
3095.50,0.0051
3095.25,0.0050
3095.00,0.0049
3094.75,0.0048
3094.50,0.0047
3094.25,0.0046
3094.00,0.0047
3093.75,0.0048
3093.50,0.0049
3093.25,0.0051
3093.00,0.0051
3092.75,0.0052
3092.50,0.0051
3092.25,0.0051
3092.00,0.0050
3091.75,0.0050
3091.50,0.0050
3091.25,0.0051
3091.00,0.0051
3090.75,0.0050
3090.50,0.0049
3090.25,0.0046
3090.00,0.0044
3089.75,0.0043
3089.50,0.0043
3089.25,0.0043
3089.00,0.0044
3088.75,0.0045
3088.50,0.0047
3088.25,0.0050
3088.00,0.0051
3087.75,0.0052
3087.50,0.0052
3087.25,0.0051
3087.00,0.0049
3086.75,0.0048
3086.50,0.0047
3086.25,0.0047
3086.00,0.0046
3085.75,0.0046
3085.50,0.0046
3085.25,0.0046
3085.00,0.0046
3084.75,0.0046
3084.50,0.0046
3084.25,0.0045
3084.00,0.0045
3083.75,0.0046
3083.50,0.0046
3083.25,0.0047
3083.00,0.0048
3082.75,0.0049
3082.50,0.0050
3082.25,0.0051
3082.00,0.0051
3081.75,0.0049
3081.50,0.0048
3081.25,0.0047
3081.00,0.0046
3080.75,0.0046
3080.50,0.0047
3080.25,0.0048
3080.00,0.0048
3079.75,0.0049
3079.50,0.0050
3079.25,0.0050
3079.00,0.0051
3078.75,0.0050
3078.50,0.0050
3078.25,0.0048
3078.00,0.0048
3077.75,0.0048
3077.50,0.0048
3077.25,0.0049
3077.00,0.0050
3076.75,0.0050
3076.50,0.0049
3076.25,0.0049
3076.00,0.0048
3075.75,0.0048
3075.50,0.0048
3075.25,0.0047
3075.00,0.0046
3074.75,0.0045
3074.50,0.0044
3074.25,0.0043
3074.00,0.0044
3073.75,0.0045
3073.50,0.0047
3073.25,0.0047
3073.00,0.0048
3072.75,0.0047
3072.50,0.0047
3072.25,0.0047
3072.00,0.0048
3071.75,0.0048
3071.50,0.0048
3071.25,0.0047
3071.00,0.0047
3070.75,0.0047
3070.50,0.0048
3070.25,0.0049
3070.00,0.0049
3069.75,0.0049
3069.50,0.0048
3069.25,0.0047
3069.00,0.0046
3068.75,0.0045
3068.50,0.0046
3068.25,0.0046
3068.00,0.0047
3067.75,0.0047
3067.50,0.0047
3067.25,0.0047
3067.00,0.0047
3066.75,0.0048
3066.50,0.0048
3066.25,0.0048
3066.00,0.0048
3065.75,0.0048
3065.50,0.0047
3065.25,0.0047
3065.00,0.0046
3064.75,0.0045
3064.50,0.0045
3064.25,0.0046
3064.00,0.0047
3063.75,0.0048
3063.50,0.0049
3063.25,0.0049
3063.00,0.0049
3062.75,0.0049
3062.50,0.0049
3062.25,0.0048
3062.00,0.0047
3061.75,0.0047
3061.50,0.0047
3061.25,0.0047
3061.00,0.0047
3060.75,0.0048
3060.50,0.0049
3060.25,0.0049
3060.00,0.0050
3059.75,0.0050
3059.50,0.0050
3059.25,0.0050
3059.00,0.0050
3058.75,0.0050
3058.50,0.0051
3058.25,0.0050
3058.00,0.0049
3057.75,0.0048
3057.50,0.0048
3057.25,0.0048
3057.00,0.0048
3056.75,0.0048
3056.50,0.0047
3056.25,0.0046
3056.00,0.0046
3055.75,0.0047
3055.50,0.0048
3055.25,0.0048
3055.00,0.0049
3054.75,0.0049
3054.50,0.0049
3054.25,0.0049
3054.00,0.0049
3053.75,0.0049
3053.50,0.0048
3053.25,0.0048
3053.00,0.0046
3052.75,0.0045
3052.50,0.0045
3052.25,0.0046
3052.00,0.0047
3051.75,0.0049
3051.50,0.0049
3051.25,0.0049
3051.00,0.0048
3050.75,0.0046
3050.50,0.0046
3050.25,0.0045
3050.00,0.0045
3049.75,0.0045
3049.50,0.0045
3049.25,0.0045
3049.00,0.0044
3048.75,0.0044
3048.50,0.0043
3048.25,0.0042
3048.00,0.0043
3047.75,0.0043
3047.50,0.0044
3047.25,0.0045
3047.00,0.0045
3046.75,0.0044
3046.50,0.0042
3046.25,0.0040
3046.00,0.0039
3045.75,0.0038
3045.50,0.0039
3045.25,0.0040
3045.00,0.0041
3044.75,0.0042
3044.50,0.0043
3044.25,0.0044
3044.00,0.0043
3043.75,0.0042
3043.50,0.0040
3043.25,0.0039
3043.00,0.0039
3042.75,0.0039
3042.50,0.0040
3042.25,0.0040
3042.00,0.0041
3041.75,0.0041
3041.50,0.0042
3041.25,0.0042
3041.00,0.0043
3040.75,0.0043
3040.50,0.0043
3040.25,0.0043
3040.00,0.0043
3039.75,0.0042
3039.50,0.0042
3039.25,0.0041
3039.00,0.0041
3038.75,0.0041
3038.50,0.0042
3038.25,0.0043
3038.00,0.0045
3037.75,0.0046
3037.50,0.0046
3037.25,0.0046
3037.00,0.0044
3036.75,0.0043
3036.50,0.0043
3036.25,0.0043
3036.00,0.0044
3035.75,0.0045
3035.50,0.0045
3035.25,0.0045
3035.00,0.0044
3034.75,0.0043
3034.50,0.0041
3034.25,0.0040
3034.00,0.0040
3033.75,0.0040
3033.50,0.0041
3033.25,0.0041
3033.00,0.0040
3032.75,0.0039
3032.50,0.0038
3032.25,0.0038
3032.00,0.0039
3031.75,0.0041
3031.50,0.0042
3031.25,0.0044
3031.00,0.0044
3030.75,0.0045
3030.50,0.0045
3030.25,0.0045
3030.00,0.0045
3029.75,0.0045
3029.50,0.0044
3029.25,0.0043
3029.00,0.0042
3028.75,0.0042
3028.50,0.0044
3028.25,0.0045
3028.00,0.0047
3027.75,0.0047
3027.50,0.0047
3027.25,0.0047
3027.00,0.0047
3026.75,0.0046
3026.50,0.0045
3026.25,0.0045
3026.00,0.0044
3025.75,0.0044
3025.50,0.0044
3025.25,0.0045
3025.00,0.0045
3024.75,0.0045
3024.50,0.0046
3024.25,0.0047
3024.00,0.0049
3023.75,0.0050
3023.50,0.0051
3023.25,0.0051
3023.00,0.0050
3022.75,0.0050
3022.50,0.0049
3022.25,0.0048
3022.00,0.0047
3021.75,0.0046
3021.50,0.0045
3021.25,0.0045
3021.00,0.0045
3020.75,0.0046
3020.50,0.0046
3020.25,0.0046
3020.00,0.0046
3019.75,0.0046
3019.50,0.0046
3019.25,0.0047
3019.00,0.0048
3018.75,0.0048
3018.50,0.0049
3018.25,0.0049
3018.00,0.0050
3017.75,0.0051
3017.50,0.0052
3017.25,0.0053
3017.00,0.0053
3016.75,0.0053
3016.50,0.0052
3016.25,0.0051
3016.00,0.0050
3015.75,0.0049
3015.50,0.0048
3015.25,0.0048
3015.00,0.0049
3014.75,0.0049
3014.50,0.0050
3014.25,0.0050
3014.00,0.0050
3013.75,0.0050
3013.50,0.0049
3013.25,0.0048
3013.00,0.0048
3012.75,0.0049
3012.50,0.0050
3012.25,0.0051
3012.00,0.0052
3011.75,0.0052
3011.50,0.0053
3011.25,0.0054
3011.00,0.0054
3010.75,0.0054
3010.50,0.0054
3010.25,0.0052
3010.00,0.0051
3009.75,0.0050
3009.50,0.0049
3009.25,0.0049
3009.00,0.0049
3008.75,0.0050
3008.50,0.0051
3008.25,0.0052
3008.00,0.0053
3007.75,0.0054
3007.50,0.0055
3007.25,0.0057
3007.00,0.0057
3006.75,0.0056
3006.50,0.0055
3006.25,0.0055
3006.00,0.0054
3005.75,0.0054
3005.50,0.0053
3005.25,0.0052
3005.00,0.0049
3004.75,0.0047
3004.50,0.0046
3004.25,0.0046
3004.00,0.0048
3003.75,0.0050
3003.50,0.0053
3003.25,0.0054
3003.00,0.0055
3002.75,0.0055
3002.50,0.0055
3002.25,0.0055
3002.00,0.0056
3001.75,0.0056
3001.50,0.0056
3001.25,0.0056
3001.00,0.0056
3000.75,0.0055
3000.50,0.0053
3000.25,0.0052
3000.00,0.0051
2999.75,0.0050
2999.50,0.0049
2999.25,0.0049
2999.00,0.0049
2998.75,0.0049
2998.50,0.0050
2998.25,0.0051
2998.00,0.0051
2997.75,0.0052
2997.50,0.0052
2997.25,0.0053
2997.00,0.0054
2996.75,0.0056
2996.50,0.0057
2996.25,0.0059
2996.00,0.0060
2995.75,0.0060
2995.50,0.0061
2995.25,0.0060
2995.00,0.0059
2994.75,0.0057
2994.50,0.0055
2994.25,0.0053
2994.00,0.0051
2993.75,0.0050
2993.50,0.0050
2993.25,0.0050
2993.00,0.0051
2992.75,0.0052
2992.50,0.0054
2992.25,0.0055
2992.00,0.0055
2991.75,0.0055
2991.50,0.0055
2991.25,0.0055
2991.00,0.0055
2990.75,0.0054
2990.50,0.0052
2990.25,0.0052
2990.00,0.0052
2989.75,0.0053
2989.50,0.0054
2989.25,0.0056
2989.00,0.0057
2988.75,0.0057
2988.50,0.0057
2988.25,0.0057
2988.00,0.0056
2987.75,0.0056
2987.50,0.0056
2987.25,0.0056
2987.00,0.0056
2986.75,0.0056
2986.50,0.0056
2986.25,0.0057
2986.00,0.0058
2985.75,0.0059
2985.50,0.0060
2985.25,0.0062
2985.00,0.0063
2984.75,0.0064
2984.50,0.0063
2984.25,0.0061
2984.00,0.0059
2983.75,0.0058
2983.50,0.0057
2983.25,0.0058
2983.00,0.0060
2982.75,0.0062
2982.50,0.0063
2982.25,0.0063
2982.00,0.0063
2981.75,0.0062
2981.50,0.0062
2981.25,0.0062
2981.00,0.0062
2980.75,0.0061
2980.50,0.0061
2980.25,0.0061
2980.00,0.0063
2979.75,0.0065
2979.50,0.0067
2979.25,0.0069
2979.00,0.0070
2978.75,0.0070
2978.50,0.0071
2978.25,0.0071
2978.00,0.0071
2977.75,0.0071
2977.50,0.0071
2977.25,0.0071
2977.00,0.0072
2976.75,0.0073
2976.50,0.0074
2976.25,0.0074
2976.00,0.0073
2975.75,0.0073
2975.50,0.0074
2975.25,0.0075
2975.00,0.0077
2974.75,0.0079
2974.50,0.0080
2974.25,0.0081
2974.00,0.0082
2973.75,0.0083
2973.50,0.0084
2973.25,0.0084
2973.00,0.0084
2972.75,0.0085
2972.50,0.0086
2972.25,0.0087
2972.00,0.0089
2971.75,0.0091
2971.50,0.0092
2971.25,0.0093
2971.00,0.0093
2970.75,0.0094
2970.50,0.0096
2970.25,0.0099
2970.00,0.0101
2969.75,0.0103
2969.50,0.0104
2969.25,0.0105
2969.00,0.0105
2968.75,0.0106
2968.50,0.0107
2968.25,0.0108
2968.00,0.0109
2967.75,0.0111
2967.50,0.0113
2967.25,0.0116
2967.00,0.0118
2966.75,0.0120
2966.50,0.0122
2966.25,0.0123
2966.00,0.0124
2965.75,0.0125
2965.50,0.0127
2965.25,0.0129
2965.00,0.0130
2964.75,0.0132
2964.50,0.0134
2964.25,0.0135
2964.00,0.0136
2963.75,0.0135
2963.50,0.0135
2963.25,0.0134
2963.00,0.0134
2962.75,0.0134
2962.50,0.0134
2962.25,0.0134
2962.00,0.0134
2961.75,0.0135
2961.50,0.0137
2961.25,0.0138
2961.00,0.0138
2960.75,0.0137
2960.50,0.0134
2960.25,0.0132
2960.00,0.0131
2959.75,0.0131
2959.50,0.0130
2959.25,0.0129
2959.00,0.0128
2958.75,0.0126
2958.50,0.0124
2958.25,0.0122
2958.00,0.0120
2957.75,0.0119
2957.50,0.0117
2957.25,0.0116
2957.00,0.0115
2956.75,0.0113
2956.50,0.0111
2956.25,0.0108
2956.00,0.0106
2955.75,0.0104
2955.50,0.0103
2955.25,0.0101
2955.00,0.0101
2954.75,0.0100
2954.50,0.0099
2954.25,0.0098
2954.00,0.0097
2953.75,0.0096
2953.50,0.0094
2953.25,0.0092
2953.00,0.0091
2952.75,0.0089
2952.50,0.0086
2952.25,0.0084
2952.00,0.0082
2951.75,0.0081
2951.50,0.0080
2951.25,0.0080
2951.00,0.0081
2950.75,0.0082
2950.50,0.0083
2950.25,0.0083
2950.00,0.0081
2949.75,0.0078
2949.50,0.0075
2949.25,0.0072
2949.00,0.0071
2948.75,0.0070
2948.50,0.0068
2948.25,0.0066
2948.00,0.0064
2947.75,0.0063
2947.50,0.0063
2947.25,0.0064
2947.00,0.0066
2946.75,0.0068
2946.50,0.0070
2946.25,0.0071
2946.00,0.0071
2945.75,0.0069
2945.50,0.0067
2945.25,0.0063
2945.00,0.0060
2944.75,0.0058
2944.50,0.0058
2944.25,0.0059
2944.00,0.0061
2943.75,0.0062
2943.50,0.0063
2943.25,0.0063
2943.00,0.0063
2942.75,0.0063
2942.50,0.0063
2942.25,0.0063
2942.00,0.0062
2941.75,0.0061
2941.50,0.0061
2941.25,0.0060
2941.00,0.0059
2940.75,0.0059
2940.50,0.0059
2940.25,0.0059
2940.00,0.0059
2939.75,0.0058
2939.50,0.0057
2939.25,0.0056
2939.00,0.0055
2938.75,0.0054
2938.50,0.0054
2938.25,0.0054
2938.00,0.0054
2937.75,0.0054
2937.50,0.0054
2937.25,0.0054
2937.00,0.0054
2936.75,0.0054
2936.50,0.0055
2936.25,0.0055
2936.00,0.0054
2935.75,0.0053
2935.50,0.0052
2935.25,0.0053
2935.00,0.0054
2934.75,0.0055
2934.50,0.0055
2934.25,0.0055
2934.00,0.0054
2933.75,0.0053
2933.50,0.0053
2933.25,0.0053
2933.00,0.0054
2932.75,0.0055
2932.50,0.0056
2932.25,0.0057
2932.00,0.0058
2931.75,0.0057
2931.50,0.0055
2931.25,0.0052
2931.00,0.0050
2930.75,0.0050
2930.50,0.0050
2930.25,0.0052
2930.00,0.0053
2929.75,0.0054
2929.50,0.0053
2929.25,0.0053
2929.00,0.0053
2928.75,0.0054
2928.50,0.0054
2928.25,0.0054
2928.00,0.0053
2927.75,0.0052
2927.50,0.0051
2927.25,0.0051
2927.00,0.0050
2926.75,0.0050
2926.50,0.0049
2926.25,0.0049
2926.00,0.0049
2925.75,0.0050
2925.50,0.0051
2925.25,0.0051
2925.00,0.0052
2924.75,0.0052
2924.50,0.0052
2924.25,0.0053
2924.00,0.0053
2923.75,0.0052
2923.50,0.0051
2923.25,0.0050
2923.00,0.0050
2922.75,0.0050
2922.50,0.0050
2922.25,0.0051
2922.00,0.0051
2921.75,0.0051
2921.50,0.0051
2921.25,0.0052
2921.00,0.0052
2920.75,0.0053
2920.50,0.0053
2920.25,0.0053
2920.00,0.0053
2919.75,0.0053
2919.50,0.0054
2919.25,0.0055
2919.00,0.0054
2918.75,0.0054
2918.50,0.0053
2918.25,0.0053
2918.00,0.0054
2917.75,0.0055
2917.50,0.0056
2917.25,0.0057
2917.00,0.0058
2916.75,0.0058
2916.50,0.0058
2916.25,0.0056
2916.00,0.0054
2915.75,0.0052
2915.50,0.0052
2915.25,0.0052
2915.00,0.0053
2914.75,0.0054
2914.50,0.0055
2914.25,0.0057
2914.00,0.0058
2913.75,0.0058
2913.50,0.0058
2913.25,0.0057
2913.00,0.0057
2912.75,0.0056
2912.50,0.0056
2912.25,0.0056
2912.00,0.0057
2911.75,0.0058
2911.50,0.0060
2911.25,0.0061
2911.00,0.0061
2910.75,0.0060
2910.50,0.0058
2910.25,0.0058
2910.00,0.0058
2909.75,0.0058
2909.50,0.0059
2909.25,0.0059
2909.00,0.0059
2908.75,0.0059
2908.50,0.0059
2908.25,0.0059
2908.00,0.0060
2907.75,0.0060
2907.50,0.0060
2907.25,0.0061
2907.00,0.0061
2906.75,0.0062
2906.50,0.0064
2906.25,0.0065
2906.00,0.0066
2905.75,0.0067
2905.50,0.0067
2905.25,0.0067
2905.00,0.0066
2904.75,0.0066
2904.50,0.0065
2904.25,0.0064
2904.00,0.0064
2903.75,0.0064
2903.50,0.0064
2903.25,0.0064
2903.00,0.0064
2902.75,0.0063
2902.50,0.0063
2902.25,0.0064
2902.00,0.0064
2901.75,0.0065
2901.50,0.0065
2901.25,0.0064
2901.00,0.0064
2900.75,0.0063
2900.50,0.0063
2900.25,0.0063
2900.00,0.0063
2899.75,0.0062
2899.50,0.0060
2899.25,0.0058
2899.00,0.0058
2898.75,0.0058
2898.50,0.0058
2898.25,0.0059
2898.00,0.0059
2897.75,0.0060
2897.50,0.0061
2897.25,0.0061
2897.00,0.0062
2896.75,0.0062
2896.50,0.0061
2896.25,0.0059
2896.00,0.0058
2895.75,0.0057
2895.50,0.0056
2895.25,0.0056
2895.00,0.0056
2894.75,0.0057
2894.50,0.0058
2894.25,0.0058
2894.00,0.0058
2893.75,0.0059
2893.50,0.0059
2893.25,0.0059
2893.00,0.0059
2892.75,0.0058
2892.50,0.0057
2892.25,0.0056
2892.00,0.0056
2891.75,0.0056
2891.50,0.0056
2891.25,0.0056
2891.00,0.0056
2890.75,0.0056
2890.50,0.0055
2890.25,0.0055
2890.00,0.0054
2889.75,0.0053
2889.50,0.0053
2889.25,0.0052
2889.00,0.0052
2888.75,0.0052
2888.50,0.0052
2888.25,0.0052
2888.00,0.0052
2887.75,0.0052
2887.50,0.0053
2887.25,0.0054
2887.00,0.0055
2886.75,0.0055
2886.50,0.0055
2886.25,0.0054
2886.00,0.0053
2885.75,0.0053
2885.50,0.0052
2885.25,0.0051
2885.00,0.0051
2884.75,0.0052
2884.50,0.0053
2884.25,0.0054
2884.00,0.0055
2883.75,0.0055
2883.50,0.0054
2883.25,0.0054
2883.00,0.0053
2882.75,0.0053
2882.50,0.0054
2882.25,0.0055
2882.00,0.0055
2881.75,0.0056
2881.50,0.0056
2881.25,0.0056
2881.00,0.0056
2880.75,0.0056
2880.50,0.0055
2880.25,0.0055
2880.00,0.0056
2879.75,0.0056
2879.50,0.0055
2879.25,0.0055
2879.00,0.0054
2878.75,0.0053
2878.50,0.0053
2878.25,0.0053
2878.00,0.0054
2877.75,0.0055
2877.50,0.0055
2877.25,0.0054
2877.00,0.0053
2876.75,0.0053
2876.50,0.0053
2876.25,0.0054
2876.00,0.0054
2875.75,0.0054
2875.50,0.0054
2875.25,0.0054
2875.00,0.0054
2874.75,0.0055
2874.50,0.0056
2874.25,0.0056
2874.00,0.0055
2873.75,0.0053
2873.50,0.0051
2873.25,0.0049
2873.00,0.0049
2872.75,0.0049
2872.50,0.0050
2872.25,0.0051
2872.00,0.0053
2871.75,0.0054
2871.50,0.0054
2871.25,0.0054
2871.00,0.0053
2870.75,0.0053
2870.50,0.0054
2870.25,0.0055
2870.00,0.0055
2869.75,0.0055
2869.50,0.0055
2869.25,0.0055
2869.00,0.0055
2868.75,0.0056
2868.50,0.0056
2868.25,0.0056
2868.00,0.0056
2867.75,0.0055
2867.50,0.0055
2867.25,0.0054
2867.00,0.0053
2866.75,0.0053
2866.50,0.0052
2866.25,0.0052
2866.00,0.0053
2865.75,0.0053
2865.50,0.0054
2865.25,0.0054
2865.00,0.0054
2864.75,0.0053
2864.50,0.0052
2864.25,0.0051
2864.00,0.0051
2863.75,0.0051
2863.50,0.0052
2863.25,0.0052
2863.00,0.0053
2862.75,0.0053
2862.50,0.0053
2862.25,0.0053
2862.00,0.0053
2861.75,0.0053
2861.50,0.0054
2861.25,0.0054
2861.00,0.0054
2860.75,0.0053
2860.50,0.0053
2860.25,0.0053
2860.00,0.0052
2859.75,0.0052
2859.50,0.0051
2859.25,0.0051
2859.00,0.0051
2858.75,0.0052
2858.50,0.0052
2858.25,0.0053
2858.00,0.0054
2857.75,0.0055
2857.50,0.0056
2857.25,0.0057
2857.00,0.0057
2856.75,0.0056
2856.50,0.0054
2856.25,0.0053
2856.00,0.0051
2855.75,0.0051
2855.50,0.0051
2855.25,0.0052
2855.00,0.0053
2854.75,0.0053
2854.50,0.0054
2854.25,0.0055
2854.00,0.0055
2853.75,0.0054
2853.50,0.0054
2853.25,0.0054
2853.00,0.0054
2852.75,0.0054
2852.50,0.0053
2852.25,0.0053
2852.00,0.0051
2851.75,0.0051
2851.50,0.0051
2851.25,0.0051
2851.00,0.0052
2850.75,0.0053
2850.50,0.0054
2850.25,0.0055
2850.00,0.0056
2849.75,0.0055
2849.50,0.0054
2849.25,0.0053
2849.00,0.0052
2848.75,0.0052
2848.50,0.0051
2848.25,0.0050
2848.00,0.0050
2847.75,0.0050
2847.50,0.0050
2847.25,0.0050
2847.00,0.0051
2846.75,0.0052
2846.50,0.0052
2846.25,0.0052
2846.00,0.0052
2845.75,0.0053
2845.50,0.0054
2845.25,0.0055
2845.00,0.0056
2844.75,0.0055
2844.50,0.0055
2844.25,0.0054
2844.00,0.0053
2843.75,0.0052
2843.50,0.0052
2843.25,0.0051
2843.00,0.0052
2842.75,0.0052
2842.50,0.0053
2842.25,0.0053
2842.00,0.0053
2841.75,0.0052
2841.50,0.0051
2841.25,0.0051
2841.00,0.0051
2840.75,0.0051
2840.50,0.0052
2840.25,0.0053
2840.00,0.0053
2839.75,0.0053
2839.50,0.0052
2839.25,0.0052
2839.00,0.0052
2838.75,0.0053
2838.50,0.0054
2838.25,0.0055
2838.00,0.0056
2837.75,0.0057
2837.50,0.0058
2837.25,0.0059
2837.00,0.0059
2836.75,0.0058
2836.50,0.0057
2836.25,0.0056
2836.00,0.0055
2835.75,0.0054
2835.50,0.0053
2835.25,0.0053
2835.00,0.0053
2834.75,0.0053
2834.50,0.0054
2834.25,0.0055
2834.00,0.0055
2833.75,0.0055
2833.50,0.0054
2833.25,0.0053
2833.00,0.0052
2832.75,0.0052
2832.50,0.0052
2832.25,0.0054
2832.00,0.0056
2831.75,0.0058
2831.50,0.0059
2831.25,0.0058
2831.00,0.0057
2830.75,0.0056
2830.50,0.0055
2830.25,0.0054
2830.00,0.0054
2829.75,0.0054
2829.50,0.0054
2829.25,0.0055
2829.00,0.0055
2828.75,0.0055
2828.50,0.0055
2828.25,0.0054
2828.00,0.0054
2827.75,0.0054
2827.50,0.0054
2827.25,0.0055
2827.00,0.0056
2826.75,0.0056
2826.50,0.0057
2826.25,0.0057
2826.00,0.0058
2825.75,0.0058
2825.50,0.0058
2825.25,0.0059
2825.00,0.0059
2824.75,0.0059
2824.50,0.0058
2824.25,0.0056
2824.00,0.0054
2823.75,0.0053
2823.50,0.0053
2823.25,0.0054
2823.00,0.0055
2822.75,0.0055
2822.50,0.0054
2822.25,0.0053
2822.00,0.0053
2821.75,0.0054
2821.50,0.0055
2821.25,0.0055
2821.00,0.0055
2820.75,0.0055
2820.50,0.0054
2820.25,0.0054
2820.00,0.0055
2819.75,0.0055
2819.50,0.0056
2819.25,0.0056
2819.00,0.0056
2818.75,0.0056
2818.50,0.0056
2818.25,0.0055
2818.00,0.0054
2817.75,0.0053
2817.50,0.0052
2817.25,0.0052
2817.00,0.0053
2816.75,0.0054
2816.50,0.0055
2816.25,0.0055
2816.00,0.0055
2815.75,0.0054
2815.50,0.0054
2815.25,0.0055
2815.00,0.0055
2814.75,0.0056
2814.50,0.0056
2814.25,0.0056
2814.00,0.0056
2813.75,0.0056
2813.50,0.0056
2813.25,0.0056
2813.00,0.0055
2812.75,0.0054
2812.50,0.0053
2812.25,0.0053
2812.00,0.0053
2811.75,0.0054
2811.50,0.0055
2811.25,0.0056
2811.00,0.0056
2810.75,0.0055
2810.50,0.0055
2810.25,0.0055
2810.00,0.0055
2809.75,0.0056
2809.50,0.0057
2809.25,0.0057
2809.00,0.0057
2808.75,0.0056
2808.50,0.0055
2808.25,0.0055
2808.00,0.0054
2807.75,0.0054
2807.50,0.0055
2807.25,0.0055
2807.00,0.0055
2806.75,0.0055
2806.50,0.0055
2806.25,0.0055
2806.00,0.0055
2805.75,0.0055
2805.50,0.0056
2805.25,0.0056
2805.00,0.0056
2804.75,0.0056
2804.50,0.0056
2804.25,0.0055
2804.00,0.0055
2803.75,0.0055
2803.50,0.0054
2803.25,0.0053
2803.00,0.0052
2802.75,0.0052
2802.50,0.0053
2802.25,0.0055
2802.00,0.0057
2801.75,0.0059
2801.50,0.0060
2801.25,0.0059
2801.00,0.0058
2800.75,0.0057
2800.50,0.0055
2800.25,0.0054
2800.00,0.0054
2799.75,0.0053
2799.50,0.0053
2799.25,0.0053
2799.00,0.0052
2798.75,0.0052
2798.50,0.0052
2798.25,0.0052
2798.00,0.0053
2797.75,0.0054
2797.50,0.0055
2797.25,0.0056
2797.00,0.0056
2796.75,0.0056
2796.50,0.0056
2796.25,0.0056
2796.00,0.0056
2795.75,0.0055
2795.50,0.0054
2795.25,0.0053
2795.00,0.0053
2794.75,0.0054
2794.50,0.0056
2794.25,0.0057
2794.00,0.0057
2793.75,0.0056
2793.50,0.0055
2793.25,0.0054
2793.00,0.0054
2792.75,0.0055
2792.50,0.0055
2792.25,0.0056
2792.00,0.0056
2791.75,0.0056
2791.50,0.0055
2791.25,0.0055
2791.00,0.0055
2790.75,0.0055
2790.50,0.0055
2790.25,0.0055
2790.00,0.0054
2789.75,0.0054
2789.50,0.0055
2789.25,0.0055
2789.00,0.0056
2788.75,0.0056
2788.50,0.0056
2788.25,0.0056
2788.00,0.0055
2787.75,0.0056
2787.50,0.0056
2787.25,0.0055
2787.00,0.0055
2786.75,0.0055
2786.50,0.0055
2786.25,0.0056
2786.00,0.0056
2785.75,0.0055
2785.50,0.0054
2785.25,0.0052
2785.00,0.0051
2784.75,0.0051
2784.50,0.0052
2784.25,0.0054
2784.00,0.0055
2783.75,0.0055
2783.50,0.0055
2783.25,0.0055
2783.00,0.0054
2782.75,0.0054
2782.50,0.0054
2782.25,0.0054
2782.00,0.0054
2781.75,0.0053
2781.50,0.0052
2781.25,0.0052
2781.00,0.0053
2780.75,0.0054
2780.50,0.0056
2780.25,0.0058
2780.00,0.0058
2779.75,0.0058
2779.50,0.0056
2779.25,0.0054
2779.00,0.0052
2778.75,0.0051
2778.50,0.0052
2778.25,0.0053
2778.00,0.0054
2777.75,0.0055
2777.50,0.0055
2777.25,0.0054
2777.00,0.0055
2776.75,0.0055
2776.50,0.0055
2776.25,0.0055
2776.00,0.0054
2775.75,0.0054
2775.50,0.0055
2775.25,0.0055
2775.00,0.0056
2774.75,0.0055
2774.50,0.0054
2774.25,0.0052
2774.00,0.0051
2773.75,0.0050
2773.50,0.0051
2773.25,0.0052
2773.00,0.0053
2772.75,0.0054
2772.50,0.0055
2772.25,0.0056
2772.00,0.0056
2771.75,0.0055
2771.50,0.0055
2771.25,0.0054
2771.00,0.0053
2770.75,0.0053
2770.50,0.0053
2770.25,0.0054
2770.00,0.0055
2769.75,0.0056
2769.50,0.0056
2769.25,0.0055
2769.00,0.0054
2768.75,0.0053
2768.50,0.0052
2768.25,0.0052
2768.00,0.0053
2767.75,0.0053
2767.50,0.0054
2767.25,0.0053
2767.00,0.0052
2766.75,0.0050
2766.50,0.0050
2766.25,0.0051
2766.00,0.0052
2765.75,0.0054
2765.50,0.0055
2765.25,0.0055
2765.00,0.0055
2764.75,0.0055
2764.50,0.0056
2764.25,0.0056
2764.00,0.0056
2763.75,0.0057
2763.50,0.0056
2763.25,0.0056
2763.00,0.0056
2762.75,0.0055
2762.50,0.0055
2762.25,0.0054
2762.00,0.0053
2761.75,0.0052
2761.50,0.0051
2761.25,0.0051
2761.00,0.0051
2760.75,0.0051
2760.50,0.0052
2760.25,0.0053
2760.00,0.0054
2759.75,0.0054
2759.50,0.0053
2759.25,0.0053
2759.00,0.0052
2758.75,0.0052
2758.50,0.0052
2758.25,0.0052
2758.00,0.0053
2757.75,0.0053
2757.50,0.0053
2757.25,0.0053
2757.00,0.0052
2756.75,0.0052
2756.50,0.0052
2756.25,0.0052
2756.00,0.0053
2755.75,0.0053
2755.50,0.0052
2755.25,0.0052
2755.00,0.0051
2754.75,0.0052
2754.50,0.0053
2754.25,0.0054
2754.00,0.0054
2753.75,0.0054
2753.50,0.0054
2753.25,0.0053
2753.00,0.0053
2752.75,0.0053
2752.50,0.0053
2752.25,0.0054
2752.00,0.0054
2751.75,0.0053
2751.50,0.0053
2751.25,0.0052
2751.00,0.0051
2750.75,0.0050
2750.50,0.0049
2750.25,0.0049
2750.00,0.0048
2749.75,0.0048
2749.50,0.0048
2749.25,0.0048
2749.00,0.0048
2748.75,0.0048
2748.50,0.0049
2748.25,0.0050
2748.00,0.0051
2747.75,0.0052
2747.50,0.0053
2747.25,0.0053
2747.00,0.0053
2746.75,0.0053
2746.50,0.0053
2746.25,0.0053
2746.00,0.0053
2745.75,0.0053
2745.50,0.0053
2745.25,0.0054
2745.00,0.0054
2744.75,0.0054
2744.50,0.0053
2744.25,0.0052
2744.00,0.0052
2743.75,0.0051
2743.50,0.0052
2743.25,0.0052
2743.00,0.0053
2742.75,0.0054
2742.50,0.0054
2742.25,0.0054
2742.00,0.0054
2741.75,0.0054
2741.50,0.0054
2741.25,0.0054
2741.00,0.0053
2740.75,0.0052
2740.50,0.0051
2740.25,0.0051
2740.00,0.0051
2739.75,0.0052
2739.50,0.0052
2739.25,0.0053
2739.00,0.0054
2738.75,0.0054
2738.50,0.0054
2738.25,0.0054
2738.00,0.0054
2737.75,0.0053
2737.50,0.0053
2737.25,0.0053
2737.00,0.0052
2736.75,0.0052
2736.50,0.0052
2736.25,0.0052
2736.00,0.0053
2735.75,0.0053
2735.50,0.0054
2735.25,0.0055
2735.00,0.0055
2734.75,0.0056
2734.50,0.0057
2734.25,0.0058
2734.00,0.0058
2733.75,0.0058
2733.50,0.0057
2733.25,0.0055
2733.00,0.0052
2732.75,0.0050
2732.50,0.0050
2732.25,0.0050
2732.00,0.0050
2731.75,0.0051
2731.50,0.0052
2731.25,0.0053
2731.00,0.0053
2730.75,0.0053
2730.50,0.0052
2730.25,0.0052
2730.00,0.0053
2729.75,0.0054
2729.50,0.0055
2729.25,0.0055
2729.00,0.0055
2728.75,0.0054
2728.50,0.0053
2728.25,0.0052
2728.00,0.0051
2727.75,0.0050
2727.50,0.0049
2727.25,0.0050
2727.00,0.0051
2726.75,0.0053
2726.50,0.0055
2726.25,0.0056
2726.00,0.0057
2725.75,0.0057
2725.50,0.0057
2725.25,0.0056
2725.00,0.0055
2724.75,0.0053
2724.50,0.0051
2724.25,0.0050
2724.00,0.0050
2723.75,0.0050
2723.50,0.0051
2723.25,0.0052
2723.00,0.0053
2722.75,0.0054
2722.50,0.0054
2722.25,0.0053
2722.00,0.0053
2721.75,0.0053
2721.50,0.0053
2721.25,0.0053
2721.00,0.0053
2720.75,0.0054
2720.50,0.0054
2720.25,0.0055
2720.00,0.0056
2719.75,0.0056
2719.50,0.0055
2719.25,0.0054
2719.00,0.0054
2718.75,0.0053
2718.50,0.0054
2718.25,0.0054
2718.00,0.0054
2717.75,0.0053
2717.50,0.0052
2717.25,0.0051
2717.00,0.0050
2716.75,0.0051
2716.50,0.0052
2716.25,0.0053
2716.00,0.0054
2715.75,0.0054
2715.50,0.0053
2715.25,0.0053
2715.00,0.0053
2714.75,0.0053
2714.50,0.0053
2714.25,0.0053
2714.00,0.0053
2713.75,0.0053
2713.50,0.0053
2713.25,0.0053
2713.00,0.0054
2712.75,0.0054
2712.50,0.0054
2712.25,0.0053
2712.00,0.0052
2711.75,0.0051
2711.50,0.0052
2711.25,0.0052
2711.00,0.0053
2710.75,0.0054
2710.50,0.0054
2710.25,0.0054
2710.00,0.0054
2709.75,0.0054
2709.50,0.0054
2709.25,0.0055
2709.00,0.0055
2708.75,0.0055
2708.50,0.0055
2708.25,0.0054
2708.00,0.0052
2707.75,0.0051
2707.50,0.0050
2707.25,0.0050
2707.00,0.0050
2706.75,0.0051
2706.50,0.0051
2706.25,0.0052
2706.00,0.0052
2705.75,0.0053
2705.50,0.0053
2705.25,0.0053
2705.00,0.0053
2704.75,0.0053
2704.50,0.0053
2704.25,0.0052
2704.00,0.0052
2703.75,0.0052
2703.50,0.0052
2703.25,0.0052
2703.00,0.0053
2702.75,0.0053
2702.50,0.0053
2702.25,0.0053
2702.00,0.0052
2701.75,0.0052
2701.50,0.0051
2701.25,0.0051
2701.00,0.0051
2700.75,0.0051
2700.50,0.0051
2700.25,0.0052
2700.00,0.0052
2699.75,0.0053
2699.50,0.0052
2699.25,0.0051
2699.00,0.0051
2698.75,0.0051
2698.50,0.0052
2698.25,0.0053
2698.00,0.0054
2697.75,0.0054
2697.50,0.0053
2697.25,0.0052
2697.00,0.0052
2696.75,0.0052
2696.50,0.0053
2696.25,0.0053
2696.00,0.0053
2695.75,0.0054
2695.50,0.0054
2695.25,0.0055
2695.00,0.0055
2694.75,0.0055
2694.50,0.0054
2694.25,0.0053
2694.00,0.0052
2693.75,0.0052
2693.50,0.0052
2693.25,0.0052
2693.00,0.0052
2692.75,0.0053
2692.50,0.0054
2692.25,0.0055
2692.00,0.0055
2691.75,0.0054
2691.50,0.0054
2691.25,0.0053
2691.00,0.0053
2690.75,0.0052
2690.50,0.0052
2690.25,0.0053
2690.00,0.0053
2689.75,0.0054
2689.50,0.0056
2689.25,0.0057
2689.00,0.0058
2688.75,0.0058
2688.50,0.0058
2688.25,0.0057
2688.00,0.0057
2687.75,0.0056
2687.50,0.0055
2687.25,0.0054
2687.00,0.0053
2686.75,0.0053
2686.50,0.0053
2686.25,0.0054
2686.00,0.0055
2685.75,0.0056
2685.50,0.0055
2685.25,0.0054
2685.00,0.0053
2684.75,0.0051
2684.50,0.0050
2684.25,0.0050
2684.00,0.0050
2683.75,0.0051
2683.50,0.0052
2683.25,0.0054
2683.00,0.0055
2682.75,0.0056
2682.50,0.0057
2682.25,0.0057
2682.00,0.0056
2681.75,0.0056
2681.50,0.0055
2681.25,0.0055
2681.00,0.0055
2680.75,0.0054
2680.50,0.0054
2680.25,0.0053
2680.00,0.0052
2679.75,0.0052
2679.50,0.0052
2679.25,0.0052
2679.00,0.0052
2678.75,0.0052
2678.50,0.0052
2678.25,0.0052
2678.00,0.0052
2677.75,0.0053
2677.50,0.0053
2677.25,0.0053
2677.00,0.0053
2676.75,0.0053
2676.50,0.0053
2676.25,0.0053
2676.00,0.0053
2675.75,0.0053
2675.50,0.0053
2675.25,0.0054
2675.00,0.0054
2674.75,0.0054
2674.50,0.0053
2674.25,0.0053
2674.00,0.0053
2673.75,0.0053
2673.50,0.0053
2673.25,0.0053
2673.00,0.0053
2672.75,0.0054
2672.50,0.0054
2672.25,0.0054
2672.00,0.0054
2671.75,0.0054
2671.50,0.0054
2671.25,0.0054
2671.00,0.0054
2670.75,0.0054
2670.50,0.0054
2670.25,0.0055
2670.00,0.0055
2669.75,0.0055
2669.50,0.0054
2669.25,0.0053
2669.00,0.0052
2668.75,0.0051
2668.50,0.0051
2668.25,0.0051
2668.00,0.0051
2667.75,0.0051
2667.50,0.0051
2667.25,0.0052
2667.00,0.0052
2666.75,0.0052
2666.50,0.0053
2666.25,0.0053
2666.00,0.0053
2665.75,0.0053
2665.50,0.0053
2665.25,0.0054
2665.00,0.0054
2664.75,0.0054
2664.50,0.0054
2664.25,0.0053
2664.00,0.0053
2663.75,0.0054
2663.50,0.0054
2663.25,0.0053
2663.00,0.0053
2662.75,0.0054
2662.50,0.0055
2662.25,0.0055
2662.00,0.0056
2661.75,0.0056
2661.50,0.0056
2661.25,0.0055
2661.00,0.0055
2660.75,0.0054
2660.50,0.0054
2660.25,0.0053
2660.00,0.0053
2659.75,0.0053
2659.50,0.0053
2659.25,0.0053
2659.00,0.0052
2658.75,0.0052
2658.50,0.0052
2658.25,0.0052
2658.00,0.0053
2657.75,0.0053
2657.50,0.0054
2657.25,0.0054
2657.00,0.0054
2656.75,0.0054
2656.50,0.0053
2656.25,0.0053
2656.00,0.0053
2655.75,0.0054
2655.50,0.0054
2655.25,0.0054
2655.00,0.0053
2654.75,0.0052
2654.50,0.0052
2654.25,0.0052
2654.00,0.0054
2653.75,0.0055
2653.50,0.0056
2653.25,0.0056
2653.00,0.0056
2652.75,0.0055
2652.50,0.0054
2652.25,0.0054
2652.00,0.0053
2651.75,0.0052
2651.50,0.0052
2651.25,0.0052
2651.00,0.0053
2650.75,0.0053
2650.50,0.0054
2650.25,0.0054
2650.00,0.0054
2649.75,0.0054
2649.50,0.0054
2649.25,0.0054
2649.00,0.0054
2648.75,0.0054
2648.50,0.0053
2648.25,0.0053
2648.00,0.0053
2647.75,0.0053
2647.50,0.0053
2647.25,0.0053
2647.00,0.0053
2646.75,0.0053
2646.50,0.0053
2646.25,0.0054
2646.00,0.0054
2645.75,0.0054
2645.50,0.0054
2645.25,0.0053
2645.00,0.0053
2644.75,0.0052
2644.50,0.0052
2644.25,0.0052
2644.00,0.0052
2643.75,0.0052
2643.50,0.0052
2643.25,0.0051
2643.00,0.0051
2642.75,0.0052
2642.50,0.0052
2642.25,0.0052
2642.00,0.0053
2641.75,0.0054
2641.50,0.0054
2641.25,0.0055
2641.00,0.0054
2640.75,0.0054
2640.50,0.0053
2640.25,0.0052
2640.00,0.0051
2639.75,0.0051
2639.50,0.0052
2639.25,0.0052
2639.00,0.0053
2638.75,0.0054
2638.50,0.0054
2638.25,0.0054
2638.00,0.0053
2637.75,0.0052
2637.50,0.0052
2637.25,0.0052
2637.00,0.0053
2636.75,0.0053
2636.50,0.0053
2636.25,0.0053
2636.00,0.0052
2635.75,0.0052
2635.50,0.0051
2635.25,0.0051
2635.00,0.0051
2634.75,0.0051
2634.50,0.0052
2634.25,0.0053
2634.00,0.0053
2633.75,0.0054
2633.50,0.0053
2633.25,0.0053
2633.00,0.0053
2632.75,0.0053
2632.50,0.0054
2632.25,0.0055
2632.00,0.0057
2631.75,0.0057
2631.50,0.0057
2631.25,0.0056
2631.00,0.0054
2630.75,0.0052
2630.50,0.0051
2630.25,0.0050
2630.00,0.0049
2629.75,0.0048
2629.50,0.0047
2629.25,0.0048
2629.00,0.0049
2628.75,0.0051
2628.50,0.0052
2628.25,0.0053
2628.00,0.0054
2627.75,0.0053
2627.50,0.0053
2627.25,0.0053
2627.00,0.0053
2626.75,0.0055
2626.50,0.0056
2626.25,0.0058
2626.00,0.0058
2625.75,0.0057
2625.50,0.0055
2625.25,0.0052
2625.00,0.0051
2624.75,0.0050
2624.50,0.0049
2624.25,0.0049
2624.00,0.0049
2623.75,0.0049
2623.50,0.0049
2623.25,0.0048
2623.00,0.0048
2622.75,0.0049
2622.50,0.0049
2622.25,0.0050
2622.00,0.0050
2621.75,0.0051
2621.50,0.0052
2621.25,0.0052
2621.00,0.0053
2620.75,0.0054
2620.50,0.0054
2620.25,0.0054
2620.00,0.0054
2619.75,0.0054
2619.50,0.0054
2619.25,0.0053
2619.00,0.0053
2618.75,0.0052
2618.50,0.0052
2618.25,0.0053
2618.00,0.0054
2617.75,0.0054
2617.50,0.0054
2617.25,0.0054
2617.00,0.0053
2616.75,0.0052
2616.50,0.0051
2616.25,0.0050
2616.00,0.0050
2615.75,0.0051
2615.50,0.0052
2615.25,0.0052
2615.00,0.0053
2614.75,0.0053
2614.50,0.0053
2614.25,0.0054
2614.00,0.0055
2613.75,0.0056
2613.50,0.0056
2613.25,0.0056
2613.00,0.0055
2612.75,0.0054
2612.50,0.0052
2612.25,0.0051
2612.00,0.0051
2611.75,0.0051
2611.50,0.0051
2611.25,0.0052
2611.00,0.0052
2610.75,0.0053
2610.50,0.0053
2610.25,0.0054
2610.00,0.0056
2609.75,0.0056
2609.50,0.0056
2609.25,0.0055
2609.00,0.0054
2608.75,0.0054
2608.50,0.0052
2608.25,0.0051
2608.00,0.0049
2607.75,0.0047
2607.50,0.0047
2607.25,0.0048
2607.00,0.0050
2606.75,0.0052
2606.50,0.0053
2606.25,0.0054
2606.00,0.0055
2605.75,0.0056
2605.50,0.0057
2605.25,0.0056
2605.00,0.0055
2604.75,0.0054
2604.50,0.0053
2604.25,0.0052
2604.00,0.0051
2603.75,0.0050
2603.50,0.0050
2603.25,0.0051
2603.00,0.0052
2602.75,0.0053
2602.50,0.0053
2602.25,0.0053
2602.00,0.0053
2601.75,0.0053
2601.50,0.0051
2601.25,0.0050
2601.00,0.0048
2600.75,0.0046
2600.50,0.0046
2600.25,0.0047
2600.00,0.0049
2599.75,0.0049
2599.50,0.0049
2599.25,0.0048
2599.00,0.0047
2598.75,0.0046
2598.50,0.0046
2598.25,0.0048
2598.00,0.0050
2597.75,0.0052
2597.50,0.0054
2597.25,0.0055
2597.00,0.0054
2596.75,0.0053
2596.50,0.0052
2596.25,0.0052
2596.00,0.0052
2595.75,0.0052
2595.50,0.0051
2595.25,0.0049
2595.00,0.0047
2594.75,0.0047
2594.50,0.0046
2594.25,0.0046
2594.00,0.0045
2593.75,0.0044
2593.50,0.0043
2593.25,0.0044
2593.00,0.0045
2592.75,0.0048
2592.50,0.0050
2592.25,0.0052
2592.00,0.0052
2591.75,0.0052
2591.50,0.0051
2591.25,0.0050
2591.00,0.0051
2590.75,0.0052
2590.50,0.0053
2590.25,0.0054
2590.00,0.0054
2589.75,0.0053
2589.50,0.0051
2589.25,0.0050
2589.00,0.0050
2588.75,0.0051
2588.50,0.0052
2588.25,0.0053
2588.00,0.0054
2587.75,0.0054
2587.50,0.0053
2587.25,0.0051
2587.00,0.0048
2586.75,0.0046
2586.50,0.0045
2586.25,0.0045
2586.00,0.0046
2585.75,0.0047
2585.50,0.0047
2585.25,0.0046
2585.00,0.0045
2584.75,0.0045
2584.50,0.0046
2584.25,0.0047
2584.00,0.0048
2583.75,0.0049
2583.50,0.0049
2583.25,0.0050
2583.00,0.0051
2582.75,0.0054
2582.50,0.0054
2582.25,0.0053
2582.00,0.0051
2581.75,0.0047
2581.50,0.0045
2581.25,0.0045
2581.00,0.0046
2580.75,0.0049
2580.50,0.0051
2580.25,0.0053
2580.00,0.0054
2579.75,0.0054
2579.50,0.0054
2579.25,0.0054
2579.00,0.0054
2578.75,0.0054
2578.50,0.0053
2578.25,0.0051
2578.00,0.0050
2577.75,0.0048
2577.50,0.0047
2577.25,0.0047
2577.00,0.0047
2576.75,0.0048
2576.50,0.0049
2576.25,0.0050
2576.00,0.0052
2575.75,0.0053
2575.50,0.0054
2575.25,0.0054
2575.00,0.0054
2574.75,0.0053
2574.50,0.0051
2574.25,0.0051
2574.00,0.0051
2573.75,0.0051
2573.50,0.0053
2573.25,0.0053
2573.00,0.0053
2572.75,0.0051
2572.50,0.0048
2572.25,0.0047
2572.00,0.0048
2571.75,0.0050
2571.50,0.0052
2571.25,0.0052
2571.00,0.0050
2570.75,0.0047
2570.50,0.0044
2570.25,0.0044
2570.00,0.0044
2569.75,0.0046
2569.50,0.0047
2569.25,0.0048
2569.00,0.0049
2568.75,0.0050
2568.50,0.0050
2568.25,0.0049
2568.00,0.0048
2567.75,0.0046
2567.50,0.0046
2567.25,0.0046
2567.00,0.0047
2566.75,0.0048
2566.50,0.0049
2566.25,0.0050
2566.00,0.0051
2565.75,0.0052
2565.50,0.0053
2565.25,0.0052
2565.00,0.0052
2564.75,0.0051
2564.50,0.0051
2564.25,0.0051
2564.00,0.0051
2563.75,0.0052
2563.50,0.0053
2563.25,0.0053
2563.00,0.0054
2562.75,0.0053
2562.50,0.0051
2562.25,0.0049
2562.00,0.0049
2561.75,0.0049
2561.50,0.0050
2561.25,0.0051
2561.00,0.0051
2560.75,0.0051
2560.50,0.0051
2560.25,0.0050
2560.00,0.0050
2559.75,0.0049
2559.50,0.0049
2559.25,0.0050
2559.00,0.0050
2558.75,0.0050
2558.50,0.0051
2558.25,0.0051
2558.00,0.0053
2557.75,0.0054
2557.50,0.0056
2557.25,0.0056
2557.00,0.0055
2556.75,0.0055
2556.50,0.0054
2556.25,0.0054
2556.00,0.0053
2555.75,0.0052
2555.50,0.0052
2555.25,0.0052
2555.00,0.0052
2554.75,0.0051
2554.50,0.0049
2554.25,0.0047
2554.00,0.0047
2553.75,0.0047
2553.50,0.0047
2553.25,0.0048
2553.00,0.0048
2552.75,0.0047
2552.50,0.0046
2552.25,0.0046
2552.00,0.0046
2551.75,0.0046
2551.50,0.0047
2551.25,0.0047
2551.00,0.0048
2550.75,0.0047
2550.50,0.0047
2550.25,0.0047
2550.00,0.0048
2549.75,0.0050
2549.50,0.0051
2549.25,0.0051
2549.00,0.0051
2548.75,0.0050
2548.50,0.0050
2548.25,0.0050
2548.00,0.0050
2547.75,0.0050
2547.50,0.0050
2547.25,0.0048
2547.00,0.0047
2546.75,0.0047
2546.50,0.0048
2546.25,0.0050
2546.00,0.0052
2545.75,0.0054
2545.50,0.0055
2545.25,0.0054
2545.00,0.0053
2544.75,0.0050
2544.50,0.0047
2544.25,0.0045
2544.00,0.0043
2543.75,0.0043
2543.50,0.0043
2543.25,0.0043
2543.00,0.0044
2542.75,0.0044
2542.50,0.0045
2542.25,0.0046
2542.00,0.0047
2541.75,0.0048
2541.50,0.0048
2541.25,0.0047
2541.00,0.0045
2540.75,0.0044
2540.50,0.0044
2540.25,0.0044
2540.00,0.0045
2539.75,0.0046
2539.50,0.0046
2539.25,0.0046
2539.00,0.0047
2538.75,0.0048
2538.50,0.0049
2538.25,0.0051
2538.00,0.0052
2537.75,0.0052
2537.50,0.0052
2537.25,0.0053
2537.00,0.0054
2536.75,0.0054
2536.50,0.0054
2536.25,0.0053
2536.00,0.0051
2535.75,0.0048
2535.50,0.0046
2535.25,0.0045
2535.00,0.0047
2534.75,0.0050
2534.50,0.0055
2534.25,0.0059
2534.00,0.0061
2533.75,0.0062
2533.50,0.0061
2533.25,0.0058
2533.00,0.0054
2532.75,0.0050
2532.50,0.0047
2532.25,0.0046
2532.00,0.0046
2531.75,0.0047
2531.50,0.0049
2531.25,0.0051
2531.00,0.0052
2530.75,0.0052
2530.50,0.0052
2530.25,0.0051
2530.00,0.0050
2529.75,0.0050
2529.50,0.0050
2529.25,0.0050
2529.00,0.0051
2528.75,0.0051
2528.50,0.0052
2528.25,0.0052
2528.00,0.0051
2527.75,0.0049
2527.50,0.0047
2527.25,0.0045
2527.00,0.0045
2526.75,0.0046
2526.50,0.0047
2526.25,0.0048
2526.00,0.0050
2525.75,0.0051
2525.50,0.0051
2525.25,0.0051
2525.00,0.0050
2524.75,0.0051
2524.50,0.0051
2524.25,0.0052
2524.00,0.0052
2523.75,0.0051
2523.50,0.0050
2523.25,0.0049
2523.00,0.0049
2522.75,0.0048
2522.50,0.0047
2522.25,0.0045
2522.00,0.0043
2521.75,0.0043
2521.50,0.0043
2521.25,0.0045
2521.00,0.0046
2520.75,0.0047
2520.50,0.0047
2520.25,0.0047
2520.00,0.0048
2519.75,0.0050
2519.50,0.0051
2519.25,0.0051
2519.00,0.0049
2518.75,0.0049
2518.50,0.0048
2518.25,0.0049
2518.00,0.0050
2517.75,0.0051
2517.50,0.0051
2517.25,0.0051
2517.00,0.0050
2516.75,0.0049
2516.50,0.0049
2516.25,0.0048
2516.00,0.0047
2515.75,0.0047
2515.50,0.0048
2515.25,0.0048
2515.00,0.0048
2514.75,0.0047
2514.50,0.0046
2514.25,0.0046
2514.00,0.0047
2513.75,0.0048
2513.50,0.0049
2513.25,0.0050
2513.00,0.0050
2512.75,0.0049
2512.50,0.0048
2512.25,0.0048
2512.00,0.0048
2511.75,0.0049
2511.50,0.0050
2511.25,0.0050
2511.00,0.0049
2510.75,0.0047
2510.50,0.0045
2510.25,0.0043
2510.00,0.0043
2509.75,0.0044
2509.50,0.0046
2509.25,0.0048
2509.00,0.0050
2508.75,0.0051
2508.50,0.0052
2508.25,0.0051
2508.00,0.0051
2507.75,0.0051
2507.50,0.0051
2507.25,0.0050
2507.00,0.0049
2506.75,0.0047
2506.50,0.0046
2506.25,0.0045
2506.00,0.0046
2505.75,0.0047
2505.50,0.0048
2505.25,0.0049
2505.00,0.0050
2504.75,0.0051
2504.50,0.0051
2504.25,0.0050
2504.00,0.0048
2503.75,0.0047
2503.50,0.0046
2503.25,0.0047
2503.00,0.0050
2502.75,0.0052
2502.50,0.0054
2502.25,0.0053
2502.00,0.0050
2501.75,0.0047
2501.50,0.0044
2501.25,0.0044
2501.00,0.0045
2500.75,0.0047
2500.50,0.0049
2500.25,0.0050
2500.00,0.0051
2499.75,0.0051
2499.50,0.0051
2499.25,0.0051
2499.00,0.0051
2498.75,0.0051
2498.50,0.0051
2498.25,0.0051
2498.00,0.0050
2497.75,0.0049
2497.50,0.0048
2497.25,0.0048
2497.00,0.0048
2496.75,0.0048
2496.50,0.0048
2496.25,0.0049
2496.00,0.0050
2495.75,0.0053
2495.50,0.0055
2495.25,0.0055
2495.00,0.0052
2494.75,0.0049
2494.50,0.0045
2494.25,0.0043
2494.00,0.0043
2493.75,0.0043
2493.50,0.0044
2493.25,0.0045
2493.00,0.0046
2492.75,0.0046
2492.50,0.0045
2492.25,0.0046
2492.00,0.0047
2491.75,0.0049
2491.50,0.0051
2491.25,0.0053
2491.00,0.0053
2490.75,0.0053
2490.50,0.0053
2490.25,0.0053
2490.00,0.0053
2489.75,0.0053
2489.50,0.0051
2489.25,0.0049
2489.00,0.0048
2488.75,0.0047
2488.50,0.0047
2488.25,0.0047
2488.00,0.0047
2487.75,0.0047
2487.50,0.0046
2487.25,0.0046
2487.00,0.0046
2486.75,0.0047
2486.50,0.0047
2486.25,0.0047
2486.00,0.0047
2485.75,0.0047
2485.50,0.0048
2485.25,0.0050
2485.00,0.0052
2484.75,0.0053
2484.50,0.0053
2484.25,0.0053
2484.00,0.0051
2483.75,0.0050
2483.50,0.0048
2483.25,0.0047
2483.00,0.0047
2482.75,0.0048
2482.50,0.0050
2482.25,0.0051
2482.00,0.0051
2481.75,0.0050
2481.50,0.0049
2481.25,0.0048
2481.00,0.0047
2480.75,0.0048
2480.50,0.0050
2480.25,0.0052
2480.00,0.0053
2479.75,0.0053
2479.50,0.0052
2479.25,0.0051
2479.00,0.0049
2478.75,0.0048
2478.50,0.0049
2478.25,0.0049
2478.00,0.0050
2477.75,0.0051
2477.50,0.0051
2477.25,0.0051
2477.00,0.0051
2476.75,0.0051
2476.50,0.0052
2476.25,0.0053
2476.00,0.0054
2475.75,0.0055
2475.50,0.0056
2475.25,0.0056
2475.00,0.0055
2474.75,0.0052
2474.50,0.0049
2474.25,0.0045
2474.00,0.0043
2473.75,0.0042
2473.50,0.0043
2473.25,0.0044
2473.00,0.0045
2472.75,0.0045
2472.50,0.0047
2472.25,0.0049
2472.00,0.0052
2471.75,0.0054
2471.50,0.0056
2471.25,0.0056
2471.00,0.0054
2470.75,0.0052
2470.50,0.0051
2470.25,0.0050
2470.00,0.0050
2469.75,0.0051
2469.50,0.0051
2469.25,0.0051
2469.00,0.0050
2468.75,0.0049
2468.50,0.0049
2468.25,0.0049
2468.00,0.0050
2467.75,0.0050
2467.50,0.0050
2467.25,0.0050
2467.00,0.0050
2466.75,0.0051
2466.50,0.0051
2466.25,0.0052
2466.00,0.0053
2465.75,0.0053
2465.50,0.0053
2465.25,0.0054
2465.00,0.0054
2464.75,0.0054
2464.50,0.0054
2464.25,0.0053
2464.00,0.0053
2463.75,0.0052
2463.50,0.0051
2463.25,0.0049
2463.00,0.0047
2462.75,0.0044
2462.50,0.0044
2462.25,0.0045
2462.00,0.0047
2461.75,0.0050
2461.50,0.0051
2461.25,0.0051
2461.00,0.0050
2460.75,0.0048
2460.50,0.0047
2460.25,0.0046
2460.00,0.0046
2459.75,0.0046
2459.50,0.0046
2459.25,0.0046
2459.00,0.0047
2458.75,0.0047
2458.50,0.0046
2458.25,0.0046
2458.00,0.0045
2457.75,0.0045
2457.50,0.0045
2457.25,0.0045
2457.00,0.0045
2456.75,0.0045
2456.50,0.0046
2456.25,0.0046
2456.00,0.0047
2455.75,0.0049
2455.50,0.0051
2455.25,0.0052
2455.00,0.0052
2454.75,0.0050
2454.50,0.0047
2454.25,0.0045
2454.00,0.0044
2453.75,0.0045
2453.50,0.0047
2453.25,0.0048
2453.00,0.0050
2452.75,0.0050
2452.50,0.0050
2452.25,0.0050
2452.00,0.0050
2451.75,0.0050
2451.50,0.0051
2451.25,0.0052
2451.00,0.0053
2450.75,0.0053
2450.50,0.0053
2450.25,0.0053
2450.00,0.0053
2449.75,0.0053
2449.50,0.0053
2449.25,0.0052
2449.00,0.0051
2448.75,0.0050
2448.50,0.0051
2448.25,0.0053
2448.00,0.0053
2447.75,0.0053
2447.50,0.0051
2447.25,0.0051
2447.00,0.0052
2446.75,0.0053
2446.50,0.0054
2446.25,0.0053
2446.00,0.0050
2445.75,0.0047
2445.50,0.0044
2445.25,0.0043
2445.00,0.0043
2444.75,0.0043
2444.50,0.0044
2444.25,0.0044
2444.00,0.0045
2443.75,0.0046
2443.50,0.0048
2443.25,0.0049
2443.00,0.0049
2442.75,0.0048
2442.50,0.0047
2442.25,0.0047
2442.00,0.0050
2441.75,0.0053
2441.50,0.0057
2441.25,0.0060
2441.00,0.0061
2440.75,0.0061
2440.50,0.0059
2440.25,0.0057
2440.00,0.0054
2439.75,0.0052
2439.50,0.0050
2439.25,0.0049
2439.00,0.0048
2438.75,0.0048
2438.50,0.0048
2438.25,0.0049
2438.00,0.0050
2437.75,0.0050
2437.50,0.0050
2437.25,0.0050
2437.00,0.0050
2436.75,0.0050
2436.50,0.0049
2436.25,0.0048
2436.00,0.0048
2435.75,0.0047
2435.50,0.0047
2435.25,0.0046
2435.00,0.0046
2434.75,0.0045
2434.50,0.0045
2434.25,0.0046
2434.00,0.0046
2433.75,0.0047
2433.50,0.0047
2433.25,0.0047
2433.00,0.0046
2432.75,0.0046
2432.50,0.0046
2432.25,0.0047
2432.00,0.0049
2431.75,0.0050
2431.50,0.0050
2431.25,0.0048
2431.00,0.0047
2430.75,0.0047
2430.50,0.0049
2430.25,0.0051
2430.00,0.0052
2429.75,0.0052
2429.50,0.0052
2429.25,0.0052
2429.00,0.0053
2428.75,0.0055
2428.50,0.0055
2428.25,0.0054
2428.00,0.0050
2427.75,0.0047
2427.50,0.0045
2427.25,0.0045
2427.00,0.0047
2426.75,0.0048
2426.50,0.0048
2426.25,0.0048
2426.00,0.0049
2425.75,0.0049
2425.50,0.0050
2425.25,0.0050
2425.00,0.0050
2424.75,0.0049
2424.50,0.0049
2424.25,0.0048
2424.00,0.0047
2423.75,0.0045
2423.50,0.0044
2423.25,0.0043
2423.00,0.0044
2422.75,0.0044
2422.50,0.0046
2422.25,0.0047
2422.00,0.0049
2421.75,0.0050
2421.50,0.0051
2421.25,0.0052
2421.00,0.0052
2420.75,0.0052
2420.50,0.0051
2420.25,0.0050
2420.00,0.0049
2419.75,0.0048
2419.50,0.0048
2419.25,0.0048
2419.00,0.0049
2418.75,0.0049
2418.50,0.0049
2418.25,0.0049
2418.00,0.0050
2417.75,0.0053
2417.50,0.0055
2417.25,0.0057
2417.00,0.0058
2416.75,0.0057
2416.50,0.0054
2416.25,0.0052
2416.00,0.0049
2415.75,0.0049
2415.50,0.0049
2415.25,0.0051
2415.00,0.0053
2414.75,0.0054
2414.50,0.0054
2414.25,0.0052
2414.00,0.0051
2413.75,0.0049
2413.50,0.0049
2413.25,0.0049
2413.00,0.0050
2412.75,0.0051
2412.50,0.0051
2412.25,0.0052
2412.00,0.0053
2411.75,0.0054
2411.50,0.0055
2411.25,0.0055
2411.00,0.0054
2410.75,0.0052
2410.50,0.0050
2410.25,0.0048
2410.00,0.0047
2409.75,0.0047
2409.50,0.0047
2409.25,0.0048
2409.00,0.0049
2408.75,0.0050
2408.50,0.0049
2408.25,0.0047
2408.00,0.0045
2407.75,0.0044
2407.50,0.0044
2407.25,0.0046
2407.00,0.0048
2406.75,0.0049
2406.50,0.0050
2406.25,0.0050
2406.00,0.0049
2405.75,0.0049
2405.50,0.0049
2405.25,0.0049
2405.00,0.0048
2404.75,0.0048
2404.50,0.0049
2404.25,0.0050
2404.00,0.0051
2403.75,0.0052
2403.50,0.0052
2403.25,0.0052
2403.00,0.0052
2402.75,0.0052
2402.50,0.0053
2402.25,0.0054
2402.00,0.0054
2401.75,0.0054
2401.50,0.0053
2401.25,0.0053
2401.00,0.0053
2400.75,0.0053
2400.50,0.0052
2400.25,0.0050
2400.00,0.0048
2399.75,0.0048
2399.50,0.0048
2399.25,0.0047
2399.00,0.0047
2398.75,0.0047
2398.50,0.0047
2398.25,0.0048
2398.00,0.0048
2397.75,0.0048
2397.50,0.0048
2397.25,0.0049
2397.00,0.0049
2396.75,0.0050
2396.50,0.0051
2396.25,0.0053
2396.00,0.0054
2395.75,0.0054
2395.50,0.0052
2395.25,0.0049
2395.00,0.0047
2394.75,0.0046
2394.50,0.0046
2394.25,0.0046
2394.00,0.0047
2393.75,0.0047
2393.50,0.0048
2393.25,0.0048
2393.00,0.0048
2392.75,0.0049
2392.50,0.0049
2392.25,0.0050
2392.00,0.0051
2391.75,0.0051
2391.50,0.0049
2391.25,0.0047
2391.00,0.0046
2390.75,0.0045
2390.50,0.0046
2390.25,0.0048
2390.00,0.0051
2389.75,0.0054
2389.50,0.0055
2389.25,0.0055
2389.00,0.0053
2388.75,0.0051
2388.50,0.0050
2388.25,0.0050
2388.00,0.0050
2387.75,0.0050
2387.50,0.0050
2387.25,0.0049
2387.00,0.0048
2386.75,0.0047
2386.50,0.0046
2386.25,0.0046
2386.00,0.0047
2385.75,0.0048
2385.50,0.0051
2385.25,0.0052
2385.00,0.0053
2384.75,0.0053
2384.50,0.0053
2384.25,0.0052
2384.00,0.0051
2383.75,0.0051
2383.50,0.0050
2383.25,0.0051
2383.00,0.0051
2382.75,0.0051
2382.50,0.0051
2382.25,0.0049
2382.00,0.0048
2381.75,0.0047
2381.50,0.0046
2381.25,0.0046
2381.00,0.0046
2380.75,0.0047
2380.50,0.0047
2380.25,0.0046
2380.00,0.0045
2379.75,0.0044
2379.50,0.0043
2379.25,0.0044
2379.00,0.0046
2378.75,0.0046
2378.50,0.0045
2378.25,0.0043
2378.00,0.0042
2377.75,0.0041
2377.50,0.0041
2377.25,0.0041
2377.00,0.0043
2376.75,0.0046
2376.50,0.0049
2376.25,0.0052
2376.00,0.0054
2375.75,0.0055
2375.50,0.0056
2375.25,0.0055
2375.00,0.0052
2374.75,0.0047
2374.50,0.0041
2374.25,0.0035
2374.00,0.0031
2373.75,0.0029
2373.50,0.0030
2373.25,0.0032
2373.00,0.0033
2372.75,0.0033
2372.50,0.0034
2372.25,0.0036
2372.00,0.0039
2371.75,0.0042
2371.50,0.0043
2371.25,0.0044
2371.00,0.0042
2370.75,0.0040
2370.50,0.0037
2370.25,0.0037
2370.00,0.0038
2369.75,0.0041
2369.50,0.0045
2369.25,0.0048
2369.00,0.0050
2368.75,0.0051
2368.50,0.0051
2368.25,0.0049
2368.00,0.0048
2367.75,0.0048
2367.50,0.0048
2367.25,0.0047
2367.00,0.0045
2366.75,0.0043
2366.50,0.0043
2366.25,0.0046
2366.00,0.0049
2365.75,0.0052
2365.50,0.0053
2365.25,0.0052
2365.00,0.0050
2364.75,0.0049
2364.50,0.0050
2364.25,0.0053
2364.00,0.0056
2363.75,0.0057
2363.50,0.0054
2363.25,0.0050
2363.00,0.0048
2362.75,0.0049
2362.50,0.0054
2362.25,0.0059
2362.00,0.0062
2361.75,0.0062
2361.50,0.0060
2361.25,0.0056
2361.00,0.0053
2360.75,0.0053
2360.50,0.0052
2360.25,0.0051
2360.00,0.0050
2359.75,0.0047
2359.50,0.0044
2359.25,0.0042
2359.00,0.0042
2358.75,0.0045
2358.50,0.0051
2358.25,0.0057
2358.00,0.0059
2357.75,0.0058
2357.50,0.0056
2357.25,0.0054
2357.00,0.0054
2356.75,0.0055
2356.50,0.0056
2356.25,0.0057
2356.00,0.0058
2355.75,0.0060
2355.50,0.0062
2355.25,0.0063
2355.00,0.0061
2354.75,0.0058
2354.50,0.0055
2354.25,0.0054
2354.00,0.0056
2353.75,0.0059
2353.50,0.0060
2353.25,0.0057
2353.00,0.0052
2352.75,0.0048
2352.50,0.0046
2352.25,0.0048
2352.00,0.0051
2351.75,0.0052
2351.50,0.0052
2351.25,0.0051
2351.00,0.0049
2350.75,0.0049
2350.50,0.0051
2350.25,0.0053
2350.00,0.0057
2349.75,0.0058
2349.50,0.0058
2349.25,0.0056
2349.00,0.0055
2348.75,0.0053
2348.50,0.0053
2348.25,0.0053
2348.00,0.0054
2347.75,0.0054
2347.50,0.0054
2347.25,0.0053
2347.00,0.0051
2346.75,0.0050
2346.50,0.0050
2346.25,0.0052
2346.00,0.0055
2345.75,0.0059
2345.50,0.0061
2345.25,0.0062
2345.00,0.0061
2344.75,0.0060
2344.50,0.0057
2344.25,0.0051
2344.00,0.0045
2343.75,0.0042
2343.50,0.0043
2343.25,0.0045
2343.00,0.0049
2342.75,0.0055
2342.50,0.0059
2342.25,0.0061
2342.00,0.0060
2341.75,0.0059
2341.50,0.0057
2341.25,0.0056
2341.00,0.0055
2340.75,0.0053
2340.50,0.0053
2340.25,0.0055
2340.00,0.0057
2339.75,0.0058
2339.50,0.0058
2339.25,0.0055
2339.00,0.0050
2338.75,0.0048
2338.50,0.0048
2338.25,0.0048
2338.00,0.0048
2337.75,0.0048
2337.50,0.0049
2337.25,0.0051
2337.00,0.0053
2336.75,0.0054
2336.50,0.0052
2336.25,0.0051
2336.00,0.0050
2335.75,0.0049
2335.50,0.0050
2335.25,0.0052
2335.00,0.0053
2334.75,0.0052
2334.50,0.0050
2334.25,0.0047
2334.00,0.0043
2333.75,0.0041
2333.50,0.0042
2333.25,0.0045
2333.00,0.0049
2332.75,0.0052
2332.50,0.0058
2332.25,0.0061
2332.00,0.0059
2331.75,0.0056
2331.50,0.0054
2331.25,0.0052
2331.00,0.0050
2330.75,0.0048
2330.50,0.0045
2330.25,0.0043
2330.00,0.0045
2329.75,0.0048
2329.50,0.0050
2329.25,0.0050
2329.00,0.0050
2328.75,0.0052
2328.50,0.0055
2328.25,0.0056
2328.00,0.0058
2327.75,0.0057
2327.50,0.0055
2327.25,0.0051
2327.00,0.0047
2326.75,0.0044
2326.50,0.0043
2326.25,0.0044
2326.00,0.0047
2325.75,0.0050
2325.50,0.0051
2325.25,0.0051
2325.00,0.0050
2324.75,0.0047
2324.50,0.0043
2324.25,0.0042
2324.00,0.0041
2323.75,0.0041
2323.50,0.0040
2323.25,0.0039
2323.00,0.0038
2322.75,0.0038
2322.50,0.0039
2322.25,0.0043
2322.00,0.0047
2321.75,0.0049
2321.50,0.0050
2321.25,0.0049
2321.00,0.0045
2320.75,0.0043
2320.50,0.0045
2320.25,0.0050
2320.00,0.0053
2319.75,0.0053
2319.50,0.0051
2319.25,0.0047
2319.00,0.0043
2318.75,0.0042
2318.50,0.0042
2318.25,0.0044
2318.00,0.0045
2317.75,0.0046
2317.50,0.0049
2317.25,0.0051
2317.00,0.0051
2316.75,0.0050
2316.50,0.0049
2316.25,0.0048
2316.00,0.0047
2315.75,0.0045
2315.50,0.0042
2315.25,0.0040
2315.00,0.0039
2314.75,0.0039
2314.50,0.0042
2314.25,0.0044
2314.00,0.0044
2313.75,0.0044
2313.50,0.0043
2313.25,0.0041
2313.00,0.0039
2312.75,0.0039
2312.50,0.0040
2312.25,0.0042
2312.00,0.0045
2311.75,0.0046
2311.50,0.0047
2311.25,0.0047
2311.00,0.0047
2310.75,0.0047
2310.50,0.0047
2310.25,0.0046
2310.00,0.0044
2309.75,0.0043
2309.50,0.0042
2309.25,0.0042
2309.00,0.0042
2308.75,0.0041
2308.50,0.0041
2308.25,0.0042
2308.00,0.0045
2307.75,0.0048
2307.50,0.0050
2307.25,0.0050
2307.00,0.0049
2306.75,0.0048
2306.50,0.0048
2306.25,0.0049
2306.00,0.0050
2305.75,0.0051
2305.50,0.0051
2305.25,0.0051
2305.00,0.0050
2304.75,0.0048
2304.50,0.0046
2304.25,0.0045
2304.00,0.0046
2303.75,0.0048
2303.50,0.0049
2303.25,0.0049
2303.00,0.0049
2302.75,0.0048
2302.50,0.0047
2302.25,0.0046
2302.00,0.0046
2301.75,0.0045
2301.50,0.0046
2301.25,0.0047
2301.00,0.0048
2300.75,0.0049
2300.50,0.0049
2300.25,0.0048
2300.00,0.0045
2299.75,0.0043
2299.50,0.0043
2299.25,0.0044
2299.00,0.0047
2298.75,0.0049
2298.50,0.0049
2298.25,0.0049
2298.00,0.0047
2297.75,0.0046
2297.50,0.0045
2297.25,0.0044
2297.00,0.0042
2296.75,0.0041
2296.50,0.0040
2296.25,0.0042
2296.00,0.0045
2295.75,0.0047
2295.50,0.0049
2295.25,0.0050
2295.00,0.0049
2294.75,0.0049
2294.50,0.0049
2294.25,0.0050
2294.00,0.0052
2293.75,0.0055
2293.50,0.0058
2293.25,0.0059
2293.00,0.0058
2292.75,0.0055
2292.50,0.0052
2292.25,0.0050
2292.00,0.0050
2291.75,0.0051
2291.50,0.0053
2291.25,0.0054
2291.00,0.0054
2290.75,0.0054
2290.50,0.0054
2290.25,0.0054
2290.00,0.0055
2289.75,0.0056
2289.50,0.0056
2289.25,0.0054
2289.00,0.0052
2288.75,0.0049
2288.50,0.0046
2288.25,0.0045
2288.00,0.0044
2287.75,0.0044
2287.50,0.0045
2287.25,0.0047
2287.00,0.0049
2286.75,0.0050
2286.50,0.0049
2286.25,0.0047
2286.00,0.0045
2285.75,0.0045
2285.50,0.0046
2285.25,0.0048
2285.00,0.0048
2284.75,0.0048
2284.50,0.0046
2284.25,0.0045
2284.00,0.0044
2283.75,0.0045
2283.50,0.0047
2283.25,0.0049
2283.00,0.0050
2282.75,0.0051
2282.50,0.0051
2282.25,0.0051
2282.00,0.0051
2281.75,0.0049
2281.50,0.0047
2281.25,0.0045
2281.00,0.0044
2280.75,0.0045
2280.50,0.0046
2280.25,0.0046
2280.00,0.0045
2279.75,0.0043
2279.50,0.0042
2279.25,0.0042
2279.00,0.0044
2278.75,0.0045
2278.50,0.0046
2278.25,0.0045
2278.00,0.0044
2277.75,0.0042
2277.50,0.0040
2277.25,0.0039
2277.00,0.0039
2276.75,0.0041
2276.50,0.0043
2276.25,0.0045
2276.00,0.0045
2275.75,0.0045
2275.50,0.0044
2275.25,0.0044
2275.00,0.0045
2274.75,0.0047
2274.50,0.0050
2274.25,0.0054
2274.00,0.0057
2273.75,0.0059
2273.50,0.0058
2273.25,0.0056
2273.00,0.0051
2272.75,0.0047
2272.50,0.0043
2272.25,0.0042
2272.00,0.0042
2271.75,0.0043
2271.50,0.0046
2271.25,0.0048
2271.00,0.0049
2270.75,0.0048
2270.50,0.0046
2270.25,0.0044
2270.00,0.0042
2269.75,0.0043
2269.50,0.0044
2269.25,0.0046
2269.00,0.0048
2268.75,0.0049
2268.50,0.0048
2268.25,0.0047
2268.00,0.0046
2267.75,0.0046
2267.50,0.0047
2267.25,0.0047
2267.00,0.0048
2266.75,0.0048
2266.50,0.0046
2266.25,0.0045
2266.00,0.0043
2265.75,0.0042
2265.50,0.0043
2265.25,0.0045
2265.00,0.0048
2264.75,0.0050
2264.50,0.0051
2264.25,0.0048
2264.00,0.0044
2263.75,0.0038
2263.50,0.0034
2263.25,0.0032
2263.00,0.0031
2262.75,0.0033
2262.50,0.0035
2262.25,0.0039
2262.00,0.0042
2261.75,0.0046
2261.50,0.0048
2261.25,0.0050
2261.00,0.0051
2260.75,0.0051
2260.50,0.0051
2260.25,0.0050
2260.00,0.0049
2259.75,0.0046
2259.50,0.0044
2259.25,0.0043
2259.00,0.0043
2258.75,0.0044
2258.50,0.0045
2258.25,0.0045
2258.00,0.0044
2257.75,0.0044
2257.50,0.0044
2257.25,0.0044
2257.00,0.0043
2256.75,0.0041
2256.50,0.0040
2256.25,0.0039
2256.00,0.0040
2255.75,0.0041
2255.50,0.0043
2255.25,0.0046
2255.00,0.0048
2254.75,0.0049
2254.50,0.0049
2254.25,0.0048
2254.00,0.0045
2253.75,0.0041
2253.50,0.0038
2253.25,0.0036
2253.00,0.0035
2252.75,0.0035
2252.50,0.0035
2252.25,0.0035
2252.00,0.0036
2251.75,0.0038
2251.50,0.0040
2251.25,0.0042
2251.00,0.0044
2250.75,0.0045
2250.50,0.0046
2250.25,0.0046
2250.00,0.0046
2249.75,0.0045
2249.50,0.0043
2249.25,0.0042
2249.00,0.0042
2248.75,0.0043
2248.50,0.0044
2248.25,0.0046
2248.00,0.0047
2247.75,0.0048
2247.50,0.0048
2247.25,0.0046
2247.00,0.0044
2246.75,0.0042
2246.50,0.0041
2246.25,0.0039
2246.00,0.0037
2245.75,0.0036
2245.50,0.0034
2245.25,0.0035
2245.00,0.0038
2244.75,0.0042
2244.50,0.0046
2244.25,0.0048
2244.00,0.0047
2243.75,0.0043
2243.50,0.0039
2243.25,0.0036
2243.00,0.0035
2242.75,0.0035
2242.50,0.0035
2242.25,0.0034
2242.00,0.0033
2241.75,0.0032
2241.50,0.0033
2241.25,0.0034
2241.00,0.0037
2240.75,0.0039
2240.50,0.0041
2240.25,0.0042
2240.00,0.0042
2239.75,0.0042
2239.50,0.0042
2239.25,0.0042
2239.00,0.0042
2238.75,0.0041
2238.50,0.0040
2238.25,0.0040
2238.00,0.0040
2237.75,0.0040
2237.50,0.0040
2237.25,0.0040
2237.00,0.0040
2236.75,0.0040
2236.50,0.0039
2236.25,0.0039
2236.00,0.0040
2235.75,0.0041
2235.50,0.0042
2235.25,0.0042
2235.00,0.0042
2234.75,0.0042
2234.50,0.0043
2234.25,0.0044
2234.00,0.0045
2233.75,0.0045
2233.50,0.0046
2233.25,0.0049
2233.00,0.0050
2232.75,0.0050
2232.50,0.0049
2232.25,0.0047
2232.00,0.0046
2231.75,0.0047
2231.50,0.0049
2231.25,0.0049
2231.00,0.0048
2230.75,0.0046
2230.50,0.0046
2230.25,0.0048
2230.00,0.0049
2229.75,0.0048
2229.50,0.0044
2229.25,0.0039
2229.00,0.0035
2228.75,0.0033
2228.50,0.0032
2228.25,0.0033
2228.00,0.0033
2227.75,0.0035
2227.50,0.0037
2227.25,0.0040
2227.00,0.0042
2226.75,0.0044
2226.50,0.0044
2226.25,0.0042
2226.00,0.0040
2225.75,0.0038
2225.50,0.0037
2225.25,0.0038
2225.00,0.0040
2224.75,0.0044
2224.50,0.0048
2224.25,0.0051
2224.00,0.0054
2223.75,0.0055
2223.50,0.0055
2223.25,0.0053
2223.00,0.0050
2222.75,0.0047
2222.50,0.0045
2222.25,0.0044
2222.00,0.0044
2221.75,0.0043
2221.50,0.0041
2221.25,0.0037
2221.00,0.0034
2220.75,0.0032
2220.50,0.0033
2220.25,0.0035
2220.00,0.0038
2219.75,0.0040
2219.50,0.0042
2219.25,0.0043
2219.00,0.0043
2218.75,0.0041
2218.50,0.0036
2218.25,0.0032
2218.00,0.0029
2217.75,0.0029
2217.50,0.0032
2217.25,0.0036
2217.00,0.0039
2216.75,0.0042
2216.50,0.0044
2216.25,0.0043
2216.00,0.0041
2215.75,0.0039
2215.50,0.0037
2215.25,0.0037
2215.00,0.0039
2214.75,0.0040
2214.50,0.0041
2214.25,0.0040
2214.00,0.0037
2213.75,0.0033
2213.50,0.0030
2213.25,0.0030
2213.00,0.0031
2212.75,0.0033
2212.50,0.0035
2212.25,0.0037
2212.00,0.0039
2211.75,0.0042
2211.50,0.0044
2211.25,0.0047
2211.00,0.0048
2210.75,0.0047
2210.50,0.0045
2210.25,0.0042
2210.00,0.0038
2209.75,0.0035
2209.50,0.0034
2209.25,0.0035
2209.00,0.0037
2208.75,0.0039
2208.50,0.0040
2208.25,0.0038
2208.00,0.0036
2207.75,0.0035
2207.50,0.0037
2207.25,0.0040
2207.00,0.0043
2206.75,0.0046
2206.50,0.0046
2206.25,0.0044
2206.00,0.0041
2205.75,0.0038
2205.50,0.0035
2205.25,0.0035
2205.00,0.0038
2204.75,0.0042
2204.50,0.0046
2204.25,0.0047
2204.00,0.0045
2203.75,0.0039
2203.50,0.0033
2203.25,0.0030
2203.00,0.0031
2202.75,0.0035
2202.50,0.0039
2202.25,0.0042
2202.00,0.0043
2201.75,0.0041
2201.50,0.0039
2201.25,0.0036
2201.00,0.0034
2200.75,0.0033
2200.50,0.0032
2200.25,0.0033
2200.00,0.0035
2199.75,0.0038
2199.50,0.0041
2199.25,0.0046
2199.00,0.0050
2198.75,0.0054
2198.50,0.0054
2198.25,0.0052
2198.00,0.0047
2197.75,0.0044
2197.50,0.0042
2197.25,0.0041
2197.00,0.0040
2196.75,0.0040
2196.50,0.0039
2196.25,0.0037
2196.00,0.0034
2195.75,0.0033
2195.50,0.0033
2195.25,0.0035
2195.00,0.0038
2194.75,0.0039
2194.50,0.0038
2194.25,0.0035
2194.00,0.0030
2193.75,0.0025
2193.50,0.0022
2193.25,0.0020
2193.00,0.0018
2192.75,0.0017
2192.50,0.0015
2192.25,0.0017
2192.00,0.0022
2191.75,0.0031
2191.50,0.0040
2191.25,0.0044
2191.00,0.0044
2190.75,0.0042
2190.50,0.0039
2190.25,0.0037
2190.00,0.0037
2189.75,0.0039
2189.50,0.0042
2189.25,0.0045
2189.00,0.0046
2188.75,0.0047
2188.50,0.0046
2188.25,0.0046
2188.00,0.0046
2187.75,0.0047
2187.50,0.0047
2187.25,0.0047
2187.00,0.0045
2186.75,0.0042
2186.50,0.0039
2186.25,0.0035
2186.00,0.0031
2185.75,0.0028
2185.50,0.0025
2185.25,0.0024
2185.00,0.0024
2184.75,0.0026
2184.50,0.0029
2184.25,0.0034
2184.00,0.0040
2183.75,0.0044
2183.50,0.0046
2183.25,0.0043
2183.00,0.0037
2182.75,0.0033
2182.50,0.0032
2182.25,0.0033
2182.00,0.0035
2181.75,0.0035
2181.50,0.0033
2181.25,0.0030
2181.00,0.0028
2180.75,0.0027
2180.50,0.0027
2180.25,0.0029
2180.00,0.0031
2179.75,0.0033
2179.50,0.0035
2179.25,0.0037
2179.00,0.0038
2178.75,0.0038
2178.50,0.0035
2178.25,0.0034
2178.00,0.0034
2177.75,0.0037
2177.50,0.0042
2177.25,0.0048
2177.00,0.0052
2176.75,0.0053
2176.50,0.0052
2176.25,0.0049
2176.00,0.0043
2175.75,0.0037
2175.50,0.0032
2175.25,0.0030
2175.00,0.0029
2174.75,0.0031
2174.50,0.0032
2174.25,0.0033
2174.00,0.0034
2173.75,0.0035
2173.50,0.0034
2173.25,0.0032
2173.00,0.0030
2172.75,0.0028
2172.50,0.0029
2172.25,0.0032
2172.00,0.0035
2171.75,0.0035
2171.50,0.0033
2171.25,0.0029
2171.00,0.0026
2170.75,0.0024
2170.50,0.0022
2170.25,0.0021
2170.00,0.0018
2169.75,0.0017
2169.50,0.0019
2169.25,0.0025
2169.00,0.0032
2168.75,0.0037
2168.50,0.0039
2168.25,0.0038
2168.00,0.0036
2167.75,0.0035
2167.50,0.0036
2167.25,0.0038
2167.00,0.0040
2166.75,0.0041
2166.50,0.0040
2166.25,0.0037
2166.00,0.0033
2165.75,0.0028
2165.50,0.0024
2165.25,0.0023
2165.00,0.0026
2164.75,0.0031
2164.50,0.0038
2164.25,0.0044
2164.00,0.0048
2163.75,0.0049
2163.50,0.0046
2163.25,0.0041
2163.00,0.0035
2162.75,0.0031
2162.50,0.0031
2162.25,0.0035
2162.00,0.0039
2161.75,0.0042
2161.50,0.0041
2161.25,0.0038
2161.00,0.0032
2160.75,0.0026
2160.50,0.0022
2160.25,0.0021
2160.00,0.0024
2159.75,0.0029
2159.50,0.0035
2159.25,0.0040
2159.00,0.0041
2158.75,0.0039
2158.50,0.0036
2158.25,0.0033
2158.00,0.0030
2157.75,0.0027
2157.50,0.0025
2157.25,0.0024
2157.00,0.0026
2156.75,0.0030
2156.50,0.0034
2156.25,0.0036
2156.00,0.0036
2155.75,0.0035
2155.50,0.0035
2155.25,0.0035
2155.00,0.0035
2154.75,0.0033
2154.50,0.0030
2154.25,0.0029
2154.00,0.0031
2153.75,0.0036
2153.50,0.0040
2153.25,0.0043
2153.00,0.0042
2152.75,0.0039
2152.50,0.0035
2152.25,0.0033
2152.00,0.0030
2151.75,0.0028
2151.50,0.0028
2151.25,0.0030
2151.00,0.0034
2150.75,0.0039
2150.50,0.0042
2150.25,0.0041
2150.00,0.0038
2149.75,0.0034
2149.50,0.0032
2149.25,0.0033
2149.00,0.0036
2148.75,0.0039
2148.50,0.0041
2148.25,0.0041
2148.00,0.0041
2147.75,0.0040
2147.50,0.0038
2147.25,0.0035
2147.00,0.0031
2146.75,0.0027
2146.50,0.0025
2146.25,0.0025
2146.00,0.0028
2145.75,0.0032
2145.50,0.0038
2145.25,0.0042
2145.00,0.0044
2144.75,0.0043
2144.50,0.0040
2144.25,0.0037
2144.00,0.0034
2143.75,0.0034
2143.50,0.0035
2143.25,0.0038
2143.00,0.0042
2142.75,0.0044
2142.50,0.0043
2142.25,0.0040
2142.00,0.0036
2141.75,0.0032
2141.50,0.0030
2141.25,0.0029
2141.00,0.0029
2140.75,0.0029
2140.50,0.0029
2140.25,0.0030
2140.00,0.0030
2139.75,0.0032
2139.50,0.0035
2139.25,0.0037
2139.00,0.0039
2138.75,0.0040
2138.50,0.0040
2138.25,0.0041
2138.00,0.0043
2137.75,0.0046
2137.50,0.0049
2137.25,0.0049
2137.00,0.0048
2136.75,0.0047
2136.50,0.0045
2136.25,0.0044
2136.00,0.0041
2135.75,0.0038
2135.50,0.0036
2135.25,0.0034
2135.00,0.0034
2134.75,0.0036
2134.50,0.0038
2134.25,0.0040
2134.00,0.0043
2133.75,0.0045
2133.50,0.0045
2133.25,0.0044
2133.00,0.0043
2132.75,0.0042
2132.50,0.0041
2132.25,0.0041
2132.00,0.0041
2131.75,0.0041
2131.50,0.0040
2131.25,0.0038
2131.00,0.0036
2130.75,0.0033
2130.50,0.0032
2130.25,0.0031
2130.00,0.0031
2129.75,0.0030
2129.50,0.0031
2129.25,0.0034
2129.00,0.0038
2128.75,0.0042
2128.50,0.0044
2128.25,0.0042
2128.00,0.0038
2127.75,0.0036
2127.50,0.0035
2127.25,0.0037
2127.00,0.0040
2126.75,0.0043
2126.50,0.0044
2126.25,0.0044
2126.00,0.0042
2125.75,0.0038
2125.50,0.0036
2125.25,0.0035
2125.00,0.0037
2124.75,0.0040
2124.50,0.0042
2124.25,0.0044
2124.00,0.0043
2123.75,0.0043
2123.50,0.0042
2123.25,0.0044
2123.00,0.0047
2122.75,0.0050
2122.50,0.0053
2122.25,0.0055
2122.00,0.0055
2121.75,0.0053
2121.50,0.0051
2121.25,0.0050
2121.00,0.0050
2120.75,0.0049
2120.50,0.0048
2120.25,0.0046
2120.00,0.0043
2119.75,0.0040
2119.50,0.0040
2119.25,0.0042
2119.00,0.0045
2118.75,0.0047
2118.50,0.0047
2118.25,0.0046
2118.00,0.0044
2117.75,0.0041
2117.50,0.0039
2117.25,0.0037
2117.00,0.0035
2116.75,0.0035
2116.50,0.0036
2116.25,0.0038
2116.00,0.0039
2115.75,0.0040
2115.50,0.0039
2115.25,0.0039
2115.00,0.0039
2114.75,0.0042
2114.50,0.0045
2114.25,0.0049
2114.00,0.0050
2113.75,0.0050
2113.50,0.0047
2113.25,0.0045
2113.00,0.0041
2112.75,0.0036
2112.50,0.0032
2112.25,0.0029
2112.00,0.0029
2111.75,0.0031
2111.50,0.0035
2111.25,0.0037
2111.00,0.0038
2110.75,0.0036
2110.50,0.0035
2110.25,0.0034
2110.00,0.0035
2109.75,0.0037
2109.50,0.0039
2109.25,0.0040
2109.00,0.0039
2108.75,0.0038
2108.50,0.0038
2108.25,0.0040
2108.00,0.0043
2107.75,0.0045
2107.50,0.0045
2107.25,0.0044
2107.00,0.0043
2106.75,0.0041
2106.50,0.0040
2106.25,0.0041
2106.00,0.0044
2105.75,0.0047
2105.50,0.0049
2105.25,0.0050
2105.00,0.0051
2104.75,0.0052
2104.50,0.0052
2104.25,0.0050
2104.00,0.0046
2103.75,0.0041
2103.50,0.0039
2103.25,0.0038
2103.00,0.0039
2102.75,0.0041
2102.50,0.0044
2102.25,0.0045
2102.00,0.0045
2101.75,0.0045
2101.50,0.0045
2101.25,0.0047
2101.00,0.0047
2100.75,0.0047
2100.50,0.0045
2100.25,0.0043
2100.00,0.0042
2099.75,0.0042
2099.50,0.0042
2099.25,0.0042
2099.00,0.0041
2098.75,0.0042
2098.50,0.0042
2098.25,0.0042
2098.00,0.0041
2097.75,0.0040
2097.50,0.0040
2097.25,0.0042
2097.00,0.0045
2096.75,0.0046
2096.50,0.0045
2096.25,0.0042
2096.00,0.0038
2095.75,0.0036
2095.50,0.0035
2095.25,0.0037
2095.00,0.0038
2094.75,0.0040
2094.50,0.0040
2094.25,0.0041
2094.00,0.0043
2093.75,0.0045
2093.50,0.0048
2093.25,0.0050
2093.00,0.0049
2092.75,0.0046
2092.50,0.0042
2092.25,0.0040
2092.00,0.0040
2091.75,0.0042
2091.50,0.0044
2091.25,0.0046
2091.00,0.0047
2090.75,0.0048
2090.50,0.0049
2090.25,0.0049
2090.00,0.0048
2089.75,0.0048
2089.50,0.0048
2089.25,0.0048
2089.00,0.0047
2088.75,0.0046
2088.50,0.0045
2088.25,0.0044
2088.00,0.0043
2087.75,0.0041
2087.50,0.0038
2087.25,0.0037
2087.00,0.0039
2086.75,0.0043
2086.50,0.0046
2086.25,0.0046
2086.00,0.0045
2085.75,0.0044
2085.50,0.0043
2085.25,0.0044
2085.00,0.0045
2084.75,0.0044
2084.50,0.0042
2084.25,0.0040
2084.00,0.0038
2083.75,0.0036
2083.50,0.0035
2083.25,0.0034
2083.00,0.0034
2082.75,0.0035
2082.50,0.0037
2082.25,0.0040
2082.00,0.0045
2081.75,0.0050
2081.50,0.0054
2081.25,0.0055
2081.00,0.0054
2080.75,0.0051
2080.50,0.0050
2080.25,0.0050
2080.00,0.0050
2079.75,0.0049
2079.50,0.0046
2079.25,0.0042
2079.00,0.0040
2078.75,0.0040
2078.50,0.0041
2078.25,0.0043
2078.00,0.0045
2077.75,0.0046
2077.50,0.0047
2077.25,0.0048
2077.00,0.0047
2076.75,0.0045
2076.50,0.0041
2076.25,0.0036
2076.00,0.0032
2075.75,0.0030
2075.50,0.0029
2075.25,0.0029
2075.00,0.0029
2074.75,0.0030
2074.50,0.0032
2074.25,0.0034
2074.00,0.0037
2073.75,0.0040
2073.50,0.0043
2073.25,0.0044
2073.00,0.0046
2072.75,0.0047
2072.50,0.0047
2072.25,0.0048
2072.00,0.0046
2071.75,0.0045
2071.50,0.0044
2071.25,0.0044
2071.00,0.0045
2070.75,0.0044
2070.50,0.0042
2070.25,0.0039
2070.00,0.0035
2069.75,0.0033
2069.50,0.0032
2069.25,0.0033
2069.00,0.0036
2068.75,0.0039
2068.50,0.0042
2068.25,0.0043
2068.00,0.0043
2067.75,0.0043
2067.50,0.0043
2067.25,0.0044
2067.00,0.0045
2066.75,0.0046
2066.50,0.0046
2066.25,0.0046
2066.00,0.0044
2065.75,0.0043
2065.50,0.0042
2065.25,0.0042
2065.00,0.0043
2064.75,0.0042
2064.50,0.0041
2064.25,0.0041
2064.00,0.0040
2063.75,0.0040
2063.50,0.0039
2063.25,0.0037
2063.00,0.0036
2062.75,0.0037
2062.50,0.0039
2062.25,0.0041
2062.00,0.0043
2061.75,0.0043
2061.50,0.0042
2061.25,0.0040
2061.00,0.0038
2060.75,0.0037
2060.50,0.0037
2060.25,0.0037
2060.00,0.0038
2059.75,0.0038
2059.50,0.0037
2059.25,0.0036
2059.00,0.0036
2058.75,0.0036
2058.50,0.0037
2058.25,0.0039
2058.00,0.0041
2057.75,0.0043
2057.50,0.0042
2057.25,0.0041
2057.00,0.0038
2056.75,0.0037
2056.50,0.0036
2056.25,0.0037
2056.00,0.0038
2055.75,0.0040
2055.50,0.0040
2055.25,0.0040
2055.00,0.0040
2054.75,0.0040
2054.50,0.0041
2054.25,0.0042
2054.00,0.0041
2053.75,0.0037
2053.50,0.0033
2053.25,0.0031
2053.00,0.0032
2052.75,0.0034
2052.50,0.0036
2052.25,0.0037
2052.00,0.0037
2051.75,0.0038
2051.50,0.0039
2051.25,0.0041
2051.00,0.0042
2050.75,0.0042
2050.50,0.0043
2050.25,0.0043
2050.00,0.0043
2049.75,0.0041
2049.50,0.0036
2049.25,0.0031
2049.00,0.0028
2048.75,0.0027
2048.50,0.0030
2048.25,0.0035
2048.00,0.0040
2047.75,0.0045
2047.50,0.0046
2047.25,0.0045
2047.00,0.0041
2046.75,0.0039
2046.50,0.0039
2046.25,0.0041
2046.00,0.0043
2045.75,0.0044
2045.50,0.0042
2045.25,0.0041
2045.00,0.0039
2044.75,0.0039
2044.50,0.0040
2044.25,0.0041
2044.00,0.0042
2043.75,0.0041
2043.50,0.0040
2043.25,0.0037
2043.00,0.0033
2042.75,0.0029
2042.50,0.0027
2042.25,0.0027
2042.00,0.0029
2041.75,0.0032
2041.50,0.0035
2041.25,0.0038
2041.00,0.0038
2040.75,0.0035
2040.50,0.0029
2040.25,0.0025
2040.00,0.0024
2039.75,0.0027
2039.50,0.0032
2039.25,0.0035
2039.00,0.0034
2038.75,0.0032
2038.50,0.0031
2038.25,0.0032
2038.00,0.0035
2037.75,0.0038
2037.50,0.0041
2037.25,0.0044
2037.00,0.0045
2036.75,0.0046
2036.50,0.0047
2036.25,0.0046
2036.00,0.0043
2035.75,0.0040
2035.50,0.0039
2035.25,0.0039
2035.00,0.0039
2034.75,0.0038
2034.50,0.0034
2034.25,0.0032
2034.00,0.0031
2033.75,0.0034
2033.50,0.0037
2033.25,0.0041
2033.00,0.0043
2032.75,0.0044
2032.50,0.0045
2032.25,0.0045
2032.00,0.0042
2031.75,0.0036
2031.50,0.0028
2031.25,0.0023
2031.00,0.0021
2030.75,0.0022
2030.50,0.0024
2030.25,0.0026
2030.00,0.0028
2029.75,0.0030
2029.50,0.0031
2029.25,0.0031
2029.00,0.0030
2028.75,0.0030
2028.50,0.0030
2028.25,0.0030
2028.00,0.0032
2027.75,0.0035
2027.50,0.0039
2027.25,0.0046
2027.00,0.0051
2026.75,0.0053
2026.50,0.0052
2026.25,0.0047
2026.00,0.0043
2025.75,0.0039
2025.50,0.0035
2025.25,0.0031
2025.00,0.0028
2024.75,0.0028
2024.50,0.0031
2024.25,0.0035
2024.00,0.0039
2023.75,0.0039
2023.50,0.0037
2023.25,0.0033
2023.00,0.0028
2022.75,0.0022
2022.50,0.0016
2022.25,0.0012
2022.00,0.0011
2021.75,0.0014
2021.50,0.0018
2021.25,0.0021
2021.00,0.0022
2020.75,0.0023
2020.50,0.0025
2020.25,0.0029
2020.00,0.0034
2019.75,0.0039
2019.50,0.0043
2019.25,0.0045
2019.00,0.0045
2018.75,0.0043
2018.50,0.0038
2018.25,0.0033
2018.00,0.0029
2017.75,0.0028
2017.50,0.0031
2017.25,0.0034
2017.00,0.0036
2016.75,0.0035
2016.50,0.0033
2016.25,0.0030
2016.00,0.0027
2015.75,0.0026
2015.50,0.0027
2015.25,0.0029
2015.00,0.0032
2014.75,0.0033
2014.50,0.0033
2014.25,0.0032
2014.00,0.0031
2013.75,0.0032
2013.50,0.0033
2013.25,0.0035
2013.00,0.0038
2012.75,0.0042
2012.50,0.0046
2012.25,0.0049
2012.00,0.0048
2011.75,0.0045
2011.50,0.0041
2011.25,0.0037
2011.00,0.0035
2010.75,0.0034
2010.50,0.0034
2010.25,0.0034
2010.00,0.0034
2009.75,0.0034
2009.50,0.0035
2009.25,0.0036
2009.00,0.0037
2008.75,0.0038
2008.50,0.0038
2008.25,0.0039
2008.00,0.0040
2007.75,0.0042
2007.50,0.0041
2007.25,0.0038
2007.00,0.0032
2006.75,0.0029
2006.50,0.0028
2006.25,0.0031
2006.00,0.0035
2005.75,0.0038
2005.50,0.0039
2005.25,0.0038
2005.00,0.0038
2004.75,0.0037
2004.50,0.0037
2004.25,0.0037
2004.00,0.0038
2003.75,0.0037
2003.50,0.0036
2003.25,0.0036
2003.00,0.0035
2002.75,0.0033
2002.50,0.0030
2002.25,0.0025
2002.00,0.0019
2001.75,0.0016
2001.50,0.0017
2001.25,0.0021
2001.00,0.0027
2000.75,0.0032
2000.50,0.0034
2000.25,0.0034
2000.00,0.0031
1999.75,0.0029
1999.50,0.0030
1999.25,0.0036
1999.00,0.0043
1998.75,0.0050
1998.50,0.0053
1998.25,0.0050
1998.00,0.0043
1997.75,0.0034
1997.50,0.0025
1997.25,0.0020
1997.00,0.0019
1996.75,0.0021
1996.50,0.0024
1996.25,0.0027
1996.00,0.0030
1995.75,0.0033
1995.50,0.0034
1995.25,0.0034
1995.00,0.0035
1994.75,0.0039
1994.50,0.0043
1994.25,0.0047
1994.00,0.0046
1993.75,0.0042
1993.50,0.0037
1993.25,0.0034
1993.00,0.0033
1992.75,0.0032
1992.50,0.0030
1992.25,0.0027
1992.00,0.0026
1991.75,0.0027
1991.50,0.0030
1991.25,0.0036
1991.00,0.0041
1990.75,0.0045
1990.50,0.0046
1990.25,0.0045
1990.00,0.0043
1989.75,0.0040
1989.50,0.0037
1989.25,0.0034
1989.00,0.0032
1988.75,0.0031
1988.50,0.0031
1988.25,0.0029
1988.00,0.0027
1987.75,0.0026
1987.50,0.0028
1987.25,0.0033
1987.00,0.0039
1986.75,0.0046
1986.50,0.0050
1986.25,0.0052
1986.00,0.0050
1985.75,0.0048
1985.50,0.0044
1985.25,0.0042
1985.00,0.0041
1984.75,0.0040
1984.50,0.0039
1984.25,0.0038
1984.00,0.0037
1983.75,0.0037
1983.50,0.0036
1983.25,0.0035
1983.00,0.0033
1982.75,0.0031
1982.50,0.0030
1982.25,0.0028
1982.00,0.0028
1981.75,0.0027
1981.50,0.0027
1981.25,0.0028
1981.00,0.0029
1980.75,0.0029
1980.50,0.0030
1980.25,0.0029
1980.00,0.0029
1979.75,0.0030
1979.50,0.0032
1979.25,0.0035
1979.00,0.0037
1978.75,0.0037
1978.50,0.0036
1978.25,0.0033
1978.00,0.0030
1977.75,0.0028
1977.50,0.0026
1977.25,0.0025
1977.00,0.0026
1976.75,0.0030
1976.50,0.0035
1976.25,0.0040
1976.00,0.0042
1975.75,0.0040
1975.50,0.0036
1975.25,0.0033
1975.00,0.0034
1974.75,0.0038
1974.50,0.0042
1974.25,0.0044
1974.00,0.0043
1973.75,0.0038
1973.50,0.0032
1973.25,0.0028
1973.00,0.0027
1972.75,0.0027
1972.50,0.0027
1972.25,0.0027
1972.00,0.0026
1971.75,0.0027
1971.50,0.0029
1971.25,0.0035
1971.00,0.0041
1970.75,0.0045
1970.50,0.0046
1970.25,0.0045
1970.00,0.0043
1969.75,0.0041
1969.50,0.0041
1969.25,0.0040
1969.00,0.0039
1968.75,0.0040
1968.50,0.0044
1968.25,0.0049
1968.00,0.0053
1967.75,0.0055
1967.50,0.0054
1967.25,0.0052
1967.00,0.0050
1966.75,0.0049
1966.50,0.0048
1966.25,0.0045
1966.00,0.0042
1965.75,0.0038
1965.50,0.0036
1965.25,0.0035
1965.00,0.0035
1964.75,0.0035
1964.50,0.0033
1964.25,0.0032
1964.00,0.0032
1963.75,0.0033
1963.50,0.0037
1963.25,0.0040
1963.00,0.0043
1962.75,0.0046
1962.50,0.0050
1962.25,0.0052
1962.00,0.0051
1961.75,0.0046
1961.50,0.0038
1961.25,0.0032
1961.00,0.0031
1960.75,0.0033
1960.50,0.0037
1960.25,0.0042
1960.00,0.0044
1959.75,0.0044
1959.50,0.0043
1959.25,0.0042
1959.00,0.0043
1958.75,0.0045
1958.50,0.0047
1958.25,0.0048
1958.00,0.0046
1957.75,0.0042
1957.50,0.0037
1957.25,0.0035
1957.00,0.0037
1956.75,0.0041
1956.50,0.0046
1956.25,0.0050
1956.00,0.0052
1955.75,0.0053
1955.50,0.0051
1955.25,0.0049
1955.00,0.0046
1954.75,0.0043
1954.50,0.0040
1954.25,0.0037
1954.00,0.0035
1953.75,0.0033
1953.50,0.0033
1953.25,0.0033
1953.00,0.0035
1952.75,0.0036
1952.50,0.0037
1952.25,0.0036
1952.00,0.0036
1951.75,0.0036
1951.50,0.0038
1951.25,0.0040
1951.00,0.0042
1950.75,0.0042
1950.50,0.0041
1950.25,0.0039
1950.00,0.0037
1949.75,0.0037
1949.50,0.0037
1949.25,0.0036
1949.00,0.0035
1948.75,0.0034
1948.50,0.0034
1948.25,0.0035
1948.00,0.0036
1947.75,0.0037
1947.50,0.0039
1947.25,0.0040
1947.00,0.0042
1946.75,0.0044
1946.50,0.0047
1946.25,0.0049
1946.00,0.0051
1945.75,0.0052
1945.50,0.0053
1945.25,0.0053
1945.00,0.0050
1944.75,0.0046
1944.50,0.0040
1944.25,0.0035
1944.00,0.0032
1943.75,0.0032
1943.50,0.0035
1943.25,0.0037
1943.00,0.0040
1942.75,0.0041
1942.50,0.0040
1942.25,0.0039
1942.00,0.0040
1941.75,0.0043
1941.50,0.0045
1941.25,0.0045
1941.00,0.0044
1940.75,0.0043
1940.50,0.0042
1940.25,0.0041
1940.00,0.0040
1939.75,0.0039
1939.50,0.0039
1939.25,0.0040
1939.00,0.0042
1938.75,0.0043
1938.50,0.0043
1938.25,0.0044
1938.00,0.0045
1937.75,0.0046
1937.50,0.0048
1937.25,0.0048
1937.00,0.0048
1936.75,0.0046
1936.50,0.0045
1936.25,0.0043
1936.00,0.0041
1935.75,0.0039
1935.50,0.0038
1935.25,0.0036
1935.00,0.0036
1934.75,0.0037
1934.50,0.0039
1934.25,0.0042
1934.00,0.0044
1933.75,0.0045
1933.50,0.0044
1933.25,0.0042
1933.00,0.0041
1932.75,0.0041
1932.50,0.0042
1932.25,0.0045
1932.00,0.0047
1931.75,0.0048
1931.50,0.0047
1931.25,0.0046
1931.00,0.0045
1930.75,0.0045
1930.50,0.0045
1930.25,0.0045
1930.00,0.0044
1929.75,0.0043
1929.50,0.0043
1929.25,0.0044
1929.00,0.0044
1928.75,0.0045
1928.50,0.0045
1928.25,0.0044
1928.00,0.0044
1927.75,0.0045
1927.50,0.0047
1927.25,0.0050
1927.00,0.0051
1926.75,0.0052
1926.50,0.0050
1926.25,0.0046
1926.00,0.0042
1925.75,0.0037
1925.50,0.0034
1925.25,0.0034
1925.00,0.0035
1924.75,0.0039
1924.50,0.0044
1924.25,0.0048
1924.00,0.0050
1923.75,0.0051
1923.50,0.0050
1923.25,0.0048
1923.00,0.0047
1922.75,0.0046
1922.50,0.0046
1922.25,0.0047
1922.00,0.0046
1921.75,0.0045
1921.50,0.0044
1921.25,0.0043
1921.00,0.0043
1920.75,0.0045
1920.50,0.0047
1920.25,0.0048
1920.00,0.0050
1919.75,0.0050
1919.50,0.0050
1919.25,0.0049
1919.00,0.0049
1918.75,0.0047
1918.50,0.0045
1918.25,0.0043
1918.00,0.0042
1917.75,0.0042
1917.50,0.0042
1917.25,0.0043
1917.00,0.0043
1916.75,0.0043
1916.50,0.0044
1916.25,0.0044
1916.00,0.0043
1915.75,0.0042
1915.50,0.0042
1915.25,0.0042
1915.00,0.0043
1914.75,0.0043
1914.50,0.0043
1914.25,0.0042
1914.00,0.0043
1913.75,0.0044
1913.50,0.0046
1913.25,0.0048
1913.00,0.0050
1912.75,0.0051
1912.50,0.0051
1912.25,0.0051
1912.00,0.0051
1911.75,0.0050
1911.50,0.0048
1911.25,0.0046
1911.00,0.0044
1910.75,0.0043
1910.50,0.0042
1910.25,0.0042
1910.00,0.0043
1909.75,0.0043
1909.50,0.0045
1909.25,0.0047
1909.00,0.0048
1908.75,0.0050
1908.50,0.0051
1908.25,0.0051
1908.00,0.0050
1907.75,0.0048
1907.50,0.0046
1907.25,0.0045
1907.00,0.0045
1906.75,0.0045
1906.50,0.0046
1906.25,0.0046
1906.00,0.0047
1905.75,0.0048
1905.50,0.0050
1905.25,0.0051
1905.00,0.0051
1904.75,0.0050
1904.50,0.0049
1904.25,0.0047
1904.00,0.0047
1903.75,0.0047
1903.50,0.0048
1903.25,0.0049
1903.00,0.0050
1902.75,0.0051
1902.50,0.0051
1902.25,0.0049
1902.00,0.0047
1901.75,0.0046
1901.50,0.0046
1901.25,0.0047
1901.00,0.0049
1900.75,0.0052
1900.50,0.0055
1900.25,0.0058
1900.00,0.0059
1899.75,0.0058
1899.50,0.0055
1899.25,0.0051
1899.00,0.0047
1898.75,0.0045
1898.50,0.0044
1898.25,0.0044
1898.00,0.0045
1897.75,0.0046
1897.50,0.0046
1897.25,0.0046
1897.00,0.0046
1896.75,0.0046
1896.50,0.0047
1896.25,0.0048
1896.00,0.0050
1895.75,0.0052
1895.50,0.0052
1895.25,0.0051
1895.00,0.0048
1894.75,0.0045
1894.50,0.0044
1894.25,0.0045
1894.00,0.0048
1893.75,0.0051
1893.50,0.0053
1893.25,0.0054
1893.00,0.0053
1892.75,0.0052
1892.50,0.0051
1892.25,0.0050
1892.00,0.0050
1891.75,0.0050
1891.50,0.0052
1891.25,0.0053
1891.00,0.0055
1890.75,0.0055
1890.50,0.0055
1890.25,0.0054
1890.00,0.0052
1889.75,0.0048
1889.50,0.0044
1889.25,0.0040
1889.00,0.0039
1888.75,0.0041
1888.50,0.0044
1888.25,0.0046
1888.00,0.0047
1887.75,0.0047
1887.50,0.0046
1887.25,0.0046
1887.00,0.0046
1886.75,0.0046
1886.50,0.0047
1886.25,0.0049
1886.00,0.0051
1885.75,0.0052
1885.50,0.0050
1885.25,0.0048
1885.00,0.0046
1884.75,0.0044
1884.50,0.0044
1884.25,0.0044
1884.00,0.0046
1883.75,0.0048
1883.50,0.0050
1883.25,0.0051
1883.00,0.0050
1882.75,0.0048
1882.50,0.0047
1882.25,0.0046
1882.00,0.0046
1881.75,0.0047
1881.50,0.0049
1881.25,0.0050
1881.00,0.0050
1880.75,0.0050
1880.50,0.0049
1880.25,0.0049
1880.00,0.0050
1879.75,0.0051
1879.50,0.0052
1879.25,0.0053
1879.00,0.0054
1878.75,0.0054
1878.50,0.0054
1878.25,0.0054
1878.00,0.0054
1877.75,0.0053
1877.50,0.0052
1877.25,0.0048
1877.00,0.0044
1876.75,0.0042
1876.50,0.0042
1876.25,0.0044
1876.00,0.0046
1875.75,0.0047
1875.50,0.0047
1875.25,0.0047
1875.00,0.0047
1874.75,0.0047
1874.50,0.0048
1874.25,0.0048
1874.00,0.0049
1873.75,0.0050
1873.50,0.0050
1873.25,0.0050
1873.00,0.0050
1872.75,0.0049
1872.50,0.0048
1872.25,0.0046
1872.00,0.0044
1871.75,0.0042
1871.50,0.0040
1871.25,0.0039
1871.00,0.0041
1870.75,0.0044
1870.50,0.0048
1870.25,0.0051
1870.00,0.0053
1869.75,0.0053
1869.50,0.0051
1869.25,0.0050
1869.00,0.0049
1868.75,0.0048
1868.50,0.0047
1868.25,0.0047
1868.00,0.0047
1867.75,0.0047
1867.50,0.0047
1867.25,0.0047
1867.00,0.0047
1866.75,0.0048
1866.50,0.0049
1866.25,0.0050
1866.00,0.0050
1865.75,0.0050
1865.50,0.0049
1865.25,0.0049
1865.00,0.0049
1864.75,0.0048
1864.50,0.0048
1864.25,0.0049
1864.00,0.0049
1863.75,0.0050
1863.50,0.0051
1863.25,0.0053
1863.00,0.0054
1862.75,0.0055
1862.50,0.0054
1862.25,0.0052
1862.00,0.0050
1861.75,0.0049
1861.50,0.0049
1861.25,0.0049
1861.00,0.0051
1860.75,0.0053
1860.50,0.0054
1860.25,0.0054
1860.00,0.0053
1859.75,0.0052
1859.50,0.0053
1859.25,0.0054
1859.00,0.0055
1858.75,0.0055
1858.50,0.0053
1858.25,0.0049
1858.00,0.0044
1857.75,0.0042
1857.50,0.0041
1857.25,0.0042
1857.00,0.0044
1856.75,0.0047
1856.50,0.0049
1856.25,0.0050
1856.00,0.0050
1855.75,0.0050
1855.50,0.0051
1855.25,0.0052
1855.00,0.0052
1854.75,0.0052
1854.50,0.0052
1854.25,0.0052
1854.00,0.0053
1853.75,0.0053
1853.50,0.0052
1853.25,0.0051
1853.00,0.0050
1852.75,0.0049
1852.50,0.0049
1852.25,0.0048
1852.00,0.0047
1851.75,0.0047
1851.50,0.0047
1851.25,0.0047
1851.00,0.0048
1850.75,0.0050
1850.50,0.0051
1850.25,0.0052
1850.00,0.0053
1849.75,0.0053
1849.50,0.0053
1849.25,0.0053
1849.00,0.0052
1848.75,0.0051
1848.50,0.0051
1848.25,0.0050
1848.00,0.0049
1847.75,0.0048
1847.50,0.0046
1847.25,0.0044
1847.00,0.0044
1846.75,0.0044
1846.50,0.0046
1846.25,0.0049
1846.00,0.0053
1845.75,0.0056
1845.50,0.0057
1845.25,0.0057
1845.00,0.0056
1844.75,0.0056
1844.50,0.0056
1844.25,0.0057
1844.00,0.0058
1843.75,0.0057
1843.50,0.0056
1843.25,0.0055
1843.00,0.0054
1842.75,0.0052
1842.50,0.0051
1842.25,0.0049
1842.00,0.0048
1841.75,0.0048
1841.50,0.0049
1841.25,0.0049
1841.00,0.0049
1840.75,0.0049
1840.50,0.0050
1840.25,0.0051
1840.00,0.0052
1839.75,0.0053
1839.50,0.0054
1839.25,0.0053
1839.00,0.0051
1838.75,0.0050
1838.50,0.0049
1838.25,0.0049
1838.00,0.0051
1837.75,0.0052
1837.50,0.0052
1837.25,0.0052
1837.00,0.0051
1836.75,0.0051
1836.50,0.0051
1836.25,0.0052
1836.00,0.0052
1835.75,0.0052
1835.50,0.0052
1835.25,0.0051
1835.00,0.0050
1834.75,0.0050
1834.50,0.0049
1834.25,0.0048
1834.00,0.0047
1833.75,0.0048
1833.50,0.0051
1833.25,0.0054
1833.00,0.0056
1832.75,0.0057
1832.50,0.0056
1832.25,0.0055
1832.00,0.0053
1831.75,0.0052
1831.50,0.0052
1831.25,0.0052
1831.00,0.0051
1830.75,0.0051
1830.50,0.0050
1830.25,0.0051
1830.00,0.0053
1829.75,0.0057
1829.50,0.0061
1829.25,0.0062
1829.00,0.0061
1828.75,0.0059
1828.50,0.0057
1828.25,0.0057
1828.00,0.0056
1827.75,0.0056
1827.50,0.0055
1827.25,0.0055
1827.00,0.0054
1826.75,0.0054
1826.50,0.0053
1826.25,0.0053
1826.00,0.0053
1825.75,0.0052
1825.50,0.0052
1825.25,0.0050
1825.00,0.0049
1824.75,0.0049
1824.50,0.0050
1824.25,0.0053
1824.00,0.0055
1823.75,0.0056
1823.50,0.0056
1823.25,0.0056
1823.00,0.0056
1822.75,0.0056
1822.50,0.0057
1822.25,0.0058
1822.00,0.0059
1821.75,0.0059
1821.50,0.0058
1821.25,0.0057
1821.00,0.0056
1820.75,0.0055
1820.50,0.0053
1820.25,0.0052
1820.00,0.0051
1819.75,0.0050
1819.50,0.0049
1819.25,0.0050
1819.00,0.0050
1818.75,0.0051
1818.50,0.0052
1818.25,0.0051
1818.00,0.0050
1817.75,0.0049
1817.50,0.0048
1817.25,0.0048
1817.00,0.0050
1816.75,0.0052
1816.50,0.0053
1816.25,0.0054
1816.00,0.0055
1815.75,0.0055
1815.50,0.0055
1815.25,0.0056
1815.00,0.0057
1814.75,0.0058
1814.50,0.0058
1814.25,0.0057
1814.00,0.0056
1813.75,0.0055
1813.50,0.0055
1813.25,0.0055
1813.00,0.0055
1812.75,0.0055
1812.50,0.0055
1812.25,0.0055
1812.00,0.0057
1811.75,0.0058
1811.50,0.0058
1811.25,0.0058
1811.00,0.0058
1810.75,0.0058
1810.50,0.0058
1810.25,0.0057
1810.00,0.0057
1809.75,0.0056
1809.50,0.0056
1809.25,0.0056
1809.00,0.0057
1808.75,0.0057
1808.50,0.0056
1808.25,0.0055
1808.00,0.0054
1807.75,0.0053
1807.50,0.0053
1807.25,0.0052
1807.00,0.0051
1806.75,0.0051
1806.50,0.0052
1806.25,0.0053
1806.00,0.0054
1805.75,0.0055
1805.50,0.0056
1805.25,0.0057
1805.00,0.0057
1804.75,0.0057
1804.50,0.0055
1804.25,0.0054
1804.00,0.0053
1803.75,0.0053
1803.50,0.0054
1803.25,0.0054
1803.00,0.0054
1802.75,0.0054
1802.50,0.0054
1802.25,0.0055
1802.00,0.0055
1801.75,0.0055
1801.50,0.0055
1801.25,0.0055
1801.00,0.0055
1800.75,0.0055
1800.50,0.0055
1800.25,0.0055
1800.00,0.0055
1799.75,0.0055
1799.50,0.0054
1799.25,0.0052
1799.00,0.0052
1798.75,0.0051
1798.50,0.0052
1798.25,0.0052
1798.00,0.0054
1797.75,0.0054
1797.50,0.0055
1797.25,0.0055
1797.00,0.0055
1796.75,0.0056
1796.50,0.0057
1796.25,0.0058
1796.00,0.0058
1795.75,0.0058
1795.50,0.0058
1795.25,0.0058
1795.00,0.0057
1794.75,0.0056
1794.50,0.0055
1794.25,0.0054
1794.00,0.0053
1793.75,0.0052
1793.50,0.0052
1793.25,0.0051
1793.00,0.0052
1792.75,0.0054
1792.50,0.0058
1792.25,0.0061
1792.00,0.0062
1791.75,0.0061
1791.50,0.0059
1791.25,0.0057
1791.00,0.0055
1790.75,0.0053
1790.50,0.0054
1790.25,0.0055
1790.00,0.0056
1789.75,0.0057
1789.50,0.0058
1789.25,0.0059
1789.00,0.0059
1788.75,0.0058
1788.50,0.0058
1788.25,0.0057
1788.00,0.0057
1787.75,0.0056
1787.50,0.0056
1787.25,0.0056
1787.00,0.0055
1786.75,0.0055
1786.50,0.0055
1786.25,0.0055
1786.00,0.0056
1785.75,0.0056
1785.50,0.0055
1785.25,0.0055
1785.00,0.0054
1784.75,0.0054
1784.50,0.0054
1784.25,0.0055
1784.00,0.0056
1783.75,0.0057
1783.50,0.0058
1783.25,0.0058
1783.00,0.0057
1782.75,0.0058
1782.50,0.0059
1782.25,0.0060
1782.00,0.0061
1781.75,0.0061
1781.50,0.0061
1781.25,0.0061
1781.00,0.0062
1780.75,0.0062
1780.50,0.0062
1780.25,0.0060
1780.00,0.0058
1779.75,0.0057
1779.50,0.0056
1779.25,0.0057
1779.00,0.0058
1778.75,0.0060
1778.50,0.0061
1778.25,0.0061
1778.00,0.0060
1777.75,0.0059
1777.50,0.0057
1777.25,0.0056
1777.00,0.0055
1776.75,0.0055
1776.50,0.0055
1776.25,0.0055
1776.00,0.0056
1775.75,0.0057
1775.50,0.0057
1775.25,0.0056
1775.00,0.0055
1774.75,0.0054
1774.50,0.0055
1774.25,0.0056
1774.00,0.0057
1773.75,0.0059
1773.50,0.0060
1773.25,0.0062
1773.00,0.0063
1772.75,0.0064
1772.50,0.0064
1772.25,0.0062
1772.00,0.0061
1771.75,0.0060
1771.50,0.0061
1771.25,0.0062
1771.00,0.0063
1770.75,0.0063
1770.50,0.0062
1770.25,0.0060
1770.00,0.0059
1769.75,0.0058
1769.50,0.0058
1769.25,0.0058
1769.00,0.0057
1768.75,0.0056
1768.50,0.0055
1768.25,0.0053
1768.00,0.0051
1767.75,0.0051
1767.50,0.0052
1767.25,0.0053
1767.00,0.0054
1766.75,0.0055
1766.50,0.0056
1766.25,0.0057
1766.00,0.0058
1765.75,0.0059
1765.50,0.0059
1765.25,0.0059
1765.00,0.0059
1764.75,0.0060
1764.50,0.0060
1764.25,0.0060
1764.00,0.0059
1763.75,0.0058
1763.50,0.0058
1763.25,0.0058
1763.00,0.0057
1762.75,0.0056
1762.50,0.0055
1762.25,0.0052
1762.00,0.0050
1761.75,0.0050
1761.50,0.0052
1761.25,0.0055
1761.00,0.0057
1760.75,0.0057
1760.50,0.0058
1760.25,0.0058
1760.00,0.0058
1759.75,0.0059
1759.50,0.0060
1759.25,0.0061
1759.00,0.0061
1758.75,0.0060
1758.50,0.0059
1758.25,0.0059
1758.00,0.0059
1757.75,0.0060
1757.50,0.0061
1757.25,0.0062
1757.00,0.0062
1756.75,0.0060
1756.50,0.0058
1756.25,0.0055
1756.00,0.0054
1755.75,0.0054
1755.50,0.0055
1755.25,0.0056
1755.00,0.0058
1754.75,0.0058
1754.50,0.0059
1754.25,0.0058
1754.00,0.0058
1753.75,0.0058
1753.50,0.0058
1753.25,0.0058
1753.00,0.0057
1752.75,0.0057
1752.50,0.0057
1752.25,0.0058
1752.00,0.0058
1751.75,0.0059
1751.50,0.0060
1751.25,0.0060
1751.00,0.0058
1750.75,0.0055
1750.50,0.0055
1750.25,0.0056
1750.00,0.0058
1749.75,0.0059
1749.50,0.0061
1749.25,0.0062
1749.00,0.0063
1748.75,0.0063
1748.50,0.0062
1748.25,0.0061
1748.00,0.0061
1747.75,0.0062
1747.50,0.0065
1747.25,0.0067
1747.00,0.0068
1746.75,0.0067
1746.50,0.0065
1746.25,0.0064
1746.00,0.0062
1745.75,0.0062
1745.50,0.0061
1745.25,0.0061
1745.00,0.0061
1744.75,0.0061
1744.50,0.0061
1744.25,0.0060
1744.00,0.0060
1743.75,0.0061
1743.50,0.0061
1743.25,0.0060
1743.00,0.0058
1742.75,0.0056
1742.50,0.0055
1742.25,0.0055
1742.00,0.0056
1741.75,0.0058
1741.50,0.0060
1741.25,0.0061
1741.00,0.0063
1740.75,0.0064
1740.50,0.0065
1740.25,0.0065
1740.00,0.0065
1739.75,0.0064
1739.50,0.0062
1739.25,0.0061
1739.00,0.0060
1738.75,0.0060
1738.50,0.0059
1738.25,0.0058
1738.00,0.0058
1737.75,0.0059
1737.50,0.0060
1737.25,0.0061
1737.00,0.0062
1736.75,0.0062
1736.50,0.0062
1736.25,0.0062
1736.00,0.0062
1735.75,0.0062
1735.50,0.0062
1735.25,0.0061
1735.00,0.0060
1734.75,0.0058
1734.50,0.0056
1734.25,0.0055
1734.00,0.0055
1733.75,0.0055
1733.50,0.0055
1733.25,0.0055
1733.00,0.0055
1732.75,0.0056
1732.50,0.0057
1732.25,0.0059
1732.00,0.0060
1731.75,0.0061
1731.50,0.0062
1731.25,0.0063
1731.00,0.0063
1730.75,0.0064
1730.50,0.0065
1730.25,0.0066
1730.00,0.0067
1729.75,0.0065
1729.50,0.0063
1729.25,0.0062
1729.00,0.0062
1728.75,0.0062
1728.50,0.0062
1728.25,0.0062
1728.00,0.0062
1727.75,0.0062
1727.50,0.0062
1727.25,0.0063
1727.00,0.0063
1726.75,0.0062
1726.50,0.0061
1726.25,0.0060
1726.00,0.0059
1725.75,0.0058
1725.50,0.0058
1725.25,0.0059
1725.00,0.0059
1724.75,0.0059
1724.50,0.0059
1724.25,0.0059
1724.00,0.0060
1723.75,0.0061
1723.50,0.0062
1723.25,0.0062
1723.00,0.0062
1722.75,0.0061
1722.50,0.0060
1722.25,0.0060
1722.00,0.0060
1721.75,0.0060
1721.50,0.0060
1721.25,0.0060
1721.00,0.0060
1720.75,0.0060
1720.50,0.0060
1720.25,0.0060
1720.00,0.0060
1719.75,0.0060
1719.50,0.0060
1719.25,0.0060
1719.00,0.0061
1718.75,0.0063
1718.50,0.0065
1718.25,0.0067
1718.00,0.0068
1717.75,0.0067
1717.50,0.0063
1717.25,0.0058
1717.00,0.0055
1716.75,0.0056
1716.50,0.0059
1716.25,0.0061
1716.00,0.0062
1715.75,0.0064
1715.50,0.0067
1715.25,0.0069
1715.00,0.0068
1714.75,0.0065
1714.50,0.0062
1714.25,0.0061
1714.00,0.0061
1713.75,0.0062
1713.50,0.0062
1713.25,0.0062
1713.00,0.0062
1712.75,0.0062
1712.50,0.0061
1712.25,0.0061
1712.00,0.0061
1711.75,0.0061
1711.50,0.0062
1711.25,0.0062
1711.00,0.0062
1710.75,0.0061
1710.50,0.0060
1710.25,0.0059
1710.00,0.0058
1709.75,0.0058
1709.50,0.0058
1709.25,0.0059
1709.00,0.0060
1708.75,0.0060
1708.50,0.0060
1708.25,0.0059
1708.00,0.0059
1707.75,0.0060
1707.50,0.0061
1707.25,0.0063
1707.00,0.0063
1706.75,0.0063
1706.50,0.0061
1706.25,0.0060
1706.00,0.0059
1705.75,0.0059
1705.50,0.0059
1705.25,0.0059
1705.00,0.0059
1704.75,0.0059
1704.50,0.0060
1704.25,0.0060
1704.00,0.0060
1703.75,0.0059
1703.50,0.0060
1703.25,0.0060
1703.00,0.0061
1702.75,0.0062
1702.50,0.0062
1702.25,0.0061
1702.00,0.0060
1701.75,0.0059
1701.50,0.0059
1701.25,0.0061
1701.00,0.0062
1700.75,0.0062
1700.50,0.0055
1700.25,0.0048
1700.00,0.0048
1699.75,0.0056
1699.50,0.0060
1699.25,0.0062
1699.00,0.0063
1698.75,0.0063
1698.50,0.0063
1698.25,0.0063
1698.00,0.0063
1697.75,0.0063
1697.50,0.0063
1697.25,0.0062
1697.00,0.0061
1696.75,0.0060
1696.50,0.0058
1696.25,0.0058
1696.00,0.0061
1695.75,0.0067
1695.50,0.0068
1695.25,0.0067
1695.00,0.0065
1694.75,0.0064
1694.50,0.0062
1694.25,0.0062
1694.00,0.0062
1693.75,0.0062
1693.50,0.0063
1693.25,0.0064
1693.00,0.0064
1692.75,0.0065
1692.50,0.0064
1692.25,0.0064
1692.00,0.0064
1691.75,0.0064
1691.50,0.0063
1691.25,0.0062
1691.00,0.0061
1690.75,0.0060
1690.50,0.0061
1690.25,0.0062
1690.00,0.0063
1689.75,0.0063
1689.50,0.0064
1689.25,0.0064
1689.00,0.0063
1688.75,0.0063
1688.50,0.0062
1688.25,0.0063
1688.00,0.0065
1687.75,0.0065
1687.50,0.0066
1687.25,0.0065
1687.00,0.0063
1686.75,0.0061
1686.50,0.0059
1686.25,0.0058
1686.00,0.0057
1685.75,0.0057
1685.50,0.0058
1685.25,0.0059
1685.00,0.0063
1684.75,0.0069
1684.50,0.0074
1684.25,0.0074
1684.00,0.0073
1683.75,0.0073
1683.50,0.0072
1683.25,0.0069
1683.00,0.0066
1682.75,0.0063
1682.50,0.0061
1682.25,0.0060
1682.00,0.0059
1681.75,0.0059
1681.50,0.0059
1681.25,0.0060
1681.00,0.0061
1680.75,0.0061
1680.50,0.0062
1680.25,0.0063
1680.00,0.0064
1679.75,0.0064
1679.50,0.0063
1679.25,0.0063
1679.00,0.0062
1678.75,0.0062
1678.50,0.0061
1678.25,0.0061
1678.00,0.0062
1677.75,0.0063
1677.50,0.0064
1677.25,0.0065
1677.00,0.0065
1676.75,0.0064
1676.50,0.0062
1676.25,0.0060
1676.00,0.0059
1675.75,0.0057
1675.50,0.0055
1675.25,0.0055
1675.00,0.0056
1674.75,0.0057
1674.50,0.0059
1674.25,0.0060
1674.00,0.0061
1673.75,0.0062
1673.50,0.0063
1673.25,0.0063
1673.00,0.0063
1672.75,0.0063
1672.50,0.0064
1672.25,0.0064
1672.00,0.0065
1671.75,0.0066
1671.50,0.0068
1671.25,0.0067
1671.00,0.0066
1670.75,0.0064
1670.50,0.0063
1670.25,0.0063
1670.00,0.0064
1669.75,0.0066
1669.50,0.0070
1669.25,0.0074
1669.00,0.0076
1668.75,0.0074
1668.50,0.0071
1668.25,0.0068
1668.00,0.0066
1667.75,0.0065
1667.50,0.0063
1667.25,0.0062
1667.00,0.0062
1666.75,0.0062
1666.50,0.0062
1666.25,0.0063
1666.00,0.0063
1665.75,0.0063
1665.50,0.0063
1665.25,0.0062
1665.00,0.0061
1664.75,0.0061
1664.50,0.0060
1664.25,0.0060
1664.00,0.0061
1663.75,0.0061
1663.50,0.0062
1663.25,0.0062
1663.00,0.0062
1662.75,0.0063
1662.50,0.0063
1662.25,0.0062
1662.00,0.0062
1661.75,0.0062
1661.50,0.0063
1661.25,0.0064
1661.00,0.0064
1660.75,0.0064
1660.50,0.0063
1660.25,0.0063
1660.00,0.0064
1659.75,0.0064
1659.50,0.0065
1659.25,0.0065
1659.00,0.0065
1658.75,0.0065
1658.50,0.0065
1658.25,0.0065
1658.00,0.0065
1657.75,0.0064
1657.50,0.0064
1657.25,0.0063
1657.00,0.0061
1656.75,0.0060
1656.50,0.0059
1656.25,0.0059
1656.00,0.0059
1655.75,0.0060
1655.50,0.0060
1655.25,0.0060
1655.00,0.0060
1654.75,0.0060
1654.50,0.0059
1654.25,0.0059
1654.00,0.0058
1653.75,0.0054
1653.50,0.0049
1653.25,0.0041
1653.00,0.0033
1652.75,0.0037
1652.50,0.0047
1652.25,0.0058
1652.00,0.0062
1651.75,0.0063
1651.50,0.0063
1651.25,0.0063
1651.00,0.0063
1650.75,0.0064
1650.50,0.0064
1650.25,0.0065
1650.00,0.0065
1649.75,0.0065
1649.50,0.0064
1649.25,0.0064
1649.00,0.0063
1648.75,0.0063
1648.50,0.0064
1648.25,0.0065
1648.00,0.0066
1647.75,0.0067
1647.50,0.0067
1647.25,0.0066
1647.00,0.0065
1646.75,0.0064
1646.50,0.0064
1646.25,0.0065
1646.00,0.0065
1645.75,0.0064
1645.50,0.0062
1645.25,0.0062
1645.00,0.0061
1644.75,0.0061
1644.50,0.0060
1644.25,0.0060
1644.00,0.0060
1643.75,0.0060
1643.50,0.0061
1643.25,0.0062
1643.00,0.0063
1642.75,0.0063
1642.50,0.0063
1642.25,0.0063
1642.00,0.0063
1641.75,0.0062
1641.50,0.0062
1641.25,0.0063
1641.00,0.0064
1640.75,0.0066
1640.50,0.0066
1640.25,0.0066
1640.00,0.0064
1639.75,0.0063
1639.50,0.0063
1639.25,0.0063
1639.00,0.0064
1638.75,0.0064
1638.50,0.0064
1638.25,0.0064
1638.00,0.0064
1637.75,0.0063
1637.50,0.0063
1637.25,0.0063
1637.00,0.0064
1636.75,0.0064
1636.50,0.0065
1636.25,0.0066
1636.00,0.0069
1635.75,0.0072
1635.50,0.0073
1635.25,0.0068
1635.00,0.0060
1634.75,0.0059
1634.50,0.0060
1634.25,0.0061
1634.00,0.0061
1633.75,0.0061
1633.50,0.0062
1633.25,0.0062
1633.00,0.0063
1632.75,0.0064
1632.50,0.0065
1632.25,0.0065
1632.00,0.0065
1631.75,0.0064
1631.50,0.0063
1631.25,0.0062
1631.00,0.0061
1630.75,0.0061
1630.50,0.0061
1630.25,0.0061
1630.00,0.0061
1629.75,0.0063
1629.50,0.0064
1629.25,0.0065
1629.00,0.0066
1628.75,0.0066
1628.50,0.0066
1628.25,0.0066
1628.00,0.0064
1627.75,0.0062
1627.50,0.0060
1627.25,0.0060
1627.00,0.0060
1626.75,0.0062
1626.50,0.0062
1626.25,0.0062
1626.00,0.0062
1625.75,0.0063
1625.50,0.0063
1625.25,0.0064
1625.00,0.0064
1624.75,0.0064
1624.50,0.0064
1624.25,0.0063
1624.00,0.0062
1623.75,0.0062
1623.50,0.0062
1623.25,0.0063
1623.00,0.0064
1622.75,0.0065
1622.50,0.0065
1622.25,0.0064
1622.00,0.0063
1621.75,0.0061
1621.50,0.0061
1621.25,0.0060
1621.00,0.0060
1620.75,0.0060
1620.50,0.0060
1620.25,0.0059
1620.00,0.0060
1619.75,0.0060
1619.50,0.0061
1619.25,0.0061
1619.00,0.0060
1618.75,0.0059
1618.50,0.0059
1618.25,0.0060
1618.00,0.0062
1617.75,0.0062
1617.50,0.0062
1617.25,0.0060
1617.00,0.0058
1616.75,0.0057
1616.50,0.0057
1616.25,0.0057
1616.00,0.0058
1615.75,0.0060
1615.50,0.0061
1615.25,0.0061
1615.00,0.0062
1614.75,0.0063
1614.50,0.0063
1614.25,0.0062
1614.00,0.0061
1613.75,0.0061
1613.50,0.0062
1613.25,0.0063
1613.00,0.0063
1612.75,0.0063
1612.50,0.0062
1612.25,0.0062
1612.00,0.0062
1611.75,0.0062
1611.50,0.0062
1611.25,0.0062
1611.00,0.0061
1610.75,0.0061
1610.50,0.0062
1610.25,0.0063
1610.00,0.0065
1609.75,0.0066
1609.50,0.0066
1609.25,0.0065
1609.00,0.0063
1608.75,0.0061
1608.50,0.0061
1608.25,0.0060
1608.00,0.0060
1607.75,0.0061
1607.50,0.0062
1607.25,0.0064
1607.00,0.0066
1606.75,0.0067
1606.50,0.0067
1606.25,0.0067
1606.00,0.0067
1605.75,0.0066
1605.50,0.0065
1605.25,0.0064
1605.00,0.0063
1604.75,0.0062
1604.50,0.0062
1604.25,0.0061
1604.00,0.0062
1603.75,0.0062
1603.50,0.0062
1603.25,0.0062
1603.00,0.0062
1602.75,0.0062
1602.50,0.0062
1602.25,0.0062
1602.00,0.0062
1601.75,0.0062
1601.50,0.0062
1601.25,0.0062
1601.00,0.0061
1600.75,0.0061
1600.50,0.0062
1600.25,0.0062
1600.00,0.0062
1599.75,0.0063
1599.50,0.0063
1599.25,0.0063
1599.00,0.0063
1598.75,0.0064
1598.50,0.0064
1598.25,0.0063
1598.00,0.0062
1597.75,0.0062
1597.50,0.0062
1597.25,0.0062
1597.00,0.0063
1596.75,0.0064
1596.50,0.0065
1596.25,0.0066
1596.00,0.0066
1595.75,0.0066
1595.50,0.0067
1595.25,0.0067
1595.00,0.0067
1594.75,0.0067
1594.50,0.0067
1594.25,0.0066
1594.00,0.0065
1593.75,0.0063
1593.50,0.0063
1593.25,0.0063
1593.00,0.0064
1592.75,0.0065
1592.50,0.0065
1592.25,0.0065
1592.00,0.0064
1591.75,0.0064
1591.50,0.0063
1591.25,0.0063
1591.00,0.0064
1590.75,0.0064
1590.50,0.0064
1590.25,0.0064
1590.00,0.0063
1589.75,0.0062
1589.50,0.0061
1589.25,0.0061
1589.00,0.0062
1588.75,0.0063
1588.50,0.0064
1588.25,0.0065
1588.00,0.0064
1587.75,0.0064
1587.50,0.0063
1587.25,0.0062
1587.00,0.0061
1586.75,0.0061
1586.50,0.0061
1586.25,0.0061
1586.00,0.0062
1585.75,0.0063
1585.50,0.0063
1585.25,0.0063
1585.00,0.0063
1584.75,0.0062
1584.50,0.0062
1584.25,0.0062
1584.00,0.0062
1583.75,0.0062
1583.50,0.0062
1583.25,0.0062
1583.00,0.0063
1582.75,0.0064
1582.50,0.0065
1582.25,0.0067
1582.00,0.0068
1581.75,0.0068
1581.50,0.0067
1581.25,0.0066
1581.00,0.0065
1580.75,0.0064
1580.50,0.0063
1580.25,0.0063
1580.00,0.0063
1579.75,0.0064
1579.50,0.0064
1579.25,0.0064
1579.00,0.0063
1578.75,0.0062
1578.50,0.0060
1578.25,0.0060
1578.00,0.0060
1577.75,0.0061
1577.50,0.0061
1577.25,0.0062
1577.00,0.0061
1576.75,0.0059
1576.50,0.0057
1576.25,0.0053
1576.00,0.0049
1575.75,0.0048
1575.50,0.0051
1575.25,0.0055
1575.00,0.0058
1574.75,0.0060
1574.50,0.0062
1574.25,0.0062
1574.00,0.0063
1573.75,0.0063
1573.50,0.0063
1573.25,0.0063
1573.00,0.0063
1572.75,0.0064
1572.50,0.0064
1572.25,0.0064
1572.00,0.0063
1571.75,0.0062
1571.50,0.0062
1571.25,0.0062
1571.00,0.0062
1570.75,0.0063
1570.50,0.0063
1570.25,0.0062
1570.00,0.0061
1569.75,0.0059
1569.50,0.0059
1569.25,0.0060
1569.00,0.0060
1568.75,0.0060
1568.50,0.0060
1568.25,0.0060
1568.00,0.0061
1567.75,0.0061
1567.50,0.0062
1567.25,0.0062
1567.00,0.0062
1566.75,0.0063
1566.50,0.0064
1566.25,0.0064
1566.00,0.0064
1565.75,0.0064
1565.50,0.0064
1565.25,0.0065
1565.00,0.0066
1564.75,0.0067
1564.50,0.0066
1564.25,0.0065
1564.00,0.0063
1563.75,0.0063
1563.50,0.0062
1563.25,0.0062
1563.00,0.0061
1562.75,0.0061
1562.50,0.0061
1562.25,0.0061
1562.00,0.0061
1561.75,0.0061
1561.50,0.0060
1561.25,0.0059
1561.00,0.0057
1560.75,0.0055
1560.50,0.0051
1560.25,0.0046
1560.00,0.0046
1559.75,0.0056
1559.50,0.0066
1559.25,0.0071
1559.00,0.0075
1558.75,0.0079
1558.50,0.0086
1558.25,0.0093
1558.00,0.0096
1557.75,0.0090
1557.50,0.0081
1557.25,0.0075
1557.00,0.0070
1556.75,0.0067
1556.50,0.0065
1556.25,0.0064
1556.00,0.0064
1555.75,0.0064
1555.50,0.0065
1555.25,0.0065
1555.00,0.0065
1554.75,0.0065
1554.50,0.0065
1554.25,0.0065
1554.00,0.0065
1553.75,0.0064
1553.50,0.0064
1553.25,0.0063
1553.00,0.0063
1552.75,0.0061
1552.50,0.0060
1552.25,0.0060
1552.00,0.0059
1551.75,0.0059
1551.50,0.0060
1551.25,0.0061
1551.00,0.0061
1550.75,0.0060
1550.50,0.0059
1550.25,0.0059
1550.00,0.0060
1549.75,0.0062
1549.50,0.0063
1549.25,0.0064
1549.00,0.0064
1548.75,0.0064
1548.50,0.0064
1548.25,0.0063
1548.00,0.0062
1547.75,0.0061
1547.50,0.0060
1547.25,0.0060
1547.00,0.0060
1546.75,0.0061
1546.50,0.0061
1546.25,0.0061
1546.00,0.0062
1545.75,0.0063
1545.50,0.0064
1545.25,0.0065
1545.00,0.0064
1544.75,0.0062
1544.50,0.0061
1544.25,0.0060
1544.00,0.0058
1543.75,0.0057
1543.50,0.0056
1543.25,0.0056
1543.00,0.0057
1542.75,0.0060
1542.50,0.0064
1542.25,0.0068
1542.00,0.0071
1541.75,0.0070
1541.50,0.0067
1541.25,0.0064
1541.00,0.0063
1540.75,0.0063
1540.50,0.0065
1540.25,0.0067
1540.00,0.0069
1539.75,0.0069
1539.50,0.0068
1539.25,0.0069
1539.00,0.0070
1538.75,0.0069
1538.50,0.0065
1538.25,0.0063
1538.00,0.0061
1537.75,0.0060
1537.50,0.0059
1537.25,0.0059
1537.00,0.0059
1536.75,0.0059
1536.50,0.0060
1536.25,0.0061
1536.00,0.0063
1535.75,0.0064
1535.50,0.0064
1535.25,0.0063
1535.00,0.0062
1534.75,0.0061
1534.50,0.0060
1534.25,0.0060
1534.00,0.0059
1533.75,0.0058
1533.50,0.0058
1533.25,0.0058
1533.00,0.0060
1532.75,0.0061
1532.50,0.0063
1532.25,0.0063
1532.00,0.0062
1531.75,0.0061
1531.50,0.0060
1531.25,0.0060
1531.00,0.0060
1530.75,0.0061
1530.50,0.0063
1530.25,0.0064
1530.00,0.0065
1529.75,0.0065
1529.50,0.0065
1529.25,0.0064
1529.00,0.0064
1528.75,0.0063
1528.50,0.0062
1528.25,0.0060
1528.00,0.0059
1527.75,0.0058
1527.50,0.0058
1527.25,0.0058
1527.00,0.0058
1526.75,0.0059
1526.50,0.0060
1526.25,0.0061
1526.00,0.0062
1525.75,0.0063
1525.50,0.0064
1525.25,0.0064
1525.00,0.0063
1524.75,0.0063
1524.50,0.0063
1524.25,0.0063
1524.00,0.0063
1523.75,0.0063
1523.50,0.0063
1523.25,0.0064
1523.00,0.0065
1522.75,0.0066
1522.50,0.0067
1522.25,0.0067
1522.00,0.0066
1521.75,0.0064
1521.50,0.0063
1521.25,0.0064
1521.00,0.0065
1520.75,0.0067
1520.50,0.0067
1520.25,0.0066
1520.00,0.0064
1519.75,0.0061
1519.50,0.0060
1519.25,0.0060
1519.00,0.0060
1518.75,0.0060
1518.50,0.0060
1518.25,0.0060
1518.00,0.0060
1517.75,0.0061
1517.50,0.0063
1517.25,0.0064
1517.00,0.0065
1516.75,0.0065
1516.50,0.0064
1516.25,0.0063
1516.00,0.0063
1515.75,0.0062
1515.50,0.0062
1515.25,0.0061
1515.00,0.0061
1514.75,0.0061
1514.50,0.0060
1514.25,0.0060
1514.00,0.0059
1513.75,0.0059
1513.50,0.0059
1513.25,0.0059
1513.00,0.0059
1512.75,0.0058
1512.50,0.0057
1512.25,0.0057
1512.00,0.0057
1511.75,0.0057
1511.50,0.0057
1511.25,0.0057
1511.00,0.0058
1510.75,0.0058
1510.50,0.0058
1510.25,0.0057
1510.00,0.0056
1509.75,0.0055
1509.50,0.0055
1509.25,0.0055
1509.00,0.0055
1508.75,0.0054
1508.50,0.0053
1508.25,0.0052
1508.00,0.0052
1507.75,0.0051
1507.50,0.0051
1507.25,0.0052
1507.00,0.0055
1506.75,0.0058
1506.50,0.0058
1506.25,0.0057
1506.00,0.0055
1505.75,0.0051
1505.50,0.0048
1505.25,0.0048
1505.00,0.0051
1504.75,0.0053
1504.50,0.0055
1504.25,0.0056
1504.00,0.0055
1503.75,0.0055
1503.50,0.0055
1503.25,0.0056
1503.00,0.0058
1502.75,0.0059
1502.50,0.0059
1502.25,0.0059
1502.00,0.0059
1501.75,0.0060
1501.50,0.0060
1501.25,0.0060
1501.00,0.0059
1500.75,0.0057
1500.50,0.0056
1500.25,0.0055
1500.00,0.0055
1499.75,0.0055
1499.50,0.0056
1499.25,0.0058
1499.00,0.0060
1498.75,0.0063
1498.50,0.0063
1498.25,0.0061
1498.00,0.0058
1497.75,0.0055
1497.50,0.0054
1497.25,0.0054
1497.00,0.0054
1496.75,0.0057
1496.50,0.0061
1496.25,0.0064
1496.00,0.0064
1495.75,0.0060
1495.50,0.0057
1495.25,0.0055
1495.00,0.0055
1494.75,0.0054
1494.50,0.0054
1494.25,0.0055
1494.00,0.0056
1493.75,0.0058
1493.50,0.0059
1493.25,0.0060
1493.00,0.0060
1492.75,0.0059
1492.50,0.0058
1492.25,0.0058
1492.00,0.0057
1491.75,0.0057
1491.50,0.0056
1491.25,0.0056
1491.00,0.0056
1490.75,0.0057
1490.50,0.0058
1490.25,0.0060
1490.00,0.0061
1489.75,0.0063
1489.50,0.0063
1489.25,0.0061
1489.00,0.0058
1488.75,0.0056
1488.50,0.0056
1488.25,0.0057
1488.00,0.0060
1487.75,0.0063
1487.50,0.0065
1487.25,0.0065
1487.00,0.0063
1486.75,0.0061
1486.50,0.0059
1486.25,0.0057
1486.00,0.0056
1485.75,0.0056
1485.50,0.0056
1485.25,0.0057
1485.00,0.0058
1484.75,0.0060
1484.50,0.0061
1484.25,0.0062
1484.00,0.0062
1483.75,0.0062
1483.50,0.0062
1483.25,0.0062
1483.00,0.0062
1482.75,0.0063
1482.50,0.0063
1482.25,0.0063
1482.00,0.0063
1481.75,0.0063
1481.50,0.0064
1481.25,0.0064
1481.00,0.0064
1480.75,0.0063
1480.50,0.0063
1480.25,0.0062
1480.00,0.0061
1479.75,0.0060
1479.50,0.0059
1479.25,0.0059
1479.00,0.0060
1478.75,0.0062
1478.50,0.0064
1478.25,0.0065
1478.00,0.0065
1477.75,0.0064
1477.50,0.0063
1477.25,0.0061
1477.00,0.0059
1476.75,0.0058
1476.50,0.0058
1476.25,0.0059
1476.00,0.0059
1475.75,0.0059
1475.50,0.0059
1475.25,0.0059
1475.00,0.0060
1474.75,0.0060
1474.50,0.0061
1474.25,0.0062
1474.00,0.0062
1473.75,0.0063
1473.50,0.0063
1473.25,0.0063
1473.00,0.0062
1472.75,0.0061
1472.50,0.0061
1472.25,0.0061
1472.00,0.0062
1471.75,0.0062
1471.50,0.0062
1471.25,0.0061
1471.00,0.0061
1470.75,0.0061
1470.50,0.0061
1470.25,0.0060
1470.00,0.0061
1469.75,0.0061
1469.50,0.0061
1469.25,0.0061
1469.00,0.0061
1468.75,0.0061
1468.50,0.0061
1468.25,0.0061
1468.00,0.0061
1467.75,0.0061
1467.50,0.0061
1467.25,0.0061
1467.00,0.0061
1466.75,0.0061
1466.50,0.0061
1466.25,0.0061
1466.00,0.0061
1465.75,0.0062
1465.50,0.0063
1465.25,0.0066
1465.00,0.0070
1464.75,0.0072
1464.50,0.0071
1464.25,0.0068
1464.00,0.0066
1463.75,0.0064
1463.50,0.0062
1463.25,0.0061
1463.00,0.0061
1462.75,0.0061
1462.50,0.0061
1462.25,0.0063
1462.00,0.0064
1461.75,0.0065
1461.50,0.0066
1461.25,0.0066
1461.00,0.0066
1460.75,0.0065
1460.50,0.0065
1460.25,0.0064
1460.00,0.0062
1459.75,0.0060
1459.50,0.0059
1459.25,0.0059
1459.00,0.0060
1458.75,0.0061
1458.50,0.0062
1458.25,0.0063
1458.00,0.0064
1457.75,0.0065
1457.50,0.0067
1457.25,0.0069
1457.00,0.0071
1456.75,0.0068
1456.50,0.0060
1456.25,0.0055
1456.00,0.0055
1455.75,0.0057
1455.50,0.0059
1455.25,0.0063
1455.00,0.0066
1454.75,0.0068
1454.50,0.0069
1454.25,0.0070
1454.00,0.0070
1453.75,0.0070
1453.50,0.0069
1453.25,0.0067
1453.00,0.0066
1452.75,0.0065
1452.50,0.0065
1452.25,0.0064
1452.00,0.0065
1451.75,0.0066
1451.50,0.0067
1451.25,0.0068
1451.00,0.0069
1450.75,0.0069
1450.50,0.0068
1450.25,0.0067
1450.00,0.0066
1449.75,0.0065
1449.50,0.0065
1449.25,0.0066
1449.00,0.0067
1448.75,0.0067
1448.50,0.0067
1448.25,0.0067
1448.00,0.0066
1447.75,0.0065
1447.50,0.0064
1447.25,0.0064
1447.00,0.0065
1446.75,0.0066
1446.50,0.0068
1446.25,0.0070
1446.00,0.0071
1445.75,0.0072
1445.50,0.0072
1445.25,0.0071
1445.00,0.0070
1444.75,0.0069
1444.50,0.0069
1444.25,0.0069
1444.00,0.0070
1443.75,0.0071
1443.50,0.0071
1443.25,0.0071
1443.00,0.0071
1442.75,0.0071
1442.50,0.0071
1442.25,0.0071
1442.00,0.0071
1441.75,0.0071
1441.50,0.0071
1441.25,0.0070
1441.00,0.0069
1440.75,0.0069
1440.50,0.0069
1440.25,0.0069
1440.00,0.0069
1439.75,0.0070
1439.50,0.0070
1439.25,0.0069
1439.00,0.0069
1438.75,0.0068
1438.50,0.0067
1438.25,0.0066
1438.00,0.0066
1437.75,0.0066
1437.50,0.0066
1437.25,0.0067
1437.00,0.0067
1436.75,0.0068
1436.50,0.0070
1436.25,0.0070
1436.00,0.0070
1435.75,0.0070
1435.50,0.0069
1435.25,0.0068
1435.00,0.0066
1434.75,0.0065
1434.50,0.0064
1434.25,0.0064
1434.00,0.0065
1433.75,0.0066
1433.50,0.0068
1433.25,0.0068
1433.00,0.0068
1432.75,0.0068
1432.50,0.0066
1432.25,0.0065
1432.00,0.0064
1431.75,0.0064
1431.50,0.0065
1431.25,0.0065
1431.00,0.0065
1430.75,0.0065
1430.50,0.0065
1430.25,0.0065
1430.00,0.0067
1429.75,0.0069
1429.50,0.0069
1429.25,0.0069
1429.00,0.0069
1428.75,0.0069
1428.50,0.0069
1428.25,0.0069
1428.00,0.0070
1427.75,0.0071
1427.50,0.0072
1427.25,0.0072
1427.00,0.0073
1426.75,0.0073
1426.50,0.0072
1426.25,0.0072
1426.00,0.0072
1425.75,0.0072
1425.50,0.0072
1425.25,0.0071
1425.00,0.0070
1424.75,0.0068
1424.50,0.0067
1424.25,0.0068
1424.00,0.0071
1423.75,0.0073
1423.50,0.0074
1423.25,0.0074
1423.00,0.0073
1422.75,0.0073
1422.50,0.0072
1422.25,0.0072
1422.00,0.0073
1421.75,0.0074
1421.50,0.0075
1421.25,0.0076
1421.00,0.0077
1420.75,0.0077
1420.50,0.0077
1420.25,0.0076
1420.00,0.0075
1419.75,0.0074
1419.50,0.0073
1419.25,0.0075
1419.00,0.0076
1418.75,0.0076
1418.50,0.0077
1418.25,0.0078
1418.00,0.0079
1417.75,0.0080
1417.50,0.0080
1417.25,0.0080
1417.00,0.0081
1416.75,0.0081
1416.50,0.0083
1416.25,0.0084
1416.00,0.0085
1415.75,0.0086
1415.50,0.0086
1415.25,0.0085
1415.00,0.0085
1414.75,0.0085
1414.50,0.0086
1414.25,0.0087
1414.00,0.0087
1413.75,0.0088
1413.50,0.0088
1413.25,0.0088
1413.00,0.0088
1412.75,0.0088
1412.50,0.0089
1412.25,0.0089
1412.00,0.0089
1411.75,0.0090
1411.50,0.0090
1411.25,0.0090
1411.00,0.0090
1410.75,0.0090
1410.50,0.0090
1410.25,0.0090
1410.00,0.0089
1409.75,0.0089
1409.50,0.0088
1409.25,0.0087
1409.00,0.0087
1408.75,0.0086
1408.50,0.0086
1408.25,0.0086
1408.00,0.0087
1407.75,0.0087
1407.50,0.0087
1407.25,0.0088
1407.00,0.0088
1406.75,0.0088
1406.50,0.0088
1406.25,0.0088
1406.00,0.0087
1405.75,0.0085
1405.50,0.0083
1405.25,0.0081
1405.00,0.0080
1404.75,0.0080
1404.50,0.0081
1404.25,0.0083
1404.00,0.0085
1403.75,0.0086
1403.50,0.0087
1403.25,0.0086
1403.00,0.0085
1402.75,0.0084
1402.50,0.0084
1402.25,0.0085
1402.00,0.0086
1401.75,0.0086
1401.50,0.0086
1401.25,0.0085
1401.00,0.0084
1400.75,0.0084
1400.50,0.0084
1400.25,0.0083
1400.00,0.0083
1399.75,0.0082
1399.50,0.0080
1399.25,0.0080
1399.00,0.0080
1398.75,0.0079
1398.50,0.0079
1398.25,0.0078
1398.00,0.0078
1397.75,0.0078
1397.50,0.0078
1397.25,0.0078
1397.00,0.0078
1396.75,0.0077
1396.50,0.0077
1396.25,0.0077
1396.00,0.0078
1395.75,0.0078
1395.50,0.0079
1395.25,0.0079
1395.00,0.0078
1394.75,0.0077
1394.50,0.0077
1394.25,0.0075
1394.00,0.0075
1393.75,0.0075
1393.50,0.0075
1393.25,0.0076
1393.00,0.0076
1392.75,0.0075
1392.50,0.0074
1392.25,0.0073
1392.00,0.0071
1391.75,0.0071
1391.50,0.0071
1391.25,0.0071
1391.00,0.0072
1390.75,0.0072
1390.50,0.0072
1390.25,0.0072
1390.00,0.0073
1389.75,0.0072
1389.50,0.0072
1389.25,0.0072
1389.00,0.0071
1388.75,0.0071
1388.50,0.0071
1388.25,0.0070
1388.00,0.0069
1387.75,0.0068
1387.50,0.0068
1387.25,0.0068
1387.00,0.0069
1386.75,0.0069
1386.50,0.0070
1386.25,0.0070
1386.00,0.0071
1385.75,0.0072
1385.50,0.0073
1385.25,0.0073
1385.00,0.0073
1384.75,0.0071
1384.50,0.0069
1384.25,0.0067
1384.00,0.0066
1383.75,0.0066
1383.50,0.0067
1383.25,0.0069
1383.00,0.0070
1382.75,0.0071
1382.50,0.0072
1382.25,0.0072
1382.00,0.0071
1381.75,0.0070
1381.50,0.0069
1381.25,0.0068
1381.00,0.0068
1380.75,0.0069
1380.50,0.0071
1380.25,0.0072
1380.00,0.0073
1379.75,0.0073
1379.50,0.0072
1379.25,0.0071
1379.00,0.0069
1378.75,0.0068
1378.50,0.0067
1378.25,0.0068
1378.00,0.0069
1377.75,0.0069
1377.50,0.0069
1377.25,0.0068
1377.00,0.0067
1376.75,0.0066
1376.50,0.0066
1376.25,0.0066
1376.00,0.0066
1375.75,0.0066
1375.50,0.0066
1375.25,0.0067
1375.00,0.0067
1374.75,0.0067
1374.50,0.0067
1374.25,0.0066
1374.00,0.0066
1373.75,0.0066
1373.50,0.0067
1373.25,0.0068
1373.00,0.0070
1372.75,0.0072
1372.50,0.0072
1372.25,0.0072
1372.00,0.0071
1371.75,0.0070
1371.50,0.0070
1371.25,0.0069
1371.00,0.0069
1370.75,0.0069
1370.50,0.0069
1370.25,0.0069
1370.00,0.0069
1369.75,0.0068
1369.50,0.0068
1369.25,0.0067
1369.00,0.0067
1368.75,0.0068
1368.50,0.0069
1368.25,0.0069
1368.00,0.0070
1367.75,0.0070
1367.50,0.0070
1367.25,0.0069
1367.00,0.0069
1366.75,0.0068
1366.50,0.0068
1366.25,0.0067
1366.00,0.0066
1365.75,0.0066
1365.50,0.0066
1365.25,0.0067
1365.00,0.0067
1364.75,0.0067
1364.50,0.0068
1364.25,0.0067
1364.00,0.0066
1363.75,0.0065
1363.50,0.0063
1363.25,0.0063
1363.00,0.0065
1362.75,0.0067
1362.50,0.0067
1362.25,0.0067
1362.00,0.0067
1361.75,0.0065
1361.50,0.0064
1361.25,0.0062
1361.00,0.0062
1360.75,0.0063
1360.50,0.0065
1360.25,0.0066
1360.00,0.0068
1359.75,0.0069
1359.50,0.0070
1359.25,0.0070
1359.00,0.0069
1358.75,0.0068
1358.50,0.0067
1358.25,0.0066
1358.00,0.0065
1357.75,0.0064
1357.50,0.0064
1357.25,0.0064
1357.00,0.0064
1356.75,0.0065
1356.50,0.0066
1356.25,0.0066
1356.00,0.0067
1355.75,0.0067
1355.50,0.0067
1355.25,0.0067
1355.00,0.0069
1354.75,0.0071
1354.50,0.0071
1354.25,0.0071
1354.00,0.0071
1353.75,0.0070
1353.50,0.0069
1353.25,0.0068
1353.00,0.0068
1352.75,0.0068
1352.50,0.0068
1352.25,0.0068
1352.00,0.0068
1351.75,0.0068
1351.50,0.0067
1351.25,0.0065
1351.00,0.0063
1350.75,0.0063
1350.50,0.0063
1350.25,0.0064
1350.00,0.0066
1349.75,0.0067
1349.50,0.0069
1349.25,0.0069
1349.00,0.0069
1348.75,0.0069
1348.50,0.0068
1348.25,0.0067
1348.00,0.0066
1347.75,0.0066
1347.50,0.0066
1347.25,0.0066
1347.00,0.0066
1346.75,0.0066
1346.50,0.0067
1346.25,0.0067
1346.00,0.0068
1345.75,0.0068
1345.50,0.0068
1345.25,0.0068
1345.00,0.0068
1344.75,0.0067
1344.50,0.0067
1344.25,0.0067
1344.00,0.0067
1343.75,0.0067
1343.50,0.0067
1343.25,0.0067
1343.00,0.0067
1342.75,0.0068
1342.50,0.0068
1342.25,0.0069
1342.00,0.0069
1341.75,0.0069
1341.50,0.0069
1341.25,0.0068
1341.00,0.0067
1340.75,0.0067
1340.50,0.0067
1340.25,0.0068
1340.00,0.0068
1339.75,0.0067
1339.50,0.0066
1339.25,0.0066
1339.00,0.0066
1338.75,0.0066
1338.50,0.0066
1338.25,0.0065
1338.00,0.0064
1337.75,0.0063
1337.50,0.0063
1337.25,0.0064
1337.00,0.0065
1336.75,0.0066
1336.50,0.0067
1336.25,0.0067
1336.00,0.0067
1335.75,0.0067
1335.50,0.0067
1335.25,0.0067
1335.00,0.0068
1334.75,0.0067
1334.50,0.0067
1334.25,0.0067
1334.00,0.0067
1333.75,0.0067
1333.50,0.0068
1333.25,0.0069
1333.00,0.0069
1332.75,0.0069
1332.50,0.0069
1332.25,0.0068
1332.00,0.0068
1331.75,0.0067
1331.50,0.0067
1331.25,0.0067
1331.00,0.0067
1330.75,0.0068
1330.50,0.0069
1330.25,0.0069
1330.00,0.0068
1329.75,0.0067
1329.50,0.0066
1329.25,0.0066
1329.00,0.0066
1328.75,0.0066
1328.50,0.0066
1328.25,0.0066
1328.00,0.0066
1327.75,0.0066
1327.50,0.0067
1327.25,0.0067
1327.00,0.0068
1326.75,0.0068
1326.50,0.0068
1326.25,0.0067
1326.00,0.0067
1325.75,0.0068
1325.50,0.0068
1325.25,0.0069
1325.00,0.0068
1324.75,0.0068
1324.50,0.0067
1324.25,0.0066
1324.00,0.0066
1323.75,0.0066
1323.50,0.0067
1323.25,0.0068
1323.00,0.0069
1322.75,0.0070
1322.50,0.0071
1322.25,0.0071
1322.00,0.0071
1321.75,0.0071
1321.50,0.0070
1321.25,0.0070
1321.00,0.0071
1320.75,0.0072
1320.50,0.0072
1320.25,0.0073
1320.00,0.0072
1319.75,0.0072
1319.50,0.0072
1319.25,0.0073
1319.00,0.0073
1318.75,0.0073
1318.50,0.0073
1318.25,0.0073
1318.00,0.0073
1317.75,0.0073
1317.50,0.0072
1317.25,0.0071
1317.00,0.0070
1316.75,0.0069
1316.50,0.0069
1316.25,0.0069
1316.00,0.0069
1315.75,0.0070
1315.50,0.0070
1315.25,0.0071
1315.00,0.0071
1314.75,0.0070
1314.50,0.0069
1314.25,0.0069
1314.00,0.0069
1313.75,0.0069
1313.50,0.0070
1313.25,0.0071
1313.00,0.0072
1312.75,0.0072
1312.50,0.0072
1312.25,0.0071
1312.00,0.0070
1311.75,0.0068
1311.50,0.0068
1311.25,0.0068
1311.00,0.0069
1310.75,0.0070
1310.50,0.0070
1310.25,0.0071
1310.00,0.0071
1309.75,0.0072
1309.50,0.0071
1309.25,0.0071
1309.00,0.0070
1308.75,0.0070
1308.50,0.0071
1308.25,0.0072
1308.00,0.0073
1307.75,0.0073
1307.50,0.0074
1307.25,0.0073
1307.00,0.0073
1306.75,0.0072
1306.50,0.0072
1306.25,0.0072
1306.00,0.0072
1305.75,0.0073
1305.50,0.0073
1305.25,0.0073
1305.00,0.0072
1304.75,0.0071
1304.50,0.0071
1304.25,0.0071
1304.00,0.0072
1303.75,0.0073
1303.50,0.0073
1303.25,0.0074
1303.00,0.0074
1302.75,0.0074
1302.50,0.0073
1302.25,0.0073
1302.00,0.0073
1301.75,0.0073
1301.50,0.0075
1301.25,0.0075
1301.00,0.0075
1300.75,0.0074
1300.50,0.0072
1300.25,0.0071
1300.00,0.0071
1299.75,0.0071
1299.50,0.0072
1299.25,0.0073
1299.00,0.0073
1298.75,0.0074
1298.50,0.0075
1298.25,0.0076
1298.00,0.0076
1297.75,0.0076
1297.50,0.0076
1297.25,0.0076
1297.00,0.0075
1296.75,0.0074
1296.50,0.0074
1296.25,0.0074
1296.00,0.0074
1295.75,0.0074
1295.50,0.0074
1295.25,0.0074
1295.00,0.0074
1294.75,0.0074
1294.50,0.0075
1294.25,0.0075
1294.00,0.0076
1293.75,0.0076
1293.50,0.0075
1293.25,0.0075
1293.00,0.0076
1292.75,0.0077
1292.50,0.0078
1292.25,0.0079
1292.00,0.0078
1291.75,0.0078
1291.50,0.0077
1291.25,0.0077
1291.00,0.0077
1290.75,0.0078
1290.50,0.0078
1290.25,0.0078
1290.00,0.0078
1289.75,0.0078
1289.50,0.0078
1289.25,0.0079
1289.00,0.0079
1288.75,0.0080
1288.50,0.0080
1288.25,0.0080
1288.00,0.0079
1287.75,0.0079
1287.50,0.0078
1287.25,0.0078
1287.00,0.0077
1286.75,0.0076
1286.50,0.0075
1286.25,0.0076
1286.00,0.0077
1285.75,0.0078
1285.50,0.0080
1285.25,0.0081
1285.00,0.0082
1284.75,0.0083
1284.50,0.0083
1284.25,0.0084
1284.00,0.0083
1283.75,0.0082
1283.50,0.0081
1283.25,0.0080
1283.00,0.0080
1282.75,0.0080
1282.50,0.0080
1282.25,0.0081
1282.00,0.0082
1281.75,0.0083
1281.50,0.0084
1281.25,0.0085
1281.00,0.0085
1280.75,0.0086
1280.50,0.0087
1280.25,0.0087
1280.00,0.0087
1279.75,0.0086
1279.50,0.0086
1279.25,0.0087
1279.00,0.0088
1278.75,0.0091
1278.50,0.0092
1278.25,0.0093
1278.00,0.0093
1277.75,0.0093
1277.50,0.0094
1277.25,0.0094
1277.00,0.0095
1276.75,0.0095
1276.50,0.0096
1276.25,0.0096
1276.00,0.0097
1275.75,0.0098
1275.50,0.0099
1275.25,0.0100
1275.00,0.0101
1274.75,0.0101
1274.50,0.0100
1274.25,0.0100
1274.00,0.0101
1273.75,0.0103
1273.50,0.0106
1273.25,0.0109
1273.00,0.0111
1272.75,0.0113
1272.50,0.0115
1272.25,0.0117
1272.00,0.0119
1271.75,0.0122
1271.50,0.0124
1271.25,0.0127
1271.00,0.0129
1270.75,0.0132
1270.50,0.0135
1270.25,0.0138
1270.00,0.0142
1269.75,0.0145
1269.50,0.0147
1269.25,0.0150
1269.00,0.0153
1268.75,0.0157
1268.50,0.0162
1268.25,0.0169
1268.00,0.0176
1267.75,0.0183
1267.50,0.0189
1267.25,0.0196
1267.00,0.0202
1266.75,0.0209
1266.50,0.0218
1266.25,0.0227
1266.00,0.0237
1265.75,0.0246
1265.50,0.0254
1265.25,0.0263
1265.00,0.0272
1264.75,0.0283
1264.50,0.0294
1264.25,0.0306
1264.00,0.0317
1263.75,0.0328
1263.50,0.0338
1263.25,0.0349
1263.00,0.0360
1262.75,0.0371
1262.50,0.0381
1262.25,0.0391
1262.00,0.0399
1261.75,0.0407
1261.50,0.0415
1261.25,0.0422
1261.00,0.0431
1260.75,0.0440
1260.50,0.0449
1260.25,0.0457
1260.00,0.0464
1259.75,0.0468
1259.50,0.0471
1259.25,0.0472
1259.00,0.0472
1258.75,0.0472
1258.50,0.0473
1258.25,0.0474
1258.00,0.0476
1257.75,0.0476
1257.50,0.0476
1257.25,0.0473
1257.00,0.0470
1256.75,0.0465
1256.50,0.0460
1256.25,0.0454
1256.00,0.0449
1255.75,0.0443
1255.50,0.0438
1255.25,0.0433
1255.00,0.0427
1254.75,0.0421
1254.50,0.0415
1254.25,0.0409
1254.00,0.0403
1253.75,0.0397
1253.50,0.0391
1253.25,0.0385
1253.00,0.0379
1252.75,0.0373
1252.50,0.0365
1252.25,0.0356
1252.00,0.0346
1251.75,0.0336
1251.50,0.0327
1251.25,0.0317
1251.00,0.0308
1250.75,0.0299
1250.50,0.0290
1250.25,0.0282
1250.00,0.0274
1249.75,0.0266
1249.50,0.0258
1249.25,0.0249
1249.00,0.0239
1248.75,0.0230
1248.50,0.0221
1248.25,0.0213
1248.00,0.0207
1247.75,0.0201
1247.50,0.0195
1247.25,0.0189
1247.00,0.0183
1246.75,0.0178
1246.50,0.0173
1246.25,0.0168
1246.00,0.0162
1245.75,0.0157
1245.50,0.0153
1245.25,0.0149
1245.00,0.0145
1244.75,0.0142
1244.50,0.0140
1244.25,0.0138
1244.00,0.0136
1243.75,0.0134
1243.50,0.0132
1243.25,0.0130
1243.00,0.0128
1242.75,0.0127
1242.50,0.0126
1242.25,0.0125
1242.00,0.0123
1241.75,0.0120
1241.50,0.0119
1241.25,0.0118
1241.00,0.0118
1240.75,0.0118
1240.50,0.0118
1240.25,0.0116
1240.00,0.0115
1239.75,0.0113
1239.50,0.0111
1239.25,0.0110
1239.00,0.0109
1238.75,0.0109
1238.50,0.0108
1238.25,0.0109
1238.00,0.0109
1237.75,0.0109
1237.50,0.0109
1237.25,0.0108
1237.00,0.0108
1236.75,0.0107
1236.50,0.0106
1236.25,0.0105
1236.00,0.0104
1235.75,0.0104
1235.50,0.0104
1235.25,0.0104
1235.00,0.0104
1234.75,0.0103
1234.50,0.0102
1234.25,0.0101
1234.00,0.0099
1233.75,0.0098
1233.50,0.0098
1233.25,0.0097
1233.00,0.0097
1232.75,0.0097
1232.50,0.0098
1232.25,0.0098
1232.00,0.0099
1231.75,0.0099
1231.50,0.0100
1231.25,0.0101
1231.00,0.0100
1230.75,0.0099
1230.50,0.0099
1230.25,0.0099
1230.00,0.0099
1229.75,0.0100
1229.50,0.0101
1229.25,0.0102
1229.00,0.0102
1228.75,0.0102
1228.50,0.0102
1228.25,0.0102
1228.00,0.0102
1227.75,0.0101
1227.50,0.0100
1227.25,0.0100
1227.00,0.0099
1226.75,0.0098
1226.50,0.0097
1226.25,0.0097
1226.00,0.0097
1225.75,0.0097
1225.50,0.0098
1225.25,0.0100
1225.00,0.0100
1224.75,0.0100
1224.50,0.0100
1224.25,0.0099
1224.00,0.0099
1223.75,0.0100
1223.50,0.0101
1223.25,0.0101
1223.00,0.0102
1222.75,0.0101
1222.50,0.0100
1222.25,0.0100
1222.00,0.0100
1221.75,0.0101
1221.50,0.0101
1221.25,0.0101
1221.00,0.0100
1220.75,0.0100
1220.50,0.0100
1220.25,0.0101
1220.00,0.0101
1219.75,0.0102
1219.50,0.0103
1219.25,0.0104
1219.00,0.0106
1218.75,0.0108
1218.50,0.0109
1218.25,0.0110
1218.00,0.0110
1217.75,0.0108
1217.50,0.0107
1217.25,0.0106
1217.00,0.0106
1216.75,0.0106
1216.50,0.0107
1216.25,0.0108
1216.00,0.0108
1215.75,0.0109
1215.50,0.0109
1215.25,0.0109
1215.00,0.0109
1214.75,0.0110
1214.50,0.0110
1214.25,0.0110
1214.00,0.0110
1213.75,0.0110
1213.50,0.0110
1213.25,0.0111
1213.00,0.0112
1212.75,0.0113
1212.50,0.0113
1212.25,0.0114
1212.00,0.0115
1211.75,0.0116
1211.50,0.0117
1211.25,0.0118
1211.00,0.0119
1210.75,0.0119
1210.50,0.0118
1210.25,0.0117
1210.00,0.0116
1209.75,0.0116
1209.50,0.0116
1209.25,0.0117
1209.00,0.0118
1208.75,0.0119
1208.50,0.0119
1208.25,0.0119
1208.00,0.0118
1207.75,0.0117
1207.50,0.0116
1207.25,0.0116
1207.00,0.0117
1206.75,0.0118
1206.50,0.0119
1206.25,0.0119
1206.00,0.0119
1205.75,0.0118
1205.50,0.0118
1205.25,0.0119
1205.00,0.0120
1204.75,0.0122
1204.50,0.0122
1204.25,0.0123
1204.00,0.0123
1203.75,0.0124
1203.50,0.0125
1203.25,0.0126
1203.00,0.0127
1202.75,0.0127
1202.50,0.0128
1202.25,0.0127
1202.00,0.0127
1201.75,0.0126
1201.50,0.0126
1201.25,0.0125
1201.00,0.0125
1200.75,0.0125
1200.50,0.0125
1200.25,0.0125
1200.00,0.0124
1199.75,0.0125
1199.50,0.0126
1199.25,0.0128
1199.00,0.0129
1198.75,0.0131
1198.50,0.0132
1198.25,0.0133
1198.00,0.0133
1197.75,0.0132
1197.50,0.0131
1197.25,0.0130
1197.00,0.0130
1196.75,0.0130
1196.50,0.0130
1196.25,0.0131
1196.00,0.0131
1195.75,0.0131
1195.50,0.0131
1195.25,0.0132
1195.00,0.0132
1194.75,0.0133
1194.50,0.0133
1194.25,0.0133
1194.00,0.0133
1193.75,0.0133
1193.50,0.0132
1193.25,0.0131
1193.00,0.0131
1192.75,0.0131
1192.50,0.0132
1192.25,0.0133
1192.00,0.0134
1191.75,0.0133
1191.50,0.0133
1191.25,0.0133
1191.00,0.0132
1190.75,0.0132
1190.50,0.0132
1190.25,0.0132
1190.00,0.0132
1189.75,0.0132
1189.50,0.0131
1189.25,0.0130
1189.00,0.0130
1188.75,0.0130
1188.50,0.0131
1188.25,0.0133
1188.00,0.0135
1187.75,0.0137
1187.50,0.0138
1187.25,0.0139
1187.00,0.0140
1186.75,0.0140
1186.50,0.0139
1186.25,0.0138
1186.00,0.0137
1185.75,0.0136
1185.50,0.0135
1185.25,0.0135
1185.00,0.0136
1184.75,0.0137
1184.50,0.0138
1184.25,0.0138
1184.00,0.0138
1183.75,0.0137
1183.50,0.0136
1183.25,0.0136
1183.00,0.0137
1182.75,0.0137
1182.50,0.0137
1182.25,0.0136
1182.00,0.0136
1181.75,0.0136
1181.50,0.0136
1181.25,0.0136
1181.00,0.0137
1180.75,0.0137
1180.50,0.0138
1180.25,0.0138
1180.00,0.0138
1179.75,0.0139
1179.50,0.0140
1179.25,0.0142
1179.00,0.0143
1178.75,0.0143
1178.50,0.0142
1178.25,0.0141
1178.00,0.0139
1177.75,0.0139
1177.50,0.0138
1177.25,0.0138
1177.00,0.0138
1176.75,0.0138
1176.50,0.0139
1176.25,0.0141
1176.00,0.0142
1175.75,0.0142
1175.50,0.0140
1175.25,0.0138
1175.00,0.0137
1174.75,0.0136
1174.50,0.0137
1174.25,0.0139
1174.00,0.0141
1173.75,0.0141
1173.50,0.0141
1173.25,0.0140
1173.00,0.0140
1172.75,0.0140
1172.50,0.0141
1172.25,0.0141
1172.00,0.0141
1171.75,0.0140
1171.50,0.0139
1171.25,0.0138
1171.00,0.0138
1170.75,0.0139
1170.50,0.0140
1170.25,0.0142
1170.00,0.0144
1169.75,0.0144
1169.50,0.0144
1169.25,0.0143
1169.00,0.0142
1168.75,0.0141
1168.50,0.0140
1168.25,0.0140
1168.00,0.0140
1167.75,0.0139
1167.50,0.0138
1167.25,0.0138
1167.00,0.0139
1166.75,0.0139
1166.50,0.0140
1166.25,0.0141
1166.00,0.0142
1165.75,0.0144
1165.50,0.0145
1165.25,0.0147
1165.00,0.0147
1164.75,0.0146
1164.50,0.0145
1164.25,0.0144
1164.00,0.0143
1163.75,0.0143
1163.50,0.0143
1163.25,0.0143
1163.00,0.0142
1162.75,0.0141
1162.50,0.0140
1162.25,0.0139
1162.00,0.0139
1161.75,0.0140
1161.50,0.0140
1161.25,0.0141
1161.00,0.0142
1160.75,0.0143
1160.50,0.0144
1160.25,0.0145
1160.00,0.0144
1159.75,0.0142
1159.50,0.0141
1159.25,0.0139
1159.00,0.0139
1158.75,0.0139
1158.50,0.0139
1158.25,0.0141
1158.00,0.0142
1157.75,0.0144
1157.50,0.0145
1157.25,0.0145
1157.00,0.0145
1156.75,0.0145
1156.50,0.0145
1156.25,0.0145
1156.00,0.0146
1155.75,0.0146
1155.50,0.0147
1155.25,0.0148
1155.00,0.0149
1154.75,0.0149
1154.50,0.0149
1154.25,0.0150
1154.00,0.0150
1153.75,0.0149
1153.50,0.0148
1153.25,0.0147
1153.00,0.0147
1152.75,0.0146
1152.50,0.0146
1152.25,0.0145
1152.00,0.0146
1151.75,0.0148
1151.50,0.0150
1151.25,0.0152
1151.00,0.0153
1150.75,0.0154
1150.50,0.0155
1150.25,0.0156
1150.00,0.0156
1149.75,0.0156
1149.50,0.0156
1149.25,0.0155
1149.00,0.0154
1148.75,0.0153
1148.50,0.0151
1148.25,0.0149
1148.00,0.0149
1147.75,0.0150
1147.50,0.0152
1147.25,0.0154
1147.00,0.0155
1146.75,0.0156
1146.50,0.0156
1146.25,0.0156
1146.00,0.0157
1145.75,0.0157
1145.50,0.0158
1145.25,0.0158
1145.00,0.0159
1144.75,0.0159
1144.50,0.0159
1144.25,0.0158
1144.00,0.0158
1143.75,0.0158
1143.50,0.0158
1143.25,0.0160
1143.00,0.0161
1142.75,0.0163
1142.50,0.0164
1142.25,0.0166
1142.00,0.0166
1141.75,0.0166
1141.50,0.0165
1141.25,0.0164
1141.00,0.0163
1140.75,0.0163
1140.50,0.0163
1140.25,0.0163
1140.00,0.0164
1139.75,0.0165
1139.50,0.0167
1139.25,0.0168
1139.00,0.0170
1138.75,0.0171
1138.50,0.0172
1138.25,0.0173
1138.00,0.0174
1137.75,0.0175
1137.50,0.0176
1137.25,0.0176
1137.00,0.0176
1136.75,0.0176
1136.50,0.0175
1136.25,0.0174
1136.00,0.0173
1135.75,0.0173
1135.50,0.0173
1135.25,0.0175
1135.00,0.0176
1134.75,0.0177
1134.50,0.0177
1134.25,0.0176
1134.00,0.0175
1133.75,0.0175
1133.50,0.0175
1133.25,0.0176
1133.00,0.0177
1132.75,0.0177
1132.50,0.0178
1132.25,0.0178
1132.00,0.0178
1131.75,0.0179
1131.50,0.0180
1131.25,0.0182
1131.00,0.0184
1130.75,0.0187
1130.50,0.0190
1130.25,0.0191
1130.00,0.0191
1129.75,0.0190
1129.50,0.0189
1129.25,0.0188
1129.00,0.0189
1128.75,0.0189
1128.50,0.0189
1128.25,0.0190
1128.00,0.0190
1127.75,0.0192
1127.50,0.0193
1127.25,0.0195
1127.00,0.0197
1126.75,0.0199
1126.50,0.0200
1126.25,0.0200
1126.00,0.0199
1125.75,0.0199
1125.50,0.0200
1125.25,0.0202
1125.00,0.0204
1124.75,0.0205
1124.50,0.0205
1124.25,0.0205
1124.00,0.0206
1123.75,0.0207
1123.50,0.0209
1123.25,0.0212
1123.00,0.0216
1122.75,0.0220
1122.50,0.0222
1122.25,0.0225
1122.00,0.0227
1121.75,0.0228
1121.50,0.0229
1121.25,0.0228
1121.00,0.0226
1120.75,0.0225
1120.50,0.0226
1120.25,0.0230
1120.00,0.0234
1119.75,0.0237
1119.50,0.0239
1119.25,0.0239
1119.00,0.0239
1118.75,0.0239
1118.50,0.0239
1118.25,0.0239
1118.00,0.0241
1117.75,0.0243
1117.50,0.0247
1117.25,0.0250
1117.00,0.0252
1116.75,0.0253
1116.50,0.0254
1116.25,0.0255
1116.00,0.0257
1115.75,0.0261
1115.50,0.0265
1115.25,0.0268
1115.00,0.0270
1114.75,0.0270
1114.50,0.0269
1114.25,0.0269
1114.00,0.0271
1113.75,0.0275
1113.50,0.0279
1113.25,0.0284
1113.00,0.0287
1112.75,0.0289
1112.50,0.0289
1112.25,0.0289
1112.00,0.0290
1111.75,0.0292
1111.50,0.0295
1111.25,0.0299
1111.00,0.0303
1110.75,0.0306
1110.50,0.0309
1110.25,0.0312
1110.00,0.0316
1109.75,0.0319
1109.50,0.0321
1109.25,0.0322
1109.00,0.0322
1108.75,0.0322
1108.50,0.0323
1108.25,0.0326
1108.00,0.0329
1107.75,0.0332
1107.50,0.0335
1107.25,0.0339
1107.00,0.0342
1106.75,0.0346
1106.50,0.0350
1106.25,0.0354
1106.00,0.0357
1105.75,0.0361
1105.50,0.0365
1105.25,0.0367
1105.00,0.0368
1104.75,0.0368
1104.50,0.0369
1104.25,0.0371
1104.00,0.0374
1103.75,0.0378
1103.50,0.0381
1103.25,0.0384
1103.00,0.0387
1102.75,0.0391
1102.50,0.0394
1102.25,0.0397
1102.00,0.0401
1101.75,0.0406
1101.50,0.0411
1101.25,0.0414
1101.00,0.0417
1100.75,0.0420
1100.50,0.0423
1100.25,0.0427
1100.00,0.0431
1099.75,0.0434
1099.50,0.0436
1099.25,0.0437
1099.00,0.0438
1098.75,0.0441
1098.50,0.0446
1098.25,0.0451
1098.00,0.0456
1097.75,0.0459
1097.50,0.0462
1097.25,0.0463
1097.00,0.0464
1096.75,0.0464
1096.50,0.0465
1096.25,0.0467
1096.00,0.0471
1095.75,0.0475
1095.50,0.0479
1095.25,0.0483
1095.00,0.0486
1094.75,0.0490
1094.50,0.0495
1094.25,0.0501
1094.00,0.0508
1093.75,0.0514
1093.50,0.0518
1093.25,0.0521
1093.00,0.0523
1092.75,0.0524
1092.50,0.0525
1092.25,0.0528
1092.00,0.0532
1091.75,0.0535
1091.50,0.0536
1091.25,0.0535
1091.00,0.0535
1090.75,0.0537
1090.50,0.0541
1090.25,0.0547
1090.00,0.0553
1089.75,0.0557
1089.50,0.0560
1089.25,0.0562
1089.00,0.0564
1088.75,0.0567
1088.50,0.0571
1088.25,0.0575
1088.00,0.0578
1087.75,0.0581
1087.50,0.0583
1087.25,0.0585
1087.00,0.0589
1086.75,0.0593
1086.50,0.0597
1086.25,0.0600
1086.00,0.0602
1085.75,0.0604
1085.50,0.0605
1085.25,0.0606
1085.00,0.0606
1084.75,0.0606
1084.50,0.0607
1084.25,0.0608
1084.00,0.0610
1083.75,0.0612
1083.50,0.0614
1083.25,0.0617
1083.00,0.0619
1082.75,0.0622
1082.50,0.0624
1082.25,0.0626
1082.00,0.0628
1081.75,0.0631
1081.50,0.0633
1081.25,0.0636
1081.00,0.0638
1080.75,0.0639
1080.50,0.0640
1080.25,0.0640
1080.00,0.0641
1079.75,0.0643
1079.50,0.0645
1079.25,0.0646
1079.00,0.0648
1078.75,0.0649
1078.50,0.0650
1078.25,0.0651
1078.00,0.0652
1077.75,0.0652
1077.50,0.0653
1077.25,0.0653
1077.00,0.0654
1076.75,0.0656
1076.50,0.0658
1076.25,0.0661
1076.00,0.0663
1075.75,0.0663
1075.50,0.0661
1075.25,0.0660
1075.00,0.0660
1074.75,0.0662
1074.50,0.0664
1074.25,0.0666
1074.00,0.0667
1073.75,0.0669
1073.50,0.0671
1073.25,0.0674
1073.00,0.0677
1072.75,0.0678
1072.50,0.0677
1072.25,0.0675
1072.00,0.0672
1071.75,0.0671
1071.50,0.0672
1071.25,0.0674
1071.00,0.0677
1070.75,0.0678
1070.50,0.0680
1070.25,0.0681
1070.00,0.0682
1069.75,0.0684
1069.50,0.0686
1069.25,0.0687
1069.00,0.0688
1068.75,0.0688
1068.50,0.0687
1068.25,0.0687
1068.00,0.0688
1067.75,0.0689
1067.50,0.0692
1067.25,0.0695
1067.00,0.0697
1066.75,0.0700
1066.50,0.0701
1066.25,0.0700
1066.00,0.0699
1065.75,0.0698
1065.50,0.0698
1065.25,0.0700
1065.00,0.0701
1064.75,0.0701
1064.50,0.0699
1064.25,0.0697
1064.00,0.0695
1063.75,0.0694
1063.50,0.0694
1063.25,0.0694
1063.00,0.0695
1062.75,0.0696
1062.50,0.0697
1062.25,0.0698
1062.00,0.0699
1061.75,0.0700
1061.50,0.0701
1061.25,0.0702
1061.00,0.0702
1060.75,0.0702
1060.50,0.0700
1060.25,0.0699
1060.00,0.0700
1059.75,0.0701
1059.50,0.0703
1059.25,0.0704
1059.00,0.0706
1058.75,0.0707
1058.50,0.0708
1058.25,0.0708
1058.00,0.0708
1057.75,0.0708
1057.50,0.0707
1057.25,0.0705
1057.00,0.0702
1056.75,0.0699
1056.50,0.0698
1056.25,0.0700
1056.00,0.0702
1055.75,0.0703
1055.50,0.0703
1055.25,0.0700
1055.00,0.0697
1054.75,0.0694
1054.50,0.0693
1054.25,0.0694
1054.00,0.0697
1053.75,0.0699
1053.50,0.0700
1053.25,0.0698
1053.00,0.0695
1052.75,0.0693
1052.50,0.0692
1052.25,0.0693
1052.00,0.0694
1051.75,0.0693
1051.50,0.0691
1051.25,0.0690
1051.00,0.0690
1050.75,0.0691
1050.50,0.0693
1050.25,0.0694
1050.00,0.0693
1049.75,0.0691
1049.50,0.0688
1049.25,0.0685
1049.00,0.0683
1048.75,0.0684
1048.50,0.0686
1048.25,0.0687
1048.00,0.0687
1047.75,0.0685
1047.50,0.0685
1047.25,0.0685
1047.00,0.0686
1046.75,0.0687
1046.50,0.0687
1046.25,0.0685
1046.00,0.0683
1045.75,0.0681
1045.50,0.0682
1045.25,0.0685
1045.00,0.0688
1044.75,0.0689
1044.50,0.0689
1044.25,0.0688
1044.00,0.0686
1043.75,0.0685
1043.50,0.0683
1043.25,0.0682
1043.00,0.0680
1042.75,0.0679
1042.50,0.0679
1042.25,0.0679
1042.00,0.0680
1041.75,0.0682
1041.50,0.0683
1041.25,0.0685
1041.00,0.0687
1040.75,0.0689
1040.50,0.0691
1040.25,0.0693
1040.00,0.0694
1039.75,0.0694
1039.50,0.0693
1039.25,0.0692
1039.00,0.0690
1038.75,0.0688
1038.50,0.0687
1038.25,0.0685
1038.00,0.0684
1037.75,0.0684
1037.50,0.0685
1037.25,0.0687
1037.00,0.0690
1036.75,0.0694
1036.50,0.0696
1036.25,0.0699
1036.00,0.0701
1035.75,0.0703
1035.50,0.0705
1035.25,0.0707
1035.00,0.0708
1034.75,0.0707
1034.50,0.0706
1034.25,0.0704
1034.00,0.0701
1033.75,0.0700
1033.50,0.0701
1033.25,0.0703
1033.00,0.0706
1032.75,0.0710
1032.50,0.0713
1032.25,0.0715
1032.00,0.0715
1031.75,0.0716
1031.50,0.0717
1031.25,0.0720
1031.00,0.0723
1030.75,0.0726
1030.50,0.0729
1030.25,0.0730
1030.00,0.0731
1029.75,0.0732
1029.50,0.0734
1029.25,0.0737
1029.00,0.0741
1028.75,0.0744
1028.50,0.0747
1028.25,0.0748
1028.00,0.0747
1027.75,0.0745
1027.50,0.0743
1027.25,0.0742
1027.00,0.0743
1026.75,0.0745
1026.50,0.0747
1026.25,0.0750
1026.00,0.0754
1025.75,0.0758
1025.50,0.0761
1025.25,0.0765
1025.00,0.0768
1024.75,0.0770
1024.50,0.0772
1024.25,0.0774
1024.00,0.0775
1023.75,0.0777
1023.50,0.0779
1023.25,0.0783
1023.00,0.0787
1022.75,0.0791
1022.50,0.0793
1022.25,0.0794
1022.00,0.0794
1021.75,0.0796
1021.50,0.0797
1021.25,0.0799
1021.00,0.0801
1020.75,0.0804
1020.50,0.0807
1020.25,0.0811
1020.00,0.0816
1019.75,0.0820
1019.50,0.0824
1019.25,0.0826
1019.00,0.0828
1018.75,0.0830
1018.50,0.0834
1018.25,0.0839
1018.00,0.0844
1017.75,0.0847
1017.50,0.0849
1017.25,0.0850
1017.00,0.0852
1016.75,0.0854
1016.50,0.0857
1016.25,0.0860
1016.00,0.0863
1015.75,0.0866
1015.50,0.0870
1015.25,0.0874
1015.00,0.0878
1014.75,0.0880
1014.50,0.0882
1014.25,0.0882
1014.00,0.0883
1013.75,0.0884
1013.50,0.0887
1013.25,0.0890
1013.00,0.0892
1012.75,0.0892
1012.50,0.0891
1012.25,0.0889
1012.00,0.0886
1011.75,0.0885
1011.50,0.0884
1011.25,0.0883
1011.00,0.0882
1010.75,0.0881
1010.50,0.0879
1010.25,0.0877
1010.00,0.0873
1009.75,0.0870
1009.50,0.0865
1009.25,0.0861
1009.00,0.0857
1008.75,0.0852
1008.50,0.0846
1008.25,0.0840
1008.00,0.0834
1007.75,0.0829
1007.50,0.0824
1007.25,0.0818
1007.00,0.0811
1006.75,0.0803
1006.50,0.0794
1006.25,0.0785
1006.00,0.0776
1005.75,0.0767
1005.50,0.0757
1005.25,0.0747
1005.00,0.0737
1004.75,0.0728
1004.50,0.0720
1004.25,0.0715
1004.00,0.0709
1003.75,0.0702
1003.50,0.0694
1003.25,0.0684
1003.00,0.0673
1002.75,0.0661
1002.50,0.0648
1002.25,0.0637
1002.00,0.0627
1001.75,0.0619
1001.50,0.0612
1001.25,0.0605
1001.00,0.0597
1000.75,0.0589
1000.50,0.0580
1000.25,0.0570
1000.00,0.0559
999.75,0.0547
999.50,0.0535
999.25,0.0524
999.00,0.0516
998.75,0.0509
998.50,0.0503
998.25,0.0496
998.00,0.0488
997.75,0.0479
997.50,0.0470
997.25,0.0463
997.00,0.0456
996.75,0.0449
996.50,0.0444
996.25,0.0438
996.00,0.0432
995.75,0.0426
995.50,0.0420
995.25,0.0414
995.00,0.0408
994.75,0.0402
994.50,0.0396
994.25,0.0389
994.00,0.0382
993.75,0.0376
993.50,0.0370
993.25,0.0363
993.00,0.0358
992.75,0.0353
992.50,0.0348
992.25,0.0344
992.00,0.0340
991.75,0.0335
991.50,0.0330
991.25,0.0327
991.00,0.0324
990.75,0.0322
990.50,0.0319
990.25,0.0316
990.00,0.0312
989.75,0.0308
989.50,0.0304
989.25,0.0300
989.00,0.0295
988.75,0.0290
988.50,0.0285
988.25,0.0280
988.00,0.0277
987.75,0.0273
987.50,0.0270
987.25,0.0267
987.00,0.0264
986.75,0.0261
986.50,0.0258
986.25,0.0256
986.00,0.0255
985.75,0.0255
985.50,0.0254
985.25,0.0252
985.00,0.0249
984.75,0.0246
984.50,0.0244
984.25,0.0242
984.00,0.0240
983.75,0.0237
983.50,0.0234
983.25,0.0230
983.00,0.0226
982.75,0.0221
982.50,0.0217
982.25,0.0215
982.00,0.0214
981.75,0.0213
981.50,0.0213
981.25,0.0213
981.00,0.0213
980.75,0.0213
980.50,0.0214
980.25,0.0214
980.00,0.0213
979.75,0.0211
979.50,0.0209
979.25,0.0207
979.00,0.0205
978.75,0.0203
978.50,0.0200
978.25,0.0198
978.00,0.0196
977.75,0.0195
977.50,0.0194
977.25,0.0193
977.00,0.0190
976.75,0.0186
976.50,0.0184
976.25,0.0183
976.00,0.0183
975.75,0.0184
975.50,0.0184
975.25,0.0183
975.00,0.0181
974.75,0.0180
974.50,0.0178
974.25,0.0177
974.00,0.0176
973.75,0.0175
973.50,0.0175
973.25,0.0173
973.00,0.0171
972.75,0.0168
972.50,0.0165
972.25,0.0163
972.00,0.0163
971.75,0.0164
971.50,0.0167
971.25,0.0169
971.00,0.0170
970.75,0.0170
970.50,0.0169
970.25,0.0167
970.00,0.0166
969.75,0.0164
969.50,0.0162
969.25,0.0161
969.00,0.0159
968.75,0.0157
968.50,0.0156
968.25,0.0154
968.00,0.0152
967.75,0.0152
967.50,0.0153
967.25,0.0155
967.00,0.0157
966.75,0.0158
966.50,0.0157
966.25,0.0155
966.00,0.0152
965.75,0.0150
965.50,0.0149
965.25,0.0148
965.00,0.0148
964.75,0.0146
964.50,0.0144
964.25,0.0141
964.00,0.0140
963.75,0.0140
963.50,0.0141
963.25,0.0142
963.00,0.0142
962.75,0.0141
962.50,0.0140
962.25,0.0140
962.00,0.0140
961.75,0.0141
961.50,0.0141
961.25,0.0139
961.00,0.0138
960.75,0.0138
960.50,0.0140
960.25,0.0142
960.00,0.0144
959.75,0.0145
959.50,0.0144
959.25,0.0144
959.00,0.0144
958.75,0.0145
958.50,0.0145
958.25,0.0145
958.00,0.0144
957.75,0.0143
957.50,0.0141
957.25,0.0139
957.00,0.0138
956.75,0.0138
956.50,0.0138
956.25,0.0139
956.00,0.0140
955.75,0.0139
955.50,0.0138
955.25,0.0136
955.00,0.0136
954.75,0.0135
954.50,0.0135
954.25,0.0134
954.00,0.0134
953.75,0.0134
953.50,0.0135
953.25,0.0137
953.00,0.0137
952.75,0.0137
952.50,0.0136
952.25,0.0134
952.00,0.0132
951.75,0.0131
951.50,0.0129
951.25,0.0126
951.00,0.0123
950.75,0.0121
950.50,0.0121
950.25,0.0123
950.00,0.0126
949.75,0.0129
949.50,0.0131
949.25,0.0132
949.00,0.0132
948.75,0.0131
948.50,0.0130
948.25,0.0129
948.00,0.0128
947.75,0.0126
947.50,0.0125
947.25,0.0124
947.00,0.0123
946.75,0.0123
946.50,0.0123
946.25,0.0124
946.00,0.0125
945.75,0.0126
945.50,0.0127
945.25,0.0127
945.00,0.0127
944.75,0.0125
944.50,0.0124
944.25,0.0123
944.00,0.0122
943.75,0.0121
943.50,0.0119
943.25,0.0118
943.00,0.0117
942.75,0.0118
942.50,0.0120
942.25,0.0121
942.00,0.0122
941.75,0.0122
941.50,0.0121
941.25,0.0120
941.00,0.0120
940.75,0.0121
940.50,0.0121
940.25,0.0120
940.00,0.0119
939.75,0.0117
939.50,0.0115
939.25,0.0115
939.00,0.0116
938.75,0.0118
938.50,0.0120
938.25,0.0120
938.00,0.0119
937.75,0.0117
937.50,0.0115
937.25,0.0114
937.00,0.0114
936.75,0.0113
936.50,0.0111
936.25,0.0108
936.00,0.0107
935.75,0.0108
935.50,0.0110
935.25,0.0113
935.00,0.0115
934.75,0.0116
934.50,0.0117
934.25,0.0118
934.00,0.0118
933.75,0.0118
933.50,0.0118
933.25,0.0118
933.00,0.0119
932.75,0.0119
932.50,0.0118
932.25,0.0117
932.00,0.0117
931.75,0.0117
931.50,0.0119
931.25,0.0121
931.00,0.0123
930.75,0.0125
930.50,0.0126
930.25,0.0126
930.00,0.0125
929.75,0.0125
929.50,0.0125
929.25,0.0125
929.00,0.0124
928.75,0.0123
928.50,0.0121
928.25,0.0121
928.00,0.0123
927.75,0.0125
927.50,0.0127
927.25,0.0127
927.00,0.0128
926.75,0.0128
926.50,0.0128
926.25,0.0129
926.00,0.0129
925.75,0.0129
925.50,0.0128
925.25,0.0126
925.00,0.0125
924.75,0.0125
924.50,0.0126
924.25,0.0127
924.00,0.0126
923.75,0.0125
923.50,0.0124
923.25,0.0123
923.00,0.0123
922.75,0.0123
922.50,0.0125
922.25,0.0127
922.00,0.0129
921.75,0.0130
921.50,0.0131
921.25,0.0132
921.00,0.0133
920.75,0.0135
920.50,0.0136
920.25,0.0138
920.00,0.0138
919.75,0.0138
919.50,0.0138
919.25,0.0136
919.00,0.0134
918.75,0.0132
918.50,0.0131
918.25,0.0132
918.00,0.0136
917.75,0.0140
917.50,0.0144
917.25,0.0147
917.00,0.0148
916.75,0.0148
916.50,0.0148
916.25,0.0147
916.00,0.0147
915.75,0.0147
915.50,0.0148
915.25,0.0148
915.00,0.0148
914.75,0.0149
914.50,0.0151
914.25,0.0154
914.00,0.0156
913.75,0.0157
913.50,0.0156
913.25,0.0154
913.00,0.0153
912.75,0.0152
912.50,0.0153
912.25,0.0154
912.00,0.0155
911.75,0.0155
911.50,0.0154
911.25,0.0152
911.00,0.0151
910.75,0.0151
910.50,0.0151
910.25,0.0152
910.00,0.0153
909.75,0.0153
909.50,0.0154
909.25,0.0154
909.00,0.0155
908.75,0.0155
908.50,0.0155
908.25,0.0153
908.00,0.0152
907.75,0.0151
907.50,0.0150
907.25,0.0149
907.00,0.0148
906.75,0.0148
906.50,0.0148
906.25,0.0149
906.00,0.0150
905.75,0.0149
905.50,0.0148
905.25,0.0146
905.00,0.0144
904.75,0.0142
904.50,0.0141
904.25,0.0140
904.00,0.0139
903.75,0.0140
903.50,0.0142
903.25,0.0144
903.00,0.0145
902.75,0.0145
902.50,0.0145
902.25,0.0147
902.00,0.0148
901.75,0.0149
901.50,0.0149
901.25,0.0147
901.00,0.0145
900.75,0.0142
900.50,0.0139
900.25,0.0138
900.00,0.0138
899.75,0.0139
899.50,0.0141
899.25,0.0143
899.00,0.0146
898.75,0.0149
898.50,0.0152
898.25,0.0153
898.00,0.0155
897.75,0.0155
897.50,0.0156
897.25,0.0155
897.00,0.0153
896.75,0.0151
896.50,0.0149
896.25,0.0148
896.00,0.0148
895.75,0.0147
895.50,0.0148
895.25,0.0149
895.00,0.0151
894.75,0.0153
894.50,0.0154
894.25,0.0154
894.00,0.0154
893.75,0.0155
893.50,0.0157
893.25,0.0159
893.00,0.0162
892.75,0.0163
892.50,0.0163
892.25,0.0162
892.00,0.0162
891.75,0.0161
891.50,0.0160
891.25,0.0160
891.00,0.0161
890.75,0.0162
890.50,0.0163
890.25,0.0163
890.00,0.0162
889.75,0.0160
889.50,0.0159
889.25,0.0160
889.00,0.0164
888.75,0.0169
888.50,0.0173
888.25,0.0173
888.00,0.0172
887.75,0.0171
887.50,0.0172
887.25,0.0174
887.00,0.0177
886.75,0.0179
886.50,0.0180
886.25,0.0181
886.00,0.0181
885.75,0.0182
885.50,0.0184
885.25,0.0187
885.00,0.0190
884.75,0.0193
884.50,0.0197
884.25,0.0200
884.00,0.0203
883.75,0.0204
883.50,0.0204
883.25,0.0202
883.00,0.0200
882.75,0.0198
882.50,0.0197
882.25,0.0199
882.00,0.0204
881.75,0.0209
881.50,0.0212
881.25,0.0211
881.00,0.0209
880.75,0.0206
880.50,0.0206
880.25,0.0209
880.00,0.0215
879.75,0.0220
879.50,0.0224
879.25,0.0226
879.00,0.0226
878.75,0.0225
878.50,0.0226
878.25,0.0228
878.00,0.0231
877.75,0.0235
877.50,0.0238
877.25,0.0240
877.00,0.0242
876.75,0.0244
876.50,0.0246
876.25,0.0248
876.00,0.0249
875.75,0.0249
875.50,0.0250
875.25,0.0252
875.00,0.0255
874.75,0.0260
874.50,0.0265
874.25,0.0269
874.00,0.0273
873.75,0.0277
873.50,0.0281
873.25,0.0284
873.00,0.0287
872.75,0.0290
872.50,0.0293
872.25,0.0296
872.00,0.0298
871.75,0.0300
871.50,0.0304
871.25,0.0310
871.00,0.0316
870.75,0.0322
870.50,0.0326
870.25,0.0329
870.00,0.0330
869.75,0.0330
869.50,0.0331
869.25,0.0332
869.00,0.0334
868.75,0.0336
868.50,0.0338
868.25,0.0341
868.00,0.0345
867.75,0.0349
867.50,0.0352
867.25,0.0354
867.00,0.0356
866.75,0.0358
866.50,0.0360
866.25,0.0361
866.00,0.0362
865.75,0.0363
865.50,0.0366
865.25,0.0369
865.00,0.0372
864.75,0.0372
864.50,0.0370
864.25,0.0368
864.00,0.0367
863.75,0.0366
863.50,0.0367
863.25,0.0368
863.00,0.0369
862.75,0.0370
862.50,0.0371
862.25,0.0372
862.00,0.0371
861.75,0.0369
861.50,0.0365
861.25,0.0361
861.00,0.0359
860.75,0.0358
860.50,0.0358
860.25,0.0358
860.00,0.0357
859.75,0.0356
859.50,0.0353
859.25,0.0349
859.00,0.0346
858.75,0.0344
858.50,0.0344
858.25,0.0346
858.00,0.0350
857.75,0.0352
857.50,0.0353
857.25,0.0352
857.00,0.0348
856.75,0.0343
856.50,0.0338
856.25,0.0336
856.00,0.0336
855.75,0.0340
855.50,0.0344
855.25,0.0349
855.00,0.0352
854.75,0.0353
854.50,0.0353
854.25,0.0353
854.00,0.0352
853.75,0.0352
853.50,0.0351
853.25,0.0352
853.00,0.0353
852.75,0.0355
852.50,0.0356
852.25,0.0358
852.00,0.0360
851.75,0.0363
851.50,0.0366
851.25,0.0371
851.00,0.0376
850.75,0.0380
850.50,0.0382
850.25,0.0382
850.00,0.0380
849.75,0.0378
849.50,0.0377
849.25,0.0379
849.00,0.0384
848.75,0.0392
848.50,0.0399
848.25,0.0405
848.00,0.0408
847.75,0.0409
847.50,0.0411
847.25,0.0414
847.00,0.0418
846.75,0.0423
846.50,0.0427
846.25,0.0431
846.00,0.0434
845.75,0.0436
845.50,0.0436
845.25,0.0434
845.00,0.0431
844.75,0.0428
844.50,0.0427
844.25,0.0430
844.00,0.0434
843.75,0.0439
843.50,0.0441
843.25,0.0440
843.00,0.0439
842.75,0.0437
842.50,0.0436
842.25,0.0435
842.00,0.0434
841.75,0.0432
841.50,0.0429
841.25,0.0425
841.00,0.0422
840.75,0.0420
840.50,0.0421
840.25,0.0424
840.00,0.0427
839.75,0.0427
839.50,0.0425
839.25,0.0422
839.00,0.0417
838.75,0.0414
838.50,0.0412
838.25,0.0410
838.00,0.0409
837.75,0.0406
837.50,0.0402
837.25,0.0397
837.00,0.0393
836.75,0.0389
836.50,0.0387
836.25,0.0385
836.00,0.0384
835.75,0.0381
835.50,0.0377
835.25,0.0372
835.00,0.0367
834.75,0.0365
834.50,0.0366
834.25,0.0367
834.00,0.0367
833.75,0.0365
833.50,0.0360
833.25,0.0354
833.00,0.0349
832.75,0.0348
832.50,0.0351
832.25,0.0356
832.00,0.0360
831.75,0.0361
831.50,0.0359
831.25,0.0355
831.00,0.0351
830.75,0.0347
830.50,0.0346
830.25,0.0348
830.00,0.0353
829.75,0.0359
829.50,0.0364
829.25,0.0367
829.00,0.0368
828.75,0.0368
828.50,0.0367
828.25,0.0366
828.00,0.0366
827.75,0.0369
827.50,0.0375
827.25,0.0381
827.00,0.0385
826.75,0.0388
826.50,0.0389
826.25,0.0392
826.00,0.0396
825.75,0.0401
825.50,0.0405
825.25,0.0407
825.00,0.0408
824.75,0.0409
824.50,0.0412
824.25,0.0416
824.00,0.0420
823.75,0.0424
823.50,0.0428
823.25,0.0432
823.00,0.0438
822.75,0.0444
822.50,0.0451
822.25,0.0459
822.00,0.0464
821.75,0.0468
821.50,0.0470
821.25,0.0470
821.00,0.0470
820.75,0.0473
820.50,0.0477
820.25,0.0484
820.00,0.0491
819.75,0.0496
819.50,0.0501
819.25,0.0507
819.00,0.0513
818.75,0.0518
818.50,0.0521
818.25,0.0522
818.00,0.0521
817.75,0.0521
817.50,0.0523
817.25,0.0526
817.00,0.0530
816.75,0.0534
816.50,0.0539
816.25,0.0546
816.00,0.0553
815.75,0.0558
815.50,0.0562
815.25,0.0564
815.00,0.0564
814.75,0.0564
814.50,0.0563
814.25,0.0563
814.00,0.0565
813.75,0.0568
813.50,0.0571
813.25,0.0573
813.00,0.0575
812.75,0.0577
812.50,0.0581
812.25,0.0587
812.00,0.0593
811.75,0.0599
811.50,0.0603
811.25,0.0605
811.00,0.0606
810.75,0.0609
810.50,0.0613
810.25,0.0621
810.00,0.0630
809.75,0.0639
809.50,0.0647
809.25,0.0653
809.00,0.0656
808.75,0.0658
808.50,0.0661
808.25,0.0665
808.00,0.0670
807.75,0.0677
807.50,0.0683
807.25,0.0690
807.00,0.0697
806.75,0.0705
806.50,0.0715
806.25,0.0724
806.00,0.0730
805.75,0.0733
805.50,0.0735
805.25,0.0738
805.00,0.0745
804.75,0.0755
804.50,0.0766
804.25,0.0777
804.00,0.0786
803.75,0.0795
803.50,0.0804
803.25,0.0811
803.00,0.0816
802.75,0.0821
802.50,0.0826
802.25,0.0832
802.00,0.0841
801.75,0.0851
801.50,0.0861
801.25,0.0869
801.00,0.0877
800.75,0.0883
800.50,0.0889
800.25,0.0896
800.00,0.0903
