Created as New Dataset,Sample 026 By irlear Date Wednesday, December 31 2008
cm-1,A
4000.00,0.0010
3999.75,0.0009
3999.50,0.0008
3999.25,0.0007
3999.00,0.0006
3998.75,0.0005
3998.50,0.0004
3998.25,0.0004
3998.00,0.0005
3997.75,0.0006
3997.50,0.0006
3997.25,0.0007
3997.00,0.0008
3996.75,0.0008
3996.50,0.0009
3996.25,0.0010
3996.00,0.0011
3995.75,0.0011
3995.50,0.0011
3995.25,0.0010
3995.00,0.0009
3994.75,0.0009
3994.50,0.0009
3994.25,0.0009
3994.00,0.0008
3993.75,0.0007
3993.50,0.0006
3993.25,0.0005
3993.00,0.0005
3992.75,0.0005
3992.50,0.0006
3992.25,0.0006
3992.00,0.0006
3991.75,0.0006
3991.50,0.0006
3991.25,0.0006
3991.00,0.0005
3990.75,0.0005
3990.50,0.0006
3990.25,0.0006
3990.00,0.0007
3989.75,0.0007
3989.50,0.0007
3989.25,0.0006
3989.00,0.0006
3988.75,0.0006
3988.50,0.0006
3988.25,0.0005
3988.00,0.0005
3987.75,0.0005
3987.50,0.0006
3987.25,0.0007
3987.00,0.0008
3986.75,0.0008
3986.50,0.0009
3986.25,0.0009
3986.00,0.0009
3985.75,0.0009
3985.50,0.0008
3985.25,0.0008
3985.00,0.0007
3984.75,0.0008
3984.50,0.0008
3984.25,0.0010
3984.00,0.0011
3983.75,0.0011
3983.50,0.0011
3983.25,0.0010
3983.00,0.0009
3982.75,0.0008
3982.50,0.0007
3982.25,0.0006
3982.00,0.0006
3981.75,0.0007
3981.50,0.0007
3981.25,0.0008
3981.00,0.0007
3980.75,0.0006
3980.50,0.0005
3980.25,0.0003
3980.00,0.0003
3979.75,0.0002
3979.50,0.0002
3979.25,0.0002
3979.00,0.0002
3978.75,0.0002
3978.50,0.0003
3978.25,0.0004
3978.00,0.0005
3977.75,0.0005
3977.50,0.0005
3977.25,0.0004
3977.00,0.0004
3976.75,0.0004
3976.50,0.0005
3976.25,0.0006
3976.00,0.0006
3975.75,0.0006
3975.50,0.0006
3975.25,0.0005
3975.00,0.0005
3974.75,0.0004
3974.50,0.0004
3974.25,0.0004
3974.00,0.0004
3973.75,0.0005
3973.50,0.0006
3973.25,0.0006
3973.00,0.0007
3972.75,0.0008
3972.50,0.0009
3972.25,0.0009
3972.00,0.0008
3971.75,0.0007
3971.50,0.0006
3971.25,0.0006
3971.00,0.0006
3970.75,0.0006
3970.50,0.0006
3970.25,0.0007
3970.00,0.0008
3969.75,0.0008
3969.50,0.0008
3969.25,0.0007
3969.00,0.0004
3968.75,0.0003
3968.50,0.0002
3968.25,0.0004
3968.00,0.0006
3967.75,0.0008
3967.50,0.0008
3967.25,0.0008
3967.00,0.0008
3966.75,0.0008
3966.50,0.0009
3966.25,0.0010
3966.00,0.0010
3965.75,0.0009
3965.50,0.0008
3965.25,0.0006
3965.00,0.0004
3964.75,0.0003
3964.50,0.0003
3964.25,0.0002
3964.00,0.0003
3963.75,0.0003
3963.50,0.0003
3963.25,0.0004
3963.00,0.0004
3962.75,0.0004
3962.50,0.0004
3962.25,0.0003
3962.00,0.0003
3961.75,0.0003
3961.50,0.0004
3961.25,0.0006
3961.00,0.0008
3960.75,0.0010
3960.50,0.0011
3960.25,0.0012
3960.00,0.0011
3959.75,0.0010
3959.50,0.0009
3959.25,0.0008
3959.00,0.0006
3958.75,0.0006
3958.50,0.0006
3958.25,0.0007
3958.00,0.0009
3957.75,0.0010
3957.50,0.0010
3957.25,0.0009
3957.00,0.0009
3956.75,0.0009
3956.50,0.0009
3956.25,0.0009
3956.00,0.0009
3955.75,0.0009
3955.50,0.0008
3955.25,0.0007
3955.00,0.0006
3954.75,0.0005
3954.50,0.0005
3954.25,0.0005
3954.00,0.0006
3953.75,0.0007
3953.50,0.0008
3953.25,0.0008
3953.00,0.0007
3952.75,0.0006
3952.50,0.0004
3952.25,0.0003
3952.00,0.0002
3951.75,0.0003
3951.50,0.0003
3951.25,0.0004
3951.00,0.0004
3950.75,0.0004
3950.50,0.0004
3950.25,0.0004
3950.00,0.0004
3949.75,0.0006
3949.50,0.0007
3949.25,0.0008
3949.00,0.0008
3948.75,0.0007
3948.50,0.0006
3948.25,0.0005
3948.00,0.0005
3947.75,0.0004
3947.50,0.0003
3947.25,0.0004
3947.00,0.0004
3946.75,0.0005
3946.50,0.0006
3946.25,0.0007
3946.00,0.0007
3945.75,0.0007
3945.50,0.0006
3945.25,0.0006
3945.00,0.0006
3944.75,0.0006
3944.50,0.0007
3944.25,0.0008
3944.00,0.0009
3943.75,0.0009
3943.50,0.0007
3943.25,0.0005
3943.00,0.0002
3942.75,0.0002
3942.50,0.0003
3942.25,0.0005
3942.00,0.0007
3941.75,0.0008
3941.50,0.0008
3941.25,0.0008
3941.00,0.0007
3940.75,0.0007
3940.50,0.0007
3940.25,0.0007
3940.00,0.0007
3939.75,0.0007
3939.50,0.0006
3939.25,0.0006
3939.00,0.0005
3938.75,0.0005
3938.50,0.0005
3938.25,0.0005
3938.00,0.0006
3937.75,0.0006
3937.50,0.0007
3937.25,0.0007
3937.00,0.0007
3936.75,0.0006
3936.50,0.0005
3936.25,0.0004
3936.00,0.0003
3935.75,0.0003
3935.50,0.0003
3935.25,0.0004
3935.00,0.0004
3934.75,0.0005
3934.50,0.0006
3934.25,0.0007
3934.00,0.0009
3933.75,0.0010
3933.50,0.0010
3933.25,0.0010
3933.00,0.0009
3932.75,0.0008
3932.50,0.0008
3932.25,0.0009
3932.00,0.0009
3931.75,0.0009
3931.50,0.0009
3931.25,0.0008
3931.00,0.0007
3930.75,0.0006
3930.50,0.0006
3930.25,0.0006
3930.00,0.0006
3929.75,0.0005
3929.50,0.0005
3929.25,0.0005
3929.00,0.0006
3928.75,0.0007
3928.50,0.0008
3928.25,0.0009
3928.00,0.0010
3927.75,0.0010
3927.50,0.0010
3927.25,0.0009
3927.00,0.0008
3926.75,0.0007
3926.50,0.0006
3926.25,0.0005
3926.00,0.0005
3925.75,0.0005
3925.50,0.0006
3925.25,0.0008
3925.00,0.0009
3924.75,0.0011
3924.50,0.0011
3924.25,0.0010
3924.00,0.0008
3923.75,0.0006
3923.50,0.0005
3923.25,0.0004
3923.00,0.0005
3922.75,0.0006
3922.50,0.0008
3922.25,0.0009
3922.00,0.0009
3921.75,0.0009
3921.50,0.0008
3921.25,0.0007
3921.00,0.0006
3920.75,0.0006
3920.50,0.0005
3920.25,0.0005
3920.00,0.0005
3919.75,0.0005
3919.50,0.0005
3919.25,0.0005
3919.00,0.0004
3918.75,0.0005
3918.50,0.0005
3918.25,0.0005
3918.00,0.0006
3917.75,0.0006
3917.50,0.0006
3917.25,0.0006
3917.00,0.0006
3916.75,0.0007
3916.50,0.0009
3916.25,0.0009
3916.00,0.0010
3915.75,0.0010
3915.50,0.0010
3915.25,0.0011
3915.00,0.0011
3914.75,0.0011
3914.50,0.0010
3914.25,0.0009
3914.00,0.0008
3913.75,0.0008
3913.50,0.0008
3913.25,0.0007
3913.00,0.0007
3912.75,0.0006
3912.50,0.0005
3912.25,0.0005
3912.00,0.0005
3911.75,0.0005
3911.50,0.0006
3911.25,0.0007
3911.00,0.0007
3910.75,0.0008
3910.50,0.0008
3910.25,0.0007
3910.00,0.0006
3909.75,0.0005
3909.50,0.0005
3909.25,0.0004
3909.00,0.0005
3908.75,0.0007
3908.50,0.0008
3908.25,0.0009
3908.00,0.0010
3907.75,0.0009
3907.50,0.0009
3907.25,0.0008
3907.00,0.0007
3906.75,0.0006
3906.50,0.0006
3906.25,0.0006
3906.00,0.0006
3905.75,0.0007
3905.50,0.0008
3905.25,0.0009
3905.00,0.0009
3904.75,0.0009
3904.50,0.0009
3904.25,0.0009
3904.00,0.0008
3903.75,0.0007
3903.50,0.0005
3903.25,0.0004
3903.00,0.0004
3902.75,0.0005
3902.50,0.0006
3902.25,0.0007
3902.00,0.0007
3901.75,0.0007
3901.50,0.0006
3901.25,0.0004
3901.00,0.0003
3900.75,0.0003
3900.50,0.0005
3900.25,0.0006
3900.00,0.0008
3899.75,0.0009
3899.50,0.0009
3899.25,0.0009
3899.00,0.0009
3898.75,0.0009
3898.50,0.0009
3898.25,0.0009
3898.00,0.0008
3897.75,0.0008
3897.50,0.0007
3897.25,0.0008
3897.00,0.0008
3896.75,0.0008
3896.50,0.0008
3896.25,0.0008
3896.00,0.0008
3895.75,0.0008
3895.50,0.0008
3895.25,0.0008
3895.00,0.0008
3894.75,0.0008
3894.50,0.0007
3894.25,0.0007
3894.00,0.0007
3893.75,0.0007
3893.50,0.0007
3893.25,0.0008
3893.00,0.0008
3892.75,0.0009
3892.50,0.0010
3892.25,0.0011
3892.00,0.0011
3891.75,0.0010
3891.50,0.0009
3891.25,0.0010
3891.00,0.0011
3890.75,0.0011
3890.50,0.0010
3890.25,0.0008
3890.00,0.0007
3889.75,0.0005
3889.50,0.0005
3889.25,0.0006
3889.00,0.0007
3888.75,0.0008
3888.50,0.0010
3888.25,0.0010
3888.00,0.0010
3887.75,0.0009
3887.50,0.0007
3887.25,0.0007
3887.00,0.0007
3886.75,0.0009
3886.50,0.0011
3886.25,0.0012
3886.00,0.0011
3885.75,0.0010
3885.50,0.0008
3885.25,0.0008
3885.00,0.0008
3884.75,0.0008
3884.50,0.0009
3884.25,0.0009
3884.00,0.0008
3883.75,0.0007
3883.50,0.0006
3883.25,0.0005
3883.00,0.0006
3882.75,0.0006
3882.50,0.0007
3882.25,0.0008
3882.00,0.0008
3881.75,0.0009
3881.50,0.0010
3881.25,0.0011
3881.00,0.0012
3880.75,0.0011
3880.50,0.0009
3880.25,0.0008
3880.00,0.0007
3879.75,0.0006
3879.50,0.0005
3879.25,0.0005
3879.00,0.0005
3878.75,0.0005
3878.50,0.0006
3878.25,0.0007
3878.00,0.0007
3877.75,0.0007
3877.50,0.0006
3877.25,0.0004
3877.00,0.0003
3876.75,0.0002
3876.50,0.0001
3876.25,0.0002
3876.00,0.0004
3875.75,0.0005
3875.50,0.0007
3875.25,0.0008
3875.00,0.0008
3874.75,0.0008
3874.50,0.0009
3874.25,0.0009
3874.00,0.0011
3873.75,0.0012
3873.50,0.0012
3873.25,0.0012
3873.00,0.0010
3872.75,0.0008
3872.50,0.0007
3872.25,0.0007
3872.00,0.0007
3871.75,0.0008
3871.50,0.0010
3871.25,0.0011
3871.00,0.0012
3870.75,0.0012
3870.50,0.0013
3870.25,0.0012
3870.00,0.0012
3869.75,0.0013
3869.50,0.0014
3869.25,0.0015
3869.00,0.0015
3868.75,0.0013
3868.50,0.0011
3868.25,0.0008
3868.00,0.0007
3867.75,0.0006
3867.50,0.0006
3867.25,0.0006
3867.00,0.0006
3866.75,0.0005
3866.50,0.0005
3866.25,0.0005
3866.00,0.0005
3865.75,0.0006
3865.50,0.0007
3865.25,0.0008
3865.00,0.0009
3864.75,0.0008
3864.50,0.0006
3864.25,0.0005
3864.00,0.0005
3863.75,0.0005
3863.50,0.0007
3863.25,0.0008
3863.00,0.0009
3862.75,0.0009
3862.50,0.0008
3862.25,0.0006
3862.00,0.0004
3861.75,0.0003
3861.50,0.0004
3861.25,0.0005
3861.00,0.0005
3860.75,0.0004
3860.50,0.0004
3860.25,0.0003
3860.00,0.0004
3859.75,0.0004
3859.50,0.0004
3859.25,0.0005
3859.00,0.0005
3858.75,0.0006
3858.50,0.0006
3858.25,0.0007
3858.00,0.0007
3857.75,0.0005
3857.50,0.0004
3857.25,0.0004
3857.00,0.0005
3856.75,0.0007
3856.50,0.0008
3856.25,0.0009
3856.00,0.0010
3855.75,0.0010
3855.50,0.0010
3855.25,0.0011
3855.00,0.0012
3854.75,0.0012
3854.50,0.0010
3854.25,0.0009
3854.00,0.0009
3853.75,0.0009
3853.50,0.0008
3853.25,0.0007
3853.00,0.0008
3852.75,0.0008
3852.50,0.0007
3852.25,0.0007
3852.00,0.0008
3851.75,0.0008
3851.50,0.0008
3851.25,0.0007
3851.00,0.0007
3850.75,0.0008
3850.50,0.0008
3850.25,0.0008
3850.00,0.0007
3849.75,0.0008
3849.50,0.0008
3849.25,0.0010
3849.00,0.0011
3848.75,0.0011
3848.50,0.0011
3848.25,0.0010
3848.00,0.0010
3847.75,0.0010
3847.50,0.0011
3847.25,0.0011
3847.00,0.0011
3846.75,0.0010
3846.50,0.0010
3846.25,0.0009
3846.00,0.0009
3845.75,0.0008
3845.50,0.0007
3845.25,0.0007
3845.00,0.0006
3844.75,0.0006
3844.50,0.0007
3844.25,0.0009
3844.00,0.0010
3843.75,0.0011
3843.50,0.0011
3843.25,0.0011
3843.00,0.0010
3842.75,0.0009
3842.50,0.0009
3842.25,0.0010
3842.00,0.0011
3841.75,0.0012
3841.50,0.0011
3841.25,0.0010
3841.00,0.0009
3840.75,0.0007
3840.50,0.0006
3840.25,0.0006
3840.00,0.0006
3839.75,0.0007
3839.50,0.0009
3839.25,0.0010
3839.00,0.0009
3838.75,0.0009
3838.50,0.0007
3838.25,0.0006
3838.00,0.0005
3837.75,0.0006
3837.50,0.0007
3837.25,0.0007
3837.00,0.0008
3836.75,0.0009
3836.50,0.0009
3836.25,0.0010
3836.00,0.0009
3835.75,0.0007
3835.50,0.0005
3835.25,0.0002
3835.00,0.0001
3834.75,0.0001
3834.50,0.0003
3834.25,0.0005
3834.00,0.0006
3833.75,0.0007
3833.50,0.0008
3833.25,0.0008
3833.00,0.0009
3832.75,0.0009
3832.50,0.0009
3832.25,0.0009
3832.00,0.0008
3831.75,0.0008
3831.50,0.0008
3831.25,0.0009
3831.00,0.0010
3830.75,0.0010
3830.50,0.0009
3830.25,0.0008
3830.00,0.0006
3829.75,0.0005
3829.50,0.0005
3829.25,0.0005
3829.00,0.0006
3828.75,0.0006
3828.50,0.0006
3828.25,0.0006
3828.00,0.0006
3827.75,0.0007
3827.50,0.0008
3827.25,0.0009
3827.00,0.0010
3826.75,0.0011
3826.50,0.0011
3826.25,0.0011
3826.00,0.0010
3825.75,0.0008
3825.50,0.0007
3825.25,0.0007
3825.00,0.0007
3824.75,0.0009
3824.50,0.0010
3824.25,0.0011
3824.00,0.0012
3823.75,0.0011
3823.50,0.0009
3823.25,0.0008
3823.00,0.0008
3822.75,0.0008
3822.50,0.0009
3822.25,0.0011
3822.00,0.0012
3821.75,0.0013
3821.50,0.0012
3821.25,0.0010
3821.00,0.0008
3820.75,0.0008
3820.50,0.0009
3820.25,0.0011
3820.00,0.0011
3819.75,0.0011
3819.50,0.0010
3819.25,0.0008
3819.00,0.0006
3818.75,0.0005
3818.50,0.0004
3818.25,0.0005
3818.00,0.0006
3817.75,0.0007
3817.50,0.0008
3817.25,0.0010
3817.00,0.0012
3816.75,0.0014
3816.50,0.0016
3816.25,0.0018
3816.00,0.0020
3815.75,0.0021
3815.50,0.0019
3815.25,0.0017
3815.00,0.0013
3814.75,0.0011
3814.50,0.0008
3814.25,0.0007
3814.00,0.0008
3813.75,0.0009
3813.50,0.0010
3813.25,0.0010
3813.00,0.0011
3812.75,0.0011
3812.50,0.0010
3812.25,0.0010
3812.00,0.0010
3811.75,0.0010
3811.50,0.0010
3811.25,0.0010
3811.00,0.0009
3810.75,0.0008
3810.50,0.0008
3810.25,0.0008
3810.00,0.0008
3809.75,0.0009
3809.50,0.0009
3809.25,0.0008
3809.00,0.0007
3808.75,0.0007
3808.50,0.0007
3808.25,0.0008
3808.00,0.0010
3807.75,0.0012
3807.50,0.0013
3807.25,0.0013
3807.00,0.0013
3806.75,0.0012
3806.50,0.0011
3806.25,0.0010
3806.00,0.0009
3805.75,0.0008
3805.50,0.0008
3805.25,0.0008
3805.00,0.0009
3804.75,0.0009
3804.50,0.0008
3804.25,0.0007
3804.00,0.0006
3803.75,0.0005
3803.50,0.0005
3803.25,0.0005
3803.00,0.0006
3802.75,0.0008
3802.50,0.0009
3802.25,0.0010
3802.00,0.0009
3801.75,0.0007
3801.50,0.0008
3801.25,0.0011
3801.00,0.0015
3800.75,0.0017
3800.50,0.0016
3800.25,0.0014
3800.00,0.0011
3799.75,0.0009
3799.50,0.0006
3799.25,0.0005
3799.00,0.0006
3798.75,0.0008
3798.50,0.0010
3798.25,0.0011
3798.00,0.0012
3797.75,0.0012
3797.50,0.0011
3797.25,0.0011
3797.00,0.0009
3796.75,0.0008
3796.50,0.0008
3796.25,0.0008
3796.00,0.0008
3795.75,0.0008
3795.50,0.0006
3795.25,0.0005
3795.00,0.0006
3794.75,0.0006
3794.50,0.0008
3794.25,0.0009
3794.00,0.0010
3793.75,0.0010
3793.50,0.0010
3793.25,0.0010
3793.00,0.0009
3792.75,0.0008
3792.50,0.0007
3792.25,0.0007
3792.00,0.0006
3791.75,0.0006
3791.50,0.0005
3791.25,0.0005
3791.00,0.0005
3790.75,0.0006
3790.50,0.0007
3790.25,0.0008
3790.00,0.0009
3789.75,0.0010
3789.50,0.0009
3789.25,0.0009
3789.00,0.0008
3788.75,0.0007
3788.50,0.0007
3788.25,0.0007
3788.00,0.0008
3787.75,0.0009
3787.50,0.0010
3787.25,0.0011
3787.00,0.0011
3786.75,0.0010
3786.50,0.0011
3786.25,0.0012
3786.00,0.0012
3785.75,0.0012
3785.50,0.0012
3785.25,0.0011
3785.00,0.0011
3784.75,0.0011
3784.50,0.0011
3784.25,0.0011
3784.00,0.0011
3783.75,0.0010
3783.50,0.0010
3783.25,0.0009
3783.00,0.0009
3782.75,0.0009
3782.50,0.0009
3782.25,0.0009
3782.00,0.0009
3781.75,0.0009
3781.50,0.0009
3781.25,0.0009
3781.00,0.0009
3780.75,0.0008
3780.50,0.0008
3780.25,0.0007
3780.00,0.0006
3779.75,0.0006
3779.50,0.0007
3779.25,0.0009
3779.00,0.0011
3778.75,0.0011
3778.50,0.0011
3778.25,0.0010
3778.00,0.0009
3777.75,0.0007
3777.50,0.0005
3777.25,0.0004
3777.00,0.0004
3776.75,0.0005
3776.50,0.0007
3776.25,0.0008
3776.00,0.0008
3775.75,0.0008
3775.50,0.0007
3775.25,0.0007
3775.00,0.0006
3774.75,0.0006
3774.50,0.0005
3774.25,0.0005
3774.00,0.0005
3773.75,0.0005
3773.50,0.0006
3773.25,0.0007
3773.00,0.0009
3772.75,0.0009
3772.50,0.0010
3772.25,0.0009
3772.00,0.0009
3771.75,0.0010
3771.50,0.0011
3771.25,0.0012
3771.00,0.0013
3770.75,0.0013
3770.50,0.0013
3770.25,0.0014
3770.00,0.0014
3769.75,0.0015
3769.50,0.0014
3769.25,0.0012
3769.00,0.0009
3768.75,0.0008
3768.50,0.0007
3768.25,0.0007
3768.00,0.0007
3767.75,0.0007
3767.50,0.0008
3767.25,0.0008
3767.00,0.0008
3766.75,0.0009
3766.50,0.0010
3766.25,0.0012
3766.00,0.0013
3765.75,0.0013
3765.50,0.0011
3765.25,0.0008
3765.00,0.0007
3764.75,0.0007
3764.50,0.0008
3764.25,0.0010
3764.00,0.0012
3763.75,0.0013
3763.50,0.0013
3763.25,0.0012
3763.00,0.0012
3762.75,0.0010
3762.50,0.0009
3762.25,0.0008
3762.00,0.0007
3761.75,0.0007
3761.50,0.0007
3761.25,0.0007
3761.00,0.0008
3760.75,0.0008
3760.50,0.0008
3760.25,0.0007
3760.00,0.0006
3759.75,0.0007
3759.50,0.0009
3759.25,0.0011
3759.00,0.0013
3758.75,0.0014
3758.50,0.0014
3758.25,0.0014
3758.00,0.0014
3757.75,0.0015
3757.50,0.0015
3757.25,0.0014
3757.00,0.0013
3756.75,0.0011
3756.50,0.0009
3756.25,0.0007
3756.00,0.0007
3755.75,0.0008
3755.50,0.0010
3755.25,0.0012
3755.00,0.0014
3754.75,0.0014
3754.50,0.0014
3754.25,0.0013
3754.00,0.0012
3753.75,0.0010
3753.50,0.0009
3753.25,0.0009
3753.00,0.0009
3752.75,0.0010
3752.50,0.0013
3752.25,0.0019
3752.00,0.0024
3751.75,0.0022
3751.50,0.0016
3751.25,0.0013
3751.00,0.0011
3750.75,0.0012
3750.50,0.0014
3750.25,0.0018
3750.00,0.0021
3749.75,0.0023
3749.50,0.0025
3749.25,0.0024
3749.00,0.0019
3748.75,0.0015
3748.50,0.0014
3748.25,0.0014
3748.00,0.0015
3747.75,0.0016
3747.50,0.0016
3747.25,0.0015
3747.00,0.0014
3746.75,0.0013
3746.50,0.0012
3746.25,0.0011
3746.00,0.0012
3745.75,0.0012
3745.50,0.0014
3745.25,0.0013
3745.00,0.0007
3744.75,-0.0005
3744.50,-0.0018
3744.25,-0.0015
3744.00,-0.0001
3743.75,0.0008
3743.50,0.0010
3743.25,0.0010
3743.00,0.0009
3742.75,0.0009
3742.50,0.0009
3742.25,0.0009
3742.00,0.0010
3741.75,0.0010
3741.50,0.0011
3741.25,0.0012
3741.00,0.0013
3740.75,0.0014
3740.50,0.0014
3740.25,0.0012
3740.00,0.0011
3739.75,0.0010
3739.50,0.0010
3739.25,0.0010
3739.00,0.0010
3738.75,0.0010
3738.50,0.0010
3738.25,0.0012
3738.00,0.0014
3737.75,0.0015
3737.50,0.0016
3737.25,0.0016
3737.00,0.0015
3736.75,0.0014
3736.50,0.0013
3736.25,0.0011
3736.00,0.0009
3735.75,0.0006
3735.50,0.0004
3735.25,0.0002
3735.00,0.0002
3734.75,0.0004
3734.50,0.0005
3734.25,0.0006
3734.00,0.0007
3733.75,0.0008
3733.50,0.0009
3733.25,0.0011
3733.00,0.0013
3732.75,0.0016
3732.50,0.0019
3732.25,0.0022
3732.00,0.0024
3731.75,0.0022
3731.50,0.0017
3731.25,0.0013
3731.00,0.0010
3730.75,0.0007
3730.50,0.0005
3730.25,0.0004
3730.00,0.0003
3729.75,0.0003
3729.50,0.0004
3729.25,0.0005
3729.00,0.0006
3728.75,0.0007
3728.50,0.0007
3728.25,0.0007
3728.00,0.0007
3727.75,0.0008
3727.50,0.0008
3727.25,0.0009
3727.00,0.0008
3726.75,0.0007
3726.50,0.0007
3726.25,0.0006
3726.00,0.0007
3725.75,0.0007
3725.50,0.0008
3725.25,0.0010
3725.00,0.0012
3724.75,0.0014
3724.50,0.0014
3724.25,0.0013
3724.00,0.0012
3723.75,0.0011
3723.50,0.0012
3723.25,0.0014
3723.00,0.0016
3722.75,0.0018
3722.50,0.0019
3722.25,0.0018
3722.00,0.0015
3721.75,0.0011
3721.50,0.0007
3721.25,0.0006
3721.00,0.0005
3720.75,0.0005
3720.50,0.0007
3720.25,0.0008
3720.00,0.0009
3719.75,0.0008
3719.50,0.0006
3719.25,0.0004
3719.00,0.0002
3718.75,0.0001
3718.50,0.0002
3718.25,0.0003
3718.00,0.0004
3717.75,0.0005
3717.50,0.0006
3717.25,0.0006
3717.00,0.0006
3716.75,0.0007
3716.50,0.0008
3716.25,0.0010
3716.00,0.0011
3715.75,0.0012
3715.50,0.0012
3715.25,0.0012
3715.00,0.0012
3714.75,0.0012
3714.50,0.0011
3714.25,0.0010
3714.00,0.0009
3713.75,0.0008
3713.50,0.0008
3713.25,0.0009
3713.00,0.0010
3712.75,0.0011
3712.50,0.0013
3712.25,0.0016
3712.00,0.0020
3711.75,0.0022
3711.50,0.0020
3711.25,0.0016
3711.00,0.0013
3710.75,0.0011
3710.50,0.0011
3710.25,0.0012
3710.00,0.0014
3709.75,0.0015
3709.50,0.0014
3709.25,0.0012
3709.00,0.0010
3708.75,0.0010
3708.50,0.0011
3708.25,0.0012
3708.00,0.0014
3707.75,0.0015
3707.50,0.0016
3707.25,0.0016
3707.00,0.0015
3706.75,0.0013
3706.50,0.0012
3706.25,0.0012
3706.00,0.0011
3705.75,0.0011
3705.50,0.0011
3705.25,0.0011
3705.00,0.0011
3704.75,0.0010
3704.50,0.0009
3704.25,0.0008
3704.00,0.0007
3703.75,0.0007
3703.50,0.0008
3703.25,0.0009
3703.00,0.0009
3702.75,0.0010
3702.50,0.0009
3702.25,0.0008
3702.00,0.0007
3701.75,0.0007
3701.50,0.0008
3701.25,0.0010
3701.00,0.0010
3700.75,0.0010
3700.50,0.0009
3700.25,0.0009
3700.00,0.0009
3699.75,0.0009
3699.50,0.0010
3699.25,0.0010
3699.00,0.0011
3698.75,0.0011
3698.50,0.0011
3698.25,0.0011
3698.00,0.0010
3697.75,0.0008
3697.50,0.0006
3697.25,0.0005
3697.00,0.0005
3696.75,0.0006
3696.50,0.0007
3696.25,0.0008
3696.00,0.0009
3695.75,0.0009
3695.50,0.0010
3695.25,0.0010
3695.00,0.0010
3694.75,0.0009
3694.50,0.0009
3694.25,0.0009
3694.00,0.0010
3693.75,0.0010
3693.50,0.0010
3693.25,0.0009
3693.00,0.0008
3692.75,0.0007
3692.50,0.0006
3692.25,0.0008
3692.00,0.0010
3691.75,0.0012
3691.50,0.0014
3691.25,0.0015
3691.00,0.0016
3690.75,0.0015
3690.50,0.0014
3690.25,0.0012
3690.00,0.0010
3689.75,0.0009
3689.50,0.0010
3689.25,0.0011
3689.00,0.0012
3688.75,0.0014
3688.50,0.0018
3688.25,0.0023
3688.00,0.0023
3687.75,0.0019
3687.50,0.0014
3687.25,0.0010
3687.00,0.0008
3686.75,0.0008
3686.50,0.0008
3686.25,0.0009
3686.00,0.0008
3685.75,0.0007
3685.50,0.0007
3685.25,0.0006
3685.00,0.0007
3684.75,0.0007
3684.50,0.0007
3684.25,0.0007
3684.00,0.0007
3683.75,0.0007
3683.50,0.0008
3683.25,0.0009
3683.00,0.0010
3682.75,0.0010
3682.50,0.0010
3682.25,0.0009
3682.00,0.0009
3681.75,0.0008
3681.50,0.0008
3681.25,0.0008
3681.00,0.0007
3680.75,0.0007
3680.50,0.0008
3680.25,0.0008
3680.00,0.0009
3679.75,0.0010
3679.50,0.0010
3679.25,0.0009
3679.00,0.0009
3678.75,0.0008
3678.50,0.0008
3678.25,0.0007
3678.00,0.0007
3677.75,0.0007
3677.50,0.0008
3677.25,0.0010
3677.00,0.0012
3676.75,0.0014
3676.50,0.0015
3676.25,0.0016
3676.00,0.0017
3675.75,0.0019
3675.50,0.0022
3675.25,0.0022
3675.00,0.0019
3674.75,0.0014
3674.50,0.0010
3674.25,0.0008
3674.00,0.0009
3673.75,0.0010
3673.50,0.0012
3673.25,0.0013
3673.00,0.0013
3672.75,0.0012
3672.50,0.0010
3672.25,0.0009
3672.00,0.0009
3671.75,0.0011
3671.50,0.0012
3671.25,0.0012
3671.00,0.0010
3670.75,0.0007
3670.50,0.0007
3670.25,0.0009
3670.00,0.0011
3669.75,0.0013
3669.50,0.0014
3669.25,0.0015
3669.00,0.0017
3668.75,0.0019
3668.50,0.0019
3668.25,0.0016
3668.00,0.0012
3667.75,0.0010
3667.50,0.0009
3667.25,0.0009
3667.00,0.0009
3666.75,0.0010
3666.50,0.0010
3666.25,0.0009
3666.00,0.0008
3665.75,0.0008
3665.50,0.0009
3665.25,0.0010
3665.00,0.0011
3664.75,0.0011
3664.50,0.0010
3664.25,0.0010
3664.00,0.0010
3663.75,0.0011
3663.50,0.0011
3663.25,0.0010
3663.00,0.0009
3662.75,0.0008
3662.50,0.0007
3662.25,0.0007
3662.00,0.0008
3661.75,0.0009
3661.50,0.0010
3661.25,0.0010
3661.00,0.0010
3660.75,0.0010
3660.50,0.0010
3660.25,0.0011
3660.00,0.0012
3659.75,0.0013
3659.50,0.0014
3659.25,0.0015
3659.00,0.0015
3658.75,0.0014
3658.50,0.0013
3658.25,0.0012
3658.00,0.0011
3657.75,0.0011
3657.50,0.0012
3657.25,0.0014
3657.00,0.0016
3656.75,0.0016
3656.50,0.0015
3656.25,0.0014
3656.00,0.0014
3655.75,0.0014
3655.50,0.0015
3655.25,0.0016
3655.00,0.0015
3654.75,0.0014
3654.50,0.0012
3654.25,0.0009
3654.00,0.0006
3653.75,0.0005
3653.50,0.0006
3653.25,0.0008
3653.00,0.0009
3652.75,0.0010
3652.50,0.0010
3652.25,0.0010
3652.00,0.0009
3651.75,0.0009
3651.50,0.0010
3651.25,0.0011
3651.00,0.0011
3650.75,0.0010
3650.50,0.0010
3650.25,0.0012
3650.00,0.0014
3649.75,0.0016
3649.50,0.0016
3649.25,0.0016
3649.00,0.0015
3648.75,0.0014
3648.50,0.0013
3648.25,0.0013
3648.00,0.0013
3647.75,0.0012
3647.50,0.0011
3647.25,0.0008
3647.00,0.0006
3646.75,0.0006
3646.50,0.0008
3646.25,0.0010
3646.00,0.0012
3645.75,0.0013
3645.50,0.0013
3645.25,0.0013
3645.00,0.0013
3644.75,0.0013
3644.50,0.0014
3644.25,0.0014
3644.00,0.0014
3643.75,0.0013
3643.50,0.0012
3643.25,0.0010
3643.00,0.0009
3642.75,0.0009
3642.50,0.0010
3642.25,0.0010
3642.00,0.0009
3641.75,0.0008
3641.50,0.0006
3641.25,0.0003
3641.00,0.0002
3640.75,0.0001
3640.50,0.0002
3640.25,0.0005
3640.00,0.0008
3639.75,0.0010
3639.50,0.0012
3639.25,0.0012
3639.00,0.0011
3638.75,0.0010
3638.50,0.0010
3638.25,0.0010
3638.00,0.0011
3637.75,0.0012
3637.50,0.0012
3637.25,0.0012
3637.00,0.0010
3636.75,0.0009
3636.50,0.0008
3636.25,0.0009
3636.00,0.0009
3635.75,0.0010
3635.50,0.0011
3635.25,0.0010
3635.00,0.0010
3634.75,0.0011
3634.50,0.0012
3634.25,0.0015
3634.00,0.0019
3633.75,0.0023
3633.50,0.0025
3633.25,0.0023
3633.00,0.0020
3632.75,0.0017
3632.50,0.0015
3632.25,0.0013
3632.00,0.0013
3631.75,0.0014
3631.50,0.0014
3631.25,0.0015
3631.00,0.0015
3630.75,0.0015
3630.50,0.0016
3630.25,0.0016
3630.00,0.0016
3629.75,0.0016
3629.50,0.0014
3629.25,0.0011
3629.00,0.0006
3628.75,0.0001
3628.50,-0.0003
3628.25,-0.0003
3628.00,0.0001
3627.75,0.0006
3627.50,0.0010
3627.25,0.0013
3627.00,0.0015
3626.75,0.0016
3626.50,0.0016
3626.25,0.0015
3626.00,0.0013
3625.75,0.0012
3625.50,0.0010
3625.25,0.0008
3625.00,0.0007
3624.75,0.0007
3624.50,0.0007
3624.25,0.0007
3624.00,0.0009
3623.75,0.0010
3623.50,0.0011
3623.25,0.0011
3623.00,0.0010
3622.75,0.0008
3622.50,0.0007
3622.25,0.0007
3622.00,0.0008
3621.75,0.0010
3621.50,0.0012
3621.25,0.0013
3621.00,0.0014
3620.75,0.0015
3620.50,0.0015
3620.25,0.0015
3620.00,0.0014
3619.75,0.0013
3619.50,0.0013
3619.25,0.0015
3619.00,0.0017
3618.75,0.0019
3618.50,0.0019
3618.25,0.0019
3618.00,0.0017
3617.75,0.0016
3617.50,0.0015
3617.25,0.0014
3617.00,0.0014
3616.75,0.0012
3616.50,0.0012
3616.25,0.0012
3616.00,0.0013
3615.75,0.0014
3615.50,0.0016
3615.25,0.0017
3615.00,0.0016
3614.75,0.0015
3614.50,0.0013
3614.25,0.0011
3614.00,0.0011
3613.75,0.0011
3613.50,0.0011
3613.25,0.0010
3613.00,0.0010
3612.75,0.0011
3612.50,0.0013
3612.25,0.0015
3612.00,0.0015
3611.75,0.0013
3611.50,0.0012
3611.25,0.0011
3611.00,0.0011
3610.75,0.0010
3610.50,0.0009
3610.25,0.0008
3610.00,0.0007
3609.75,0.0006
3609.50,0.0007
3609.25,0.0010
3609.00,0.0014
3608.75,0.0017
3608.50,0.0016
3608.25,0.0015
3608.00,0.0014
3607.75,0.0013
3607.50,0.0014
3607.25,0.0014
3607.00,0.0015
3606.75,0.0015
3606.50,0.0013
3606.25,0.0012
3606.00,0.0011
3605.75,0.0010
3605.50,0.0009
3605.25,0.0008
3605.00,0.0008
3604.75,0.0009
3604.50,0.0010
3604.25,0.0012
3604.00,0.0012
3603.75,0.0012
3603.50,0.0011
3603.25,0.0010
3603.00,0.0010
3602.75,0.0011
3602.50,0.0012
3602.25,0.0012
3602.00,0.0011
3601.75,0.0009
3601.50,0.0009
3601.25,0.0009
3601.00,0.0010
3600.75,0.0011
3600.50,0.0011
3600.25,0.0012
3600.00,0.0013
3599.75,0.0013
3599.50,0.0014
3599.25,0.0015
3599.00,0.0016
3598.75,0.0016
3598.50,0.0016
3598.25,0.0015
3598.00,0.0014
3597.75,0.0013
3597.50,0.0013
3597.25,0.0013
3597.00,0.0012
3596.75,0.0012
3596.50,0.0010
3596.25,0.0009
3596.00,0.0008
3595.75,0.0009
3595.50,0.0010
3595.25,0.0012
3595.00,0.0013
3594.75,0.0014
3594.50,0.0014
3594.25,0.0014
3594.00,0.0013
3593.75,0.0012
3593.50,0.0011
3593.25,0.0011
3593.00,0.0012
3592.75,0.0013
3592.50,0.0015
3592.25,0.0016
3592.00,0.0015
3591.75,0.0014
3591.50,0.0013
3591.25,0.0012
3591.00,0.0012
3590.75,0.0013
3590.50,0.0015
3590.25,0.0015
3590.00,0.0015
3589.75,0.0015
3589.50,0.0015
3589.25,0.0015
3589.00,0.0015
3588.75,0.0015
3588.50,0.0015
3588.25,0.0015
3588.00,0.0015
3587.75,0.0014
3587.50,0.0013
3587.25,0.0012
3587.00,0.0011
3586.75,0.0011
3586.50,0.0010
3586.25,0.0011
3586.00,0.0012
3585.75,0.0012
3585.50,0.0013
3585.25,0.0013
3585.00,0.0012
3584.75,0.0010
3584.50,0.0009
3584.25,0.0009
3584.00,0.0010
3583.75,0.0011
3583.50,0.0012
3583.25,0.0011
3583.00,0.0011
3582.75,0.0010
3582.50,0.0011
3582.25,0.0012
3582.00,0.0014
3581.75,0.0014
3581.50,0.0014
3581.25,0.0012
3581.00,0.0012
3580.75,0.0011
3580.50,0.0011
3580.25,0.0010
3580.00,0.0010
3579.75,0.0010
3579.50,0.0011
3579.25,0.0013
3579.00,0.0014
3578.75,0.0015
3578.50,0.0015
3578.25,0.0015
3578.00,0.0014
3577.75,0.0014
3577.50,0.0014
3577.25,0.0014
3577.00,0.0014
3576.75,0.0014
3576.50,0.0013
3576.25,0.0012
3576.00,0.0010
3575.75,0.0010
3575.50,0.0010
3575.25,0.0011
3575.00,0.0012
3574.75,0.0013
3574.50,0.0013
3574.25,0.0013
3574.00,0.0013
3573.75,0.0013
3573.50,0.0013
3573.25,0.0012
3573.00,0.0011
3572.75,0.0010
3572.50,0.0008
3572.25,0.0008
3572.00,0.0009
3571.75,0.0010
3571.50,0.0012
3571.25,0.0013
3571.00,0.0014
3570.75,0.0015
3570.50,0.0015
3570.25,0.0016
3570.00,0.0016
3569.75,0.0016
3569.50,0.0016
3569.25,0.0016
3569.00,0.0015
3568.75,0.0013
3568.50,0.0010
3568.25,0.0007
3568.00,0.0005
3567.75,0.0004
3567.50,0.0005
3567.25,0.0007
3567.00,0.0010
3566.75,0.0012
3566.50,0.0014
3566.25,0.0014
3566.00,0.0012
3565.75,0.0011
3565.50,0.0011
3565.25,0.0011
3565.00,0.0012
3564.75,0.0013
3564.50,0.0013
3564.25,0.0013
3564.00,0.0013
3563.75,0.0013
3563.50,0.0013
3563.25,0.0012
3563.00,0.0012
3562.75,0.0011
3562.50,0.0011
3562.25,0.0010
3562.00,0.0010
3561.75,0.0011
3561.50,0.0013
3561.25,0.0015
3561.00,0.0017
3560.75,0.0019
3560.50,0.0019
3560.25,0.0018
3560.00,0.0015
3559.75,0.0012
3559.50,0.0010
3559.25,0.0010
3559.00,0.0012
3558.75,0.0013
3558.50,0.0015
3558.25,0.0015
3558.00,0.0015
3557.75,0.0014
3557.50,0.0013
3557.25,0.0012
3557.00,0.0012
3556.75,0.0011
3556.50,0.0010
3556.25,0.0009
3556.00,0.0009
3555.75,0.0010
3555.50,0.0012
3555.25,0.0013
3555.00,0.0013
3554.75,0.0013
3554.50,0.0011
3554.25,0.0010
3554.00,0.0009
3553.75,0.0009
3553.50,0.0009
3553.25,0.0010
3553.00,0.0010
3552.75,0.0010
3552.50,0.0010
3552.25,0.0011
3552.00,0.0012
3551.75,0.0012
3551.50,0.0011
3551.25,0.0010
3551.00,0.0010
3550.75,0.0009
3550.50,0.0009
3550.25,0.0009
3550.00,0.0009
3549.75,0.0010
3549.50,0.0011
3549.25,0.0012
3549.00,0.0012
3548.75,0.0012
3548.50,0.0013
3548.25,0.0014
3548.00,0.0016
3547.75,0.0017
3547.50,0.0015
3547.25,0.0012
3547.00,0.0009
3546.75,0.0006
3546.50,0.0006
3546.25,0.0008
3546.00,0.0009
3545.75,0.0011
3545.50,0.0012
3545.25,0.0013
3545.00,0.0015
3544.75,0.0016
3544.50,0.0017
3544.25,0.0015
3544.00,0.0013
3543.75,0.0010
3543.50,0.0008
3543.25,0.0007
3543.00,0.0008
3542.75,0.0009
3542.50,0.0011
3542.25,0.0011
3542.00,0.0010
3541.75,0.0009
3541.50,0.0008
3541.25,0.0007
3541.00,0.0008
3540.75,0.0009
3540.50,0.0011
3540.25,0.0012
3540.00,0.0013
3539.75,0.0013
3539.50,0.0012
3539.25,0.0012
3539.00,0.0013
3538.75,0.0013
3538.50,0.0014
3538.25,0.0015
3538.00,0.0015
3537.75,0.0014
3537.50,0.0013
3537.25,0.0012
3537.00,0.0011
3536.75,0.0011
3536.50,0.0010
3536.25,0.0010
3536.00,0.0010
3535.75,0.0009
3535.50,0.0009
3535.25,0.0010
3535.00,0.0010
3534.75,0.0011
3534.50,0.0012
3534.25,0.0012
3534.00,0.0013
3533.75,0.0013
3533.50,0.0013
3533.25,0.0014
3533.00,0.0015
3532.75,0.0017
3532.50,0.0019
3532.25,0.0019
3532.00,0.0019
3531.75,0.0019
3531.50,0.0018
3531.25,0.0016
3531.00,0.0015
3530.75,0.0013
3530.50,0.0012
3530.25,0.0010
3530.00,0.0010
3529.75,0.0009
3529.50,0.0009
3529.25,0.0010
3529.00,0.0010
3528.75,0.0009
3528.50,0.0008
3528.25,0.0007
3528.00,0.0006
3527.75,0.0006
3527.50,0.0007
3527.25,0.0008
3527.00,0.0009
3526.75,0.0010
3526.50,0.0011
3526.25,0.0012
3526.00,0.0013
3525.75,0.0013
3525.50,0.0013
3525.25,0.0012
3525.00,0.0012
3524.75,0.0012
3524.50,0.0012
3524.25,0.0012
3524.00,0.0012
3523.75,0.0012
3523.50,0.0012
3523.25,0.0012
3523.00,0.0012
3522.75,0.0012
3522.50,0.0011
3522.25,0.0010
3522.00,0.0010
3521.75,0.0010
3521.50,0.0010
3521.25,0.0011
3521.00,0.0012
3520.75,0.0013
3520.50,0.0013
3520.25,0.0012
3520.00,0.0011
3519.75,0.0009
3519.50,0.0007
3519.25,0.0006
3519.00,0.0006
3518.75,0.0007
3518.50,0.0007
3518.25,0.0009
3518.00,0.0011
3517.75,0.0012
3517.50,0.0012
3517.25,0.0012
3517.00,0.0011
3516.75,0.0009
3516.50,0.0009
3516.25,0.0009
3516.00,0.0009
3515.75,0.0009
3515.50,0.0009
3515.25,0.0009
3515.00,0.0010
3514.75,0.0011
3514.50,0.0012
3514.25,0.0013
3514.00,0.0012
3513.75,0.0011
3513.50,0.0009
3513.25,0.0008
3513.00,0.0007
3512.75,0.0008
3512.50,0.0009
3512.25,0.0010
3512.00,0.0010
3511.75,0.0010
3511.50,0.0010
3511.25,0.0011
3511.00,0.0011
3510.75,0.0011
3510.50,0.0010
3510.25,0.0009
3510.00,0.0009
3509.75,0.0010
3509.50,0.0011
3509.25,0.0013
3509.00,0.0013
3508.75,0.0013
3508.50,0.0012
3508.25,0.0012
3508.00,0.0013
3507.75,0.0015
3507.50,0.0016
3507.25,0.0017
3507.00,0.0017
3506.75,0.0015
3506.50,0.0013
3506.25,0.0011
3506.00,0.0009
3505.75,0.0009
3505.50,0.0008
3505.25,0.0008
3505.00,0.0009
3504.75,0.0009
3504.50,0.0009
3504.25,0.0009
3504.00,0.0009
3503.75,0.0009
3503.50,0.0010
3503.25,0.0010
3503.00,0.0011
3502.75,0.0012
3502.50,0.0013
3502.25,0.0013
3502.00,0.0013
3501.75,0.0012
3501.50,0.0011
3501.25,0.0010
3501.00,0.0009
3500.75,0.0008
3500.50,0.0007
3500.25,0.0008
3500.00,0.0010
3499.75,0.0012
3499.50,0.0014
3499.25,0.0016
3499.00,0.0017
3498.75,0.0017
3498.50,0.0016
3498.25,0.0014
3498.00,0.0012
3497.75,0.0011
3497.50,0.0009
3497.25,0.0008
3497.00,0.0008
3496.75,0.0008
3496.50,0.0009
3496.25,0.0010
3496.00,0.0011
3495.75,0.0012
3495.50,0.0012
3495.25,0.0012
3495.00,0.0011
3494.75,0.0011
3494.50,0.0011
3494.25,0.0010
3494.00,0.0010
3493.75,0.0010
3493.50,0.0010
3493.25,0.0011
3493.00,0.0012
3492.75,0.0013
3492.50,0.0014
3492.25,0.0015
3492.00,0.0015
3491.75,0.0014
3491.50,0.0013
3491.25,0.0012
3491.00,0.0011
3490.75,0.0010
3490.50,0.0010
3490.25,0.0010
3490.00,0.0011
3489.75,0.0011
3489.50,0.0011
3489.25,0.0011
3489.00,0.0009
3488.75,0.0008
3488.50,0.0007
3488.25,0.0007
3488.00,0.0008
3487.75,0.0009
3487.50,0.0010
3487.25,0.0011
3487.00,0.0012
3486.75,0.0012
3486.50,0.0012
3486.25,0.0012
3486.00,0.0012
3485.75,0.0011
3485.50,0.0010
3485.25,0.0009
3485.00,0.0009
3484.75,0.0010
3484.50,0.0011
3484.25,0.0013
3484.00,0.0014
3483.75,0.0013
3483.50,0.0012
3483.25,0.0011
3483.00,0.0011
3482.75,0.0011
3482.50,0.0011
3482.25,0.0011
3482.00,0.0011
3481.75,0.0010
3481.50,0.0009
3481.25,0.0009
3481.00,0.0009
3480.75,0.0009
3480.50,0.0009
3480.25,0.0010
3480.00,0.0010
3479.75,0.0010
3479.50,0.0010
3479.25,0.0010
3479.00,0.0010
3478.75,0.0010
3478.50,0.0010
3478.25,0.0009
3478.00,0.0009
3477.75,0.0009
3477.50,0.0010
3477.25,0.0011
3477.00,0.0012
3476.75,0.0013
3476.50,0.0012
3476.25,0.0011
3476.00,0.0009
3475.75,0.0008
3475.50,0.0007
3475.25,0.0008
3475.00,0.0008
3474.75,0.0009
3474.50,0.0010
3474.25,0.0012
3474.00,0.0013
3473.75,0.0013
3473.50,0.0013
3473.25,0.0012
3473.00,0.0011
3472.75,0.0010
3472.50,0.0010
3472.25,0.0011
3472.00,0.0012
3471.75,0.0014
3471.50,0.0016
3471.25,0.0017
3471.00,0.0017
3470.75,0.0017
3470.50,0.0016
3470.25,0.0015
3470.00,0.0013
3469.75,0.0012
3469.50,0.0012
3469.25,0.0011
3469.00,0.0011
3468.75,0.0011
3468.50,0.0011
3468.25,0.0011
3468.00,0.0011
3467.75,0.0011
3467.50,0.0012
3467.25,0.0013
3467.00,0.0013
3466.75,0.0014
3466.50,0.0015
3466.25,0.0015
3466.00,0.0014
3465.75,0.0013
3465.50,0.0012
3465.25,0.0010
3465.00,0.0009
3464.75,0.0008
3464.50,0.0007
3464.25,0.0007
3464.00,0.0008
3463.75,0.0010
3463.50,0.0011
3463.25,0.0011
3463.00,0.0012
3462.75,0.0011
3462.50,0.0011
3462.25,0.0010
3462.00,0.0010
3461.75,0.0010
3461.50,0.0010
3461.25,0.0011
3461.00,0.0012
3460.75,0.0012
3460.50,0.0011
3460.25,0.0011
3460.00,0.0011
3459.75,0.0012
3459.50,0.0013
3459.25,0.0014
3459.00,0.0016
3458.75,0.0016
3458.50,0.0015
3458.25,0.0013
3458.00,0.0012
3457.75,0.0011
3457.50,0.0011
3457.25,0.0011
3457.00,0.0010
3456.75,0.0010
3456.50,0.0009
3456.25,0.0009
3456.00,0.0010
3455.75,0.0009
3455.50,0.0008
3455.25,0.0007
3455.00,0.0006
3454.75,0.0005
3454.50,0.0005
3454.25,0.0006
3454.00,0.0006
3453.75,0.0007
3453.50,0.0008
3453.25,0.0008
3453.00,0.0009
3452.75,0.0009
3452.50,0.0010
3452.25,0.0010
3452.00,0.0011
3451.75,0.0012
3451.50,0.0013
3451.25,0.0013
3451.00,0.0012
3450.75,0.0012
3450.50,0.0012
3450.25,0.0011
3450.00,0.0011
3449.75,0.0010
3449.50,0.0010
3449.25,0.0011
3449.00,0.0011
3448.75,0.0011
3448.50,0.0011
3448.25,0.0011
3448.00,0.0012
3447.75,0.0013
3447.50,0.0014
3447.25,0.0016
3447.00,0.0017
3446.75,0.0016
3446.50,0.0015
3446.25,0.0013
3446.00,0.0011
3445.75,0.0010
3445.50,0.0010
3445.25,0.0010
3445.00,0.0010
3444.75,0.0011
3444.50,0.0012
3444.25,0.0013
3444.00,0.0013
3443.75,0.0012
3443.50,0.0012
3443.25,0.0012
3443.00,0.0012
3442.75,0.0012
3442.50,0.0012
3442.25,0.0011
3442.00,0.0011
3441.75,0.0011
3441.50,0.0010
3441.25,0.0010
3441.00,0.0009
3440.75,0.0007
3440.50,0.0006
3440.25,0.0005
3440.00,0.0006
3439.75,0.0007
3439.50,0.0009
3439.25,0.0010
3439.00,0.0011
3438.75,0.0011
3438.50,0.0010
3438.25,0.0010
3438.00,0.0010
3437.75,0.0010
3437.50,0.0010
3437.25,0.0010
3437.00,0.0009
3436.75,0.0009
3436.50,0.0010
3436.25,0.0011
3436.00,0.0011
3435.75,0.0011
3435.50,0.0010
3435.25,0.0009
3435.00,0.0009
3434.75,0.0008
3434.50,0.0008
3434.25,0.0008
3434.00,0.0008
3433.75,0.0008
3433.50,0.0008
3433.25,0.0009
3433.00,0.0010
3432.75,0.0010
3432.50,0.0010
3432.25,0.0010
3432.00,0.0010
3431.75,0.0010
3431.50,0.0010
3431.25,0.0011
3431.00,0.0012
3430.75,0.0013
3430.50,0.0013
3430.25,0.0012
3430.00,0.0010
3429.75,0.0009
3429.50,0.0008
3429.25,0.0008
3429.00,0.0009
3428.75,0.0011
3428.50,0.0011
3428.25,0.0010
3428.00,0.0008
3427.75,0.0007
3427.50,0.0007
3427.25,0.0008
3427.00,0.0010
3426.75,0.0012
3426.50,0.0013
3426.25,0.0013
3426.00,0.0014
3425.75,0.0014
3425.50,0.0014
3425.25,0.0015
3425.00,0.0014
3424.75,0.0014
3424.50,0.0013
3424.25,0.0012
3424.00,0.0010
3423.75,0.0009
3423.50,0.0009
3423.25,0.0009
3423.00,0.0009
3422.75,0.0008
3422.50,0.0008
3422.25,0.0008
3422.00,0.0008
3421.75,0.0009
3421.50,0.0010
3421.25,0.0011
3421.00,0.0011
3420.75,0.0011
3420.50,0.0011
3420.25,0.0011
3420.00,0.0011
3419.75,0.0009
3419.50,0.0008
3419.25,0.0006
3419.00,0.0006
3418.75,0.0006
3418.50,0.0007
3418.25,0.0007
3418.00,0.0008
3417.75,0.0008
3417.50,0.0008
3417.25,0.0009
3417.00,0.0010
3416.75,0.0011
3416.50,0.0012
3416.25,0.0012
3416.00,0.0012
3415.75,0.0011
3415.50,0.0011
3415.25,0.0010
3415.00,0.0011
3414.75,0.0011
3414.50,0.0012
3414.25,0.0011
3414.00,0.0010
3413.75,0.0008
3413.50,0.0007
3413.25,0.0006
3413.00,0.0006
3412.75,0.0006
3412.50,0.0006
3412.25,0.0007
3412.00,0.0008
3411.75,0.0009
3411.50,0.0010
3411.25,0.0011
3411.00,0.0011
3410.75,0.0011
3410.50,0.0011
3410.25,0.0009
3410.00,0.0008
3409.75,0.0008
3409.50,0.0008
3409.25,0.0009
3409.00,0.0010
3408.75,0.0009
3408.50,0.0009
3408.25,0.0007
3408.00,0.0006
3407.75,0.0005
3407.50,0.0005
3407.25,0.0005
3407.00,0.0006
3406.75,0.0008
3406.50,0.0009
3406.25,0.0010
3406.00,0.0010
3405.75,0.0010
3405.50,0.0010
3405.25,0.0009
3405.00,0.0009
3404.75,0.0009
3404.50,0.0009
3404.25,0.0009
3404.00,0.0010
3403.75,0.0010
3403.50,0.0011
3403.25,0.0011
3403.00,0.0011
3402.75,0.0010
3402.50,0.0009
3402.25,0.0008
3402.00,0.0008
3401.75,0.0008
3401.50,0.0008
3401.25,0.0008
3401.00,0.0008
3400.75,0.0007
3400.50,0.0007
3400.25,0.0007
3400.00,0.0007
3399.75,0.0007
3399.50,0.0007
3399.25,0.0008
3399.00,0.0009
3398.75,0.0010
3398.50,0.0009
3398.25,0.0009
3398.00,0.0008
3397.75,0.0008
3397.50,0.0009
3397.25,0.0010
3397.00,0.0012
3396.75,0.0012
3396.50,0.0013
3396.25,0.0013
3396.00,0.0013
3395.75,0.0012
3395.50,0.0011
3395.25,0.0011
3395.00,0.0010
3394.75,0.0009
3394.50,0.0008
3394.25,0.0007
3394.00,0.0006
3393.75,0.0007
3393.50,0.0007
3393.25,0.0008
3393.00,0.0009
3392.75,0.0009
3392.50,0.0009
3392.25,0.0010
3392.00,0.0010
3391.75,0.0011
3391.50,0.0012
3391.25,0.0012
3391.00,0.0012
3390.75,0.0011
3390.50,0.0010
3390.25,0.0009
3390.00,0.0009
3389.75,0.0009
3389.50,0.0010
3389.25,0.0010
3389.00,0.0011
3388.75,0.0011
3388.50,0.0011
3388.25,0.0011
3388.00,0.0011
3387.75,0.0012
3387.50,0.0012
3387.25,0.0012
3387.00,0.0012
3386.75,0.0011
3386.50,0.0011
3386.25,0.0011
3386.00,0.0012
3385.75,0.0013
3385.50,0.0013
3385.25,0.0013
3385.00,0.0013
3384.75,0.0013
3384.50,0.0011
3384.25,0.0009
3384.00,0.0006
3383.75,0.0003
3383.50,0.0001
3383.25,0.0001
3383.00,0.0002
3382.75,0.0004
3382.50,0.0005
3382.25,0.0006
3382.00,0.0007
3381.75,0.0008
3381.50,0.0009
3381.25,0.0010
3381.00,0.0011
3380.75,0.0012
3380.50,0.0012
3380.25,0.0011
3380.00,0.0009
3379.75,0.0008
3379.50,0.0006
3379.25,0.0005
3379.00,0.0005
3378.75,0.0007
3378.50,0.0009
3378.25,0.0011
3378.00,0.0012
3377.75,0.0012
3377.50,0.0011
3377.25,0.0009
3377.00,0.0008
3376.75,0.0008
3376.50,0.0008
3376.25,0.0008
3376.00,0.0008
3375.75,0.0007
3375.50,0.0007
3375.25,0.0006
3375.00,0.0007
3374.75,0.0008
3374.50,0.0009
3374.25,0.0010
3374.00,0.0010
3373.75,0.0009
3373.50,0.0009
3373.25,0.0009
3373.00,0.0009
3372.75,0.0009
3372.50,0.0009
3372.25,0.0010
3372.00,0.0009
3371.75,0.0009
3371.50,0.0009
3371.25,0.0009
3371.00,0.0008
3370.75,0.0008
3370.50,0.0007
3370.25,0.0007
3370.00,0.0007
3369.75,0.0007
3369.50,0.0007
3369.25,0.0007
3369.00,0.0007
3368.75,0.0006
3368.50,0.0006
3368.25,0.0005
3368.00,0.0005
3367.75,0.0006
3367.50,0.0007
3367.25,0.0009
3367.00,0.0010
3366.75,0.0010
3366.50,0.0010
3366.25,0.0010
3366.00,0.0010
3365.75,0.0010
3365.50,0.0010
3365.25,0.0010
3365.00,0.0009
3364.75,0.0010
3364.50,0.0010
3364.25,0.0011
3364.00,0.0011
3363.75,0.0011
3363.50,0.0010
3363.25,0.0009
3363.00,0.0008
3362.75,0.0007
3362.50,0.0008
3362.25,0.0008
3362.00,0.0009
3361.75,0.0010
3361.50,0.0010
3361.25,0.0009
3361.00,0.0008
3360.75,0.0007
3360.50,0.0007
3360.25,0.0006
3360.00,0.0007
3359.75,0.0009
3359.50,0.0010
3359.25,0.0011
3359.00,0.0012
3358.75,0.0012
3358.50,0.0013
3358.25,0.0014
3358.00,0.0014
3357.75,0.0014
3357.50,0.0013
3357.25,0.0011
3357.00,0.0010
3356.75,0.0009
3356.50,0.0009
3356.25,0.0010
3356.00,0.0011
3355.75,0.0012
3355.50,0.0013
3355.25,0.0013
3355.00,0.0013
3354.75,0.0012
3354.50,0.0012
3354.25,0.0011
3354.00,0.0011
3353.75,0.0010
3353.50,0.0009
3353.25,0.0008
3353.00,0.0007
3352.75,0.0006
3352.50,0.0005
3352.25,0.0005
3352.00,0.0005
3351.75,0.0006
3351.50,0.0007
3351.25,0.0009
3351.00,0.0009
3350.75,0.0009
3350.50,0.0009
3350.25,0.0008
3350.00,0.0008
3349.75,0.0008
3349.50,0.0009
3349.25,0.0009
3349.00,0.0010
3348.75,0.0011
3348.50,0.0011
3348.25,0.0010
3348.00,0.0010
3347.75,0.0009
3347.50,0.0008
3347.25,0.0007
3347.00,0.0006
3346.75,0.0005
3346.50,0.0005
3346.25,0.0006
3346.00,0.0008
3345.75,0.0009
3345.50,0.0010
3345.25,0.0011
3345.00,0.0011
3344.75,0.0012
3344.50,0.0013
3344.25,0.0013
3344.00,0.0013
3343.75,0.0012
3343.50,0.0011
3343.25,0.0010
3343.00,0.0010
3342.75,0.0011
3342.50,0.0011
3342.25,0.0010
3342.00,0.0008
3341.75,0.0006
3341.50,0.0004
3341.25,0.0005
3341.00,0.0006
3340.75,0.0008
3340.50,0.0009
3340.25,0.0009
3340.00,0.0009
3339.75,0.0009
3339.50,0.0009
3339.25,0.0009
3339.00,0.0009
3338.75,0.0009
3338.50,0.0009
3338.25,0.0009
3338.00,0.0010
3337.75,0.0011
3337.50,0.0011
3337.25,0.0012
3337.00,0.0012
3336.75,0.0012
3336.50,0.0013
3336.25,0.0013
3336.00,0.0013
3335.75,0.0012
3335.50,0.0011
3335.25,0.0010
3335.00,0.0009
3334.75,0.0009
3334.50,0.0009
3334.25,0.0009
3334.00,0.0010
3333.75,0.0009
3333.50,0.0009
3333.25,0.0009
3333.00,0.0009
3332.75,0.0010
3332.50,0.0010
3332.25,0.0011
3332.00,0.0010
3331.75,0.0008
3331.50,0.0006
3331.25,0.0005
3331.00,0.0005
3330.75,0.0006
3330.50,0.0008
3330.25,0.0009
3330.00,0.0011
3329.75,0.0011
3329.50,0.0010
3329.25,0.0009
3329.00,0.0009
3328.75,0.0009
3328.50,0.0009
3328.25,0.0009
3328.00,0.0009
3327.75,0.0008
3327.50,0.0009
3327.25,0.0009
3327.00,0.0010
3326.75,0.0010
3326.50,0.0009
3326.25,0.0007
3326.00,0.0006
3325.75,0.0005
3325.50,0.0005
3325.25,0.0004
3325.00,0.0005
3324.75,0.0006
3324.50,0.0008
3324.25,0.0010
3324.00,0.0011
3323.75,0.0012
3323.50,0.0013
3323.25,0.0012
3323.00,0.0011
3322.75,0.0009
3322.50,0.0007
3322.25,0.0006
3322.00,0.0006
3321.75,0.0007
3321.50,0.0007
3321.25,0.0007
3321.00,0.0007
3320.75,0.0007
3320.50,0.0007
3320.25,0.0008
3320.00,0.0008
3319.75,0.0008
3319.50,0.0009
3319.25,0.0010
3319.00,0.0010
3318.75,0.0011
3318.50,0.0010
3318.25,0.0010
3318.00,0.0009
3317.75,0.0008
3317.50,0.0008
3317.25,0.0008
3317.00,0.0007
3316.75,0.0007
3316.50,0.0007
3316.25,0.0008
3316.00,0.0009
3315.75,0.0010
3315.50,0.0011
3315.25,0.0011
3315.00,0.0012
3314.75,0.0012
3314.50,0.0012
3314.25,0.0011
3314.00,0.0009
3313.75,0.0008
3313.50,0.0007
3313.25,0.0007
3313.00,0.0007
3312.75,0.0007
3312.50,0.0008
3312.25,0.0009
3312.00,0.0010
3311.75,0.0011
3311.50,0.0013
3311.25,0.0014
3311.00,0.0014
3310.75,0.0015
3310.50,0.0015
3310.25,0.0015
3310.00,0.0014
3309.75,0.0013
3309.50,0.0011
3309.25,0.0009
3309.00,0.0008
3308.75,0.0007
3308.50,0.0007
3308.25,0.0008
3308.00,0.0009
3307.75,0.0009
3307.50,0.0009
3307.25,0.0008
3307.00,0.0008
3306.75,0.0008
3306.50,0.0008
3306.25,0.0009
3306.00,0.0009
3305.75,0.0009
3305.50,0.0010
3305.25,0.0010
3305.00,0.0010
3304.75,0.0010
3304.50,0.0009
3304.25,0.0009
3304.00,0.0009
3303.75,0.0009
3303.50,0.0008
3303.25,0.0008
3303.00,0.0009
3302.75,0.0010
3302.50,0.0011
3302.25,0.0011
3302.00,0.0011
3301.75,0.0010
3301.50,0.0008
3301.25,0.0007
3301.00,0.0005
3300.75,0.0004
3300.50,0.0003
3300.25,0.0003
3300.00,0.0004
3299.75,0.0006
3299.50,0.0008
3299.25,0.0010
3299.00,0.0012
3298.75,0.0013
3298.50,0.0014
3298.25,0.0013
3298.00,0.0011
3297.75,0.0008
3297.50,0.0006
3297.25,0.0005
3297.00,0.0004
3296.75,0.0004
3296.50,0.0006
3296.25,0.0007
3296.00,0.0008
3295.75,0.0009
3295.50,0.0010
3295.25,0.0010
3295.00,0.0011
3294.75,0.0011
3294.50,0.0010
3294.25,0.0010
3294.00,0.0010
3293.75,0.0010
3293.50,0.0009
3293.25,0.0008
3293.00,0.0006
3292.75,0.0005
3292.50,0.0004
3292.25,0.0004
3292.00,0.0005
3291.75,0.0007
3291.50,0.0009
3291.25,0.0011
3291.00,0.0011
3290.75,0.0011
3290.50,0.0011
3290.25,0.0011
3290.00,0.0011
3289.75,0.0011
3289.50,0.0011
3289.25,0.0011
3289.00,0.0009
3288.75,0.0007
3288.50,0.0006
3288.25,0.0005
3288.00,0.0006
3287.75,0.0006
3287.50,0.0007
3287.25,0.0007
3287.00,0.0007
3286.75,0.0007
3286.50,0.0007
3286.25,0.0008
3286.00,0.0008
3285.75,0.0009
3285.50,0.0010
3285.25,0.0010
3285.00,0.0009
3284.75,0.0009
3284.50,0.0008
3284.25,0.0008
3284.00,0.0009
3283.75,0.0009
3283.50,0.0008
3283.25,0.0008
3283.00,0.0008
3282.75,0.0008
3282.50,0.0009
3282.25,0.0010
3282.00,0.0011
3281.75,0.0012
3281.50,0.0012
3281.25,0.0012
3281.00,0.0011
3280.75,0.0010
3280.50,0.0010
3280.25,0.0011
3280.00,0.0011
3279.75,0.0011
3279.50,0.0009
3279.25,0.0007
3279.00,0.0005
3278.75,0.0005
3278.50,0.0005
3278.25,0.0007
3278.00,0.0009
3277.75,0.0009
3277.50,0.0009
3277.25,0.0008
3277.00,0.0006
3276.75,0.0005
3276.50,0.0005
3276.25,0.0006
3276.00,0.0007
3275.75,0.0007
3275.50,0.0007
3275.25,0.0008
3275.00,0.0008
3274.75,0.0008
3274.50,0.0008
3274.25,0.0008
3274.00,0.0007
3273.75,0.0007
3273.50,0.0006
3273.25,0.0005
3273.00,0.0005
3272.75,0.0006
3272.50,0.0007
3272.25,0.0009
3272.00,0.0010
3271.75,0.0012
3271.50,0.0012
3271.25,0.0012
3271.00,0.0011
3270.75,0.0010
3270.50,0.0009
3270.25,0.0008
3270.00,0.0007
3269.75,0.0007
3269.50,0.0007
3269.25,0.0008
3269.00,0.0009
3268.75,0.0010
3268.50,0.0011
3268.25,0.0011
3268.00,0.0011
3267.75,0.0011
3267.50,0.0011
3267.25,0.0011
3267.00,0.0012
3266.75,0.0012
3266.50,0.0013
3266.25,0.0013
3266.00,0.0013
3265.75,0.0013
3265.50,0.0013
3265.25,0.0012
3265.00,0.0012
3264.75,0.0011
3264.50,0.0011
3264.25,0.0011
3264.00,0.0010
3263.75,0.0010
3263.50,0.0009
3263.25,0.0007
3263.00,0.0006
3262.75,0.0005
3262.50,0.0005
3262.25,0.0005
3262.00,0.0006
3261.75,0.0006
3261.50,0.0007
3261.25,0.0007
3261.00,0.0008
3260.75,0.0009
3260.50,0.0010
3260.25,0.0011
3260.00,0.0012
3259.75,0.0012
3259.50,0.0011
3259.25,0.0010
3259.00,0.0010
3258.75,0.0011
3258.50,0.0011
3258.25,0.0012
3258.00,0.0012
3257.75,0.0012
3257.50,0.0011
3257.25,0.0011
3257.00,0.0010
3256.75,0.0010
3256.50,0.0012
3256.25,0.0013
3256.00,0.0015
3255.75,0.0015
3255.50,0.0015
3255.25,0.0014
3255.00,0.0012
3254.75,0.0011
3254.50,0.0011
3254.25,0.0011
3254.00,0.0012
3253.75,0.0012
3253.50,0.0013
3253.25,0.0013
3253.00,0.0013
3252.75,0.0011
3252.50,0.0010
3252.25,0.0008
3252.00,0.0008
3251.75,0.0008
3251.50,0.0009
3251.25,0.0010
3251.00,0.0011
3250.75,0.0010
3250.50,0.0008
3250.25,0.0007
3250.00,0.0005
3249.75,0.0005
3249.50,0.0006
3249.25,0.0008
3249.00,0.0009
3248.75,0.0010
3248.50,0.0011
3248.25,0.0011
3248.00,0.0011
3247.75,0.0010
3247.50,0.0009
3247.25,0.0008
3247.00,0.0007
3246.75,0.0007
3246.50,0.0007
3246.25,0.0007
3246.00,0.0006
3245.75,0.0006
3245.50,0.0005
3245.25,0.0005
3245.00,0.0007
3244.75,0.0008
3244.50,0.0010
3244.25,0.0011
3244.00,0.0011
3243.75,0.0011
3243.50,0.0011
3243.25,0.0010
3243.00,0.0010
3242.75,0.0010
3242.50,0.0010
3242.25,0.0010
3242.00,0.0008
3241.75,0.0007
3241.50,0.0006
3241.25,0.0006
3241.00,0.0007
3240.75,0.0008
3240.50,0.0010
3240.25,0.0010
3240.00,0.0010
3239.75,0.0010
3239.50,0.0009
3239.25,0.0008
3239.00,0.0006
3238.75,0.0004
3238.50,0.0004
3238.25,0.0004
3238.00,0.0006
3237.75,0.0007
3237.50,0.0008
3237.25,0.0008
3237.00,0.0006
3236.75,0.0004
3236.50,0.0003
3236.25,0.0003
3236.00,0.0005
3235.75,0.0007
3235.50,0.0008
3235.25,0.0008
3235.00,0.0008
3234.75,0.0007
3234.50,0.0007
3234.25,0.0007
3234.00,0.0008
3233.75,0.0008
3233.50,0.0007
3233.25,0.0006
3233.00,0.0006
3232.75,0.0007
3232.50,0.0007
3232.25,0.0008
3232.00,0.0008
3231.75,0.0007
3231.50,0.0006
3231.25,0.0004
3231.00,0.0003
3230.75,0.0004
3230.50,0.0005
3230.25,0.0007
3230.00,0.0007
3229.75,0.0007
3229.50,0.0006
3229.25,0.0005
3229.00,0.0005
3228.75,0.0006
3228.50,0.0009
3228.25,0.0011
3228.00,0.0012
3227.75,0.0013
3227.50,0.0012
3227.25,0.0011
3227.00,0.0011
3226.75,0.0010
3226.50,0.0009
3226.25,0.0009
3226.00,0.0008
3225.75,0.0008
3225.50,0.0008
3225.25,0.0009
3225.00,0.0010
3224.75,0.0010
3224.50,0.0010
3224.25,0.0009
3224.00,0.0009
3223.75,0.0009
3223.50,0.0009
3223.25,0.0008
3223.00,0.0008
3222.75,0.0008
3222.50,0.0007
3222.25,0.0007
3222.00,0.0006
3221.75,0.0006
3221.50,0.0007
3221.25,0.0008
3221.00,0.0009
3220.75,0.0010
3220.50,0.0010
3220.25,0.0009
3220.00,0.0008
3219.75,0.0007
3219.50,0.0007
3219.25,0.0007
3219.00,0.0008
3218.75,0.0009
3218.50,0.0009
3218.25,0.0009
3218.00,0.0009
3217.75,0.0009
3217.50,0.0009
3217.25,0.0008
3217.00,0.0007
3216.75,0.0005
3216.50,0.0005
3216.25,0.0005
3216.00,0.0006
3215.75,0.0008
3215.50,0.0010
3215.25,0.0011
3215.00,0.0012
3214.75,0.0011
3214.50,0.0010
3214.25,0.0009
3214.00,0.0009
3213.75,0.0009
3213.50,0.0009
3213.25,0.0008
3213.00,0.0008
3212.75,0.0007
3212.50,0.0007
3212.25,0.0007
3212.00,0.0007
3211.75,0.0008
3211.50,0.0009
3211.25,0.0009
3211.00,0.0008
3210.75,0.0007
3210.50,0.0007
3210.25,0.0007
3210.00,0.0009
3209.75,0.0011
3209.50,0.0013
3209.25,0.0013
3209.00,0.0013
3208.75,0.0011
3208.50,0.0010
3208.25,0.0008
3208.00,0.0007
3207.75,0.0007
3207.50,0.0008
3207.25,0.0009
3207.00,0.0009
3206.75,0.0009
3206.50,0.0009
3206.25,0.0010
3206.00,0.0010
3205.75,0.0010
3205.50,0.0009
3205.25,0.0008
3205.00,0.0006
3204.75,0.0004
3204.50,0.0004
3204.25,0.0004
3204.00,0.0005
3203.75,0.0006
3203.50,0.0006
3203.25,0.0006
3203.00,0.0006
3202.75,0.0006
3202.50,0.0008
3202.25,0.0009
3202.00,0.0010
3201.75,0.0011
3201.50,0.0011
3201.25,0.0011
3201.00,0.0012
3200.75,0.0013
3200.50,0.0014
3200.25,0.0014
3200.00,0.0013
3199.75,0.0011
3199.50,0.0009
3199.25,0.0006
3199.00,0.0004
3198.75,0.0002
3198.50,0.0002
3198.25,0.0003
3198.00,0.0006
3197.75,0.0009
3197.50,0.0011
3197.25,0.0012
3197.00,0.0012
3196.75,0.0011
3196.50,0.0010
3196.25,0.0009
3196.00,0.0007
3195.75,0.0007
3195.50,0.0007
3195.25,0.0008
3195.00,0.0008
3194.75,0.0008
3194.50,0.0007
3194.25,0.0008
3194.00,0.0008
3193.75,0.0010
3193.50,0.0011
3193.25,0.0011
3193.00,0.0010
3192.75,0.0010
3192.50,0.0009
3192.25,0.0009
3192.00,0.0009
3191.75,0.0009
3191.50,0.0009
3191.25,0.0009
3191.00,0.0009
3190.75,0.0009
3190.50,0.0009
3190.25,0.0009
3190.00,0.0009
3189.75,0.0009
3189.50,0.0009
3189.25,0.0009
3189.00,0.0009
3188.75,0.0010
3188.50,0.0010
3188.25,0.0010
3188.00,0.0010
3187.75,0.0011
3187.50,0.0011
3187.25,0.0011
3187.00,0.0011
3186.75,0.0010
3186.50,0.0009
3186.25,0.0008
3186.00,0.0008
3185.75,0.0008
3185.50,0.0008
3185.25,0.0008
3185.00,0.0007
3184.75,0.0007
3184.50,0.0007
3184.25,0.0007
3184.00,0.0009
3183.75,0.0010
3183.50,0.0011
3183.25,0.0011
3183.00,0.0010
3182.75,0.0009
3182.50,0.0008
3182.25,0.0007
3182.00,0.0006
3181.75,0.0006
3181.50,0.0007
3181.25,0.0008
3181.00,0.0009
3180.75,0.0009
3180.50,0.0009
3180.25,0.0010
3180.00,0.0010
3179.75,0.0010
3179.50,0.0009
3179.25,0.0008
3179.00,0.0008
3178.75,0.0008
3178.50,0.0009
3178.25,0.0009
3178.00,0.0010
3177.75,0.0011
3177.50,0.0012
3177.25,0.0012
3177.00,0.0012
3176.75,0.0012
3176.50,0.0011
3176.25,0.0010
3176.00,0.0010
3175.75,0.0010
3175.50,0.0011
3175.25,0.0011
3175.00,0.0011
3174.75,0.0011
3174.50,0.0011
3174.25,0.0011
3174.00,0.0011
3173.75,0.0010
3173.50,0.0009
3173.25,0.0007
3173.00,0.0006
3172.75,0.0007
3172.50,0.0007
3172.25,0.0008
3172.00,0.0009
3171.75,0.0009
3171.50,0.0009
3171.25,0.0009
3171.00,0.0009
3170.75,0.0010
3170.50,0.0009
3170.25,0.0008
3170.00,0.0006
3169.75,0.0005
3169.50,0.0004
3169.25,0.0005
3169.00,0.0006
3168.75,0.0007
3168.50,0.0008
3168.25,0.0009
3168.00,0.0010
3167.75,0.0010
3167.50,0.0009
3167.25,0.0009
3167.00,0.0008
3166.75,0.0008
3166.50,0.0008
3166.25,0.0008
3166.00,0.0007
3165.75,0.0006
3165.50,0.0005
3165.25,0.0005
3165.00,0.0005
3164.75,0.0007
3164.50,0.0008
3164.25,0.0008
3164.00,0.0008
3163.75,0.0007
3163.50,0.0006
3163.25,0.0005
3163.00,0.0005
3162.75,0.0005
3162.50,0.0006
3162.25,0.0007
3162.00,0.0007
3161.75,0.0007
3161.50,0.0007
3161.25,0.0006
3161.00,0.0005
3160.75,0.0005
3160.50,0.0006
3160.25,0.0006
3160.00,0.0007
3159.75,0.0008
3159.50,0.0009
3159.25,0.0010
3159.00,0.0010
3158.75,0.0010
3158.50,0.0009
3158.25,0.0008
3158.00,0.0008
3157.75,0.0008
3157.50,0.0008
3157.25,0.0008
3157.00,0.0009
3156.75,0.0009
3156.50,0.0010
3156.25,0.0011
3156.00,0.0012
3155.75,0.0012
3155.50,0.0013
3155.25,0.0013
3155.00,0.0013
3154.75,0.0012
3154.50,0.0011
3154.25,0.0009
3154.00,0.0007
3153.75,0.0005
3153.50,0.0004
3153.25,0.0005
3153.00,0.0006
3152.75,0.0009
3152.50,0.0011
3152.25,0.0013
3152.00,0.0014
3151.75,0.0015
3151.50,0.0015
3151.25,0.0014
3151.00,0.0014
3150.75,0.0013
3150.50,0.0011
3150.25,0.0010
3150.00,0.0009
3149.75,0.0007
3149.50,0.0007
3149.25,0.0007
3149.00,0.0007
3148.75,0.0008
3148.50,0.0009
3148.25,0.0009
3148.00,0.0010
3147.75,0.0010
3147.50,0.0010
3147.25,0.0009
3147.00,0.0008
3146.75,0.0008
3146.50,0.0007
3146.25,0.0008
3146.00,0.0009
3145.75,0.0009
3145.50,0.0010
3145.25,0.0011
3145.00,0.0011
3144.75,0.0011
3144.50,0.0011
3144.25,0.0011
3144.00,0.0011
3143.75,0.0010
3143.50,0.0009
3143.25,0.0009
3143.00,0.0009
3142.75,0.0009
3142.50,0.0009
3142.25,0.0009
3142.00,0.0009
3141.75,0.0009
3141.50,0.0009
3141.25,0.0008
3141.00,0.0009
3140.75,0.0009
3140.50,0.0010
3140.25,0.0010
3140.00,0.0010
3139.75,0.0009
3139.50,0.0010
3139.25,0.0011
3139.00,0.0013
3138.75,0.0014
3138.50,0.0014
3138.25,0.0013
3138.00,0.0011
3137.75,0.0008
3137.50,0.0006
3137.25,0.0006
3137.00,0.0006
3136.75,0.0007
3136.50,0.0009
3136.25,0.0009
3136.00,0.0009
3135.75,0.0008
3135.50,0.0007
3135.25,0.0007
3135.00,0.0007
3134.75,0.0007
3134.50,0.0007
3134.25,0.0008
3134.00,0.0008
3133.75,0.0009
3133.50,0.0009
3133.25,0.0009
3133.00,0.0008
3132.75,0.0008
3132.50,0.0009
3132.25,0.0009
3132.00,0.0009
3131.75,0.0009
3131.50,0.0009
3131.25,0.0009
3131.00,0.0010
3130.75,0.0011
3130.50,0.0012
3130.25,0.0012
3130.00,0.0012
3129.75,0.0012
3129.50,0.0011
3129.25,0.0010
3129.00,0.0009
3128.75,0.0008
3128.50,0.0007
3128.25,0.0007
3128.00,0.0008
3127.75,0.0009
3127.50,0.0010
3127.25,0.0011
3127.00,0.0010
3126.75,0.0009
3126.50,0.0008
3126.25,0.0008
3126.00,0.0008
3125.75,0.0009
3125.50,0.0008
3125.25,0.0008
3125.00,0.0008
3124.75,0.0008
3124.50,0.0010
3124.25,0.0011
3124.00,0.0012
3123.75,0.0012
3123.50,0.0013
3123.25,0.0013
3123.00,0.0013
3122.75,0.0012
3122.50,0.0011
3122.25,0.0009
3122.00,0.0008
3121.75,0.0008
3121.50,0.0009
3121.25,0.0011
3121.00,0.0013
3120.75,0.0013
3120.50,0.0012
3120.25,0.0011
3120.00,0.0010
3119.75,0.0009
3119.50,0.0008
3119.25,0.0008
3119.00,0.0008
3118.75,0.0007
3118.50,0.0006
3118.25,0.0005
3118.00,0.0005
3117.75,0.0005
3117.50,0.0006
3117.25,0.0007
3117.00,0.0009
3116.75,0.0010
3116.50,0.0011
3116.25,0.0012
3116.00,0.0012
3115.75,0.0011
3115.50,0.0010
3115.25,0.0009
3115.00,0.0009
3114.75,0.0008
3114.50,0.0009
3114.25,0.0009
3114.00,0.0010
3113.75,0.0010
3113.50,0.0010
3113.25,0.0010
3113.00,0.0009
3112.75,0.0009
3112.50,0.0008
3112.25,0.0008
3112.00,0.0007
3111.75,0.0007
3111.50,0.0008
3111.25,0.0009
3111.00,0.0009
3110.75,0.0010
3110.50,0.0010
3110.25,0.0011
3110.00,0.0011
3109.75,0.0012
3109.50,0.0011
3109.25,0.0010
3109.00,0.0009
3108.75,0.0008
3108.50,0.0007
3108.25,0.0008
3108.00,0.0009
3107.75,0.0009
3107.50,0.0010
3107.25,0.0011
3107.00,0.0011
3106.75,0.0011
3106.50,0.0011
3106.25,0.0010
3106.00,0.0010
3105.75,0.0010
3105.50,0.0010
3105.25,0.0010
3105.00,0.0010
3104.75,0.0009
3104.50,0.0008
3104.25,0.0006
3104.00,0.0005
3103.75,0.0005
3103.50,0.0006
3103.25,0.0006
3103.00,0.0007
3102.75,0.0008
3102.50,0.0008
3102.25,0.0008
3102.00,0.0008
3101.75,0.0008
3101.50,0.0008
3101.25,0.0008
3101.00,0.0008
3100.75,0.0009
3100.50,0.0009
3100.25,0.0009
3100.00,0.0010
3099.75,0.0010
3099.50,0.0009
3099.25,0.0009
3099.00,0.0008
3098.75,0.0006
3098.50,0.0005
3098.25,0.0004
3098.00,0.0004
3097.75,0.0005
3097.50,0.0006
3097.25,0.0008
3097.00,0.0009
3096.75,0.0009
3096.50,0.0010
3096.25,0.0010
3096.00,0.0010
3095.75,0.0010
3095.50,0.0008
3095.25,0.0006
3095.00,0.0005
3094.75,0.0004
3094.50,0.0005
3094.25,0.0005
3094.00,0.0005
3093.75,0.0005
3093.50,0.0005
3093.25,0.0005
3093.00,0.0005
3092.75,0.0006
3092.50,0.0005
3092.25,0.0005
3092.00,0.0005
3091.75,0.0005
3091.50,0.0005
3091.25,0.0006
3091.00,0.0006
3090.75,0.0006
3090.50,0.0006
3090.25,0.0005
3090.00,0.0004
3089.75,0.0002
3089.50,0.0002
3089.25,0.0002
3089.00,0.0003
3088.75,0.0004
3088.50,0.0007
3088.25,0.0009
3088.00,0.0011
3087.75,0.0011
3087.50,0.0010
3087.25,0.0009
3087.00,0.0007
3086.75,0.0006
3086.50,0.0006
3086.25,0.0006
3086.00,0.0007
3085.75,0.0007
3085.50,0.0007
3085.25,0.0007
3085.00,0.0007
3084.75,0.0007
3084.50,0.0007
3084.25,0.0006
3084.00,0.0005
3083.75,0.0005
3083.50,0.0005
3083.25,0.0006
3083.00,0.0006
3082.75,0.0007
3082.50,0.0008
3082.25,0.0008
3082.00,0.0009
3081.75,0.0008
3081.50,0.0008
3081.25,0.0008
3081.00,0.0007
3080.75,0.0007
3080.50,0.0006
3080.25,0.0006
3080.00,0.0005
3079.75,0.0005
3079.50,0.0005
3079.25,0.0006
3079.00,0.0006
3078.75,0.0007
3078.50,0.0006
3078.25,0.0006
3078.00,0.0007
3077.75,0.0008
3077.50,0.0010
3077.25,0.0012
3077.00,0.0013
3076.75,0.0013
3076.50,0.0012
3076.25,0.0010
3076.00,0.0009
3075.75,0.0007
3075.50,0.0006
3075.25,0.0005
3075.00,0.0005
3074.75,0.0005
3074.50,0.0005
3074.25,0.0005
3074.00,0.0005
3073.75,0.0005
3073.50,0.0005
3073.25,0.0006
3073.00,0.0006
3072.75,0.0006
3072.50,0.0006
3072.25,0.0006
3072.00,0.0007
3071.75,0.0007
3071.50,0.0007
3071.25,0.0008
3071.00,0.0009
3070.75,0.0010
3070.50,0.0010
3070.25,0.0011
3070.00,0.0011
3069.75,0.0010
3069.50,0.0008
3069.25,0.0007
3069.00,0.0006
3068.75,0.0006
3068.50,0.0006
3068.25,0.0006
3068.00,0.0005
3067.75,0.0005
3067.50,0.0005
3067.25,0.0006
3067.00,0.0007
3066.75,0.0008
3066.50,0.0009
3066.25,0.0009
3066.00,0.0009
3065.75,0.0008
3065.50,0.0008
3065.25,0.0008
3065.00,0.0007
3064.75,0.0006
3064.50,0.0006
3064.25,0.0006
3064.00,0.0008
3063.75,0.0010
3063.50,0.0012
3063.25,0.0012
3063.00,0.0011
3062.75,0.0009
3062.50,0.0007
3062.25,0.0006
3062.00,0.0005
3061.75,0.0005
3061.50,0.0005
3061.25,0.0006
3061.00,0.0007
3060.75,0.0008
3060.50,0.0010
3060.25,0.0010
3060.00,0.0011
3059.75,0.0011
3059.50,0.0011
3059.25,0.0010
3059.00,0.0009
3058.75,0.0009
3058.50,0.0010
3058.25,0.0010
3058.00,0.0010
3057.75,0.0010
3057.50,0.0010
3057.25,0.0010
3057.00,0.0009
3056.75,0.0008
3056.50,0.0007
3056.25,0.0006
3056.00,0.0006
3055.75,0.0007
3055.50,0.0008
3055.25,0.0010
3055.00,0.0011
3054.75,0.0012
3054.50,0.0011
3054.25,0.0010
3054.00,0.0009
3053.75,0.0009
3053.50,0.0009
3053.25,0.0009
3053.00,0.0010
3052.75,0.0009
3052.50,0.0009
3052.25,0.0008
3052.00,0.0008
3051.75,0.0009
3051.50,0.0009
3051.25,0.0009
3051.00,0.0009
3050.75,0.0009
3050.50,0.0009
3050.25,0.0008
3050.00,0.0007
3049.75,0.0007
3049.50,0.0006
3049.25,0.0005
3049.00,0.0004
3048.75,0.0003
3048.50,0.0002
3048.25,0.0001
3048.00,0.0002
3047.75,0.0003
3047.50,0.0004
3047.25,0.0004
3047.00,0.0004
3046.75,0.0002
3046.50,0.0001
3046.25,-0.0001
3046.00,-0.0002
3045.75,-0.0002
3045.50,-0.0001
3045.25,-0.0000
3045.00,0.0002
3044.75,0.0004
3044.50,0.0005
3044.25,0.0006
3044.00,0.0005
3043.75,0.0003
3043.50,0.0001
3043.25,-0.0001
3043.00,-0.0002
3042.75,-0.0002
3042.50,-0.0001
3042.25,-0.0000
3042.00,0.0002
3041.75,0.0004
3041.50,0.0005
3041.25,0.0006
3041.00,0.0005
3040.75,0.0004
3040.50,0.0003
3040.25,0.0002
3040.00,0.0001
3039.75,0.0001
3039.50,0.0000
3039.25,-0.0001
3039.00,-0.0001
3038.75,-0.0001
3038.50,0.0000
3038.25,0.0002
3038.00,0.0004
3037.75,0.0006
3037.50,0.0007
3037.25,0.0006
3037.00,0.0005
3036.75,0.0003
3036.50,0.0003
3036.25,0.0003
3036.00,0.0004
3035.75,0.0005
3035.50,0.0006
3035.25,0.0006
3035.00,0.0004
3034.75,0.0002
3034.50,-0.0000
3034.25,-0.0001
3034.00,-0.0001
3033.75,0.0000
3033.50,0.0002
3033.25,0.0003
3033.00,0.0003
3032.75,0.0002
3032.50,0.0000
3032.25,-0.0001
3032.00,-0.0001
3031.75,-0.0001
3031.50,0.0001
3031.25,0.0001
3031.00,0.0001
3030.75,0.0001
3030.50,0.0001
3030.25,0.0001
3030.00,0.0002
3029.75,0.0002
3029.50,0.0001
3029.25,0.0001
3029.00,0.0000
3028.75,0.0001
3028.50,0.0002
3028.25,0.0003
3028.00,0.0004
3027.75,0.0004
3027.50,0.0005
3027.25,0.0005
3027.00,0.0006
3026.75,0.0007
3026.50,0.0007
3026.25,0.0008
3026.00,0.0008
3025.75,0.0007
3025.50,0.0007
3025.25,0.0006
3025.00,0.0006
3024.75,0.0006
3024.50,0.0007
3024.25,0.0008
3024.00,0.0009
3023.75,0.0009
3023.50,0.0009
3023.25,0.0010
3023.00,0.0010
3022.75,0.0011
3022.50,0.0011
3022.25,0.0012
3022.00,0.0011
3021.75,0.0010
3021.50,0.0009
3021.25,0.0008
3021.00,0.0008
3020.75,0.0009
3020.50,0.0010
3020.25,0.0010
3020.00,0.0010
3019.75,0.0009
3019.50,0.0008
3019.25,0.0007
3019.00,0.0007
3018.75,0.0007
3018.50,0.0008
3018.25,0.0009
3018.00,0.0011
3017.75,0.0012
3017.50,0.0014
3017.25,0.0014
3017.00,0.0014
3016.75,0.0014
3016.50,0.0013
3016.25,0.0012
3016.00,0.0012
3015.75,0.0012
3015.50,0.0011
3015.25,0.0011
3015.00,0.0010
3014.75,0.0010
3014.50,0.0011
3014.25,0.0013
3014.00,0.0014
3013.75,0.0015
3013.50,0.0014
3013.25,0.0013
3013.00,0.0012
3012.75,0.0011
3012.50,0.0010
3012.25,0.0011
3012.00,0.0012
3011.75,0.0014
3011.50,0.0015
3011.25,0.0015
3011.00,0.0015
3010.75,0.0014
3010.50,0.0014
3010.25,0.0015
3010.00,0.0015
3009.75,0.0015
3009.50,0.0015
3009.25,0.0014
3009.00,0.0013
3008.75,0.0013
3008.50,0.0013
3008.25,0.0013
3008.00,0.0014
3007.75,0.0015
3007.50,0.0015
3007.25,0.0015
3007.00,0.0015
3006.75,0.0014
3006.50,0.0013
3006.25,0.0013
3006.00,0.0014
3005.75,0.0015
3005.50,0.0015
3005.25,0.0015
3005.00,0.0014
3004.75,0.0014
3004.50,0.0014
3004.25,0.0015
3004.00,0.0015
3003.75,0.0016
3003.50,0.0017
3003.25,0.0018
3003.00,0.0018
3002.75,0.0018
3002.50,0.0018
3002.25,0.0018
3002.00,0.0019
3001.75,0.0020
3001.50,0.0020
3001.25,0.0019
3001.00,0.0018
3000.75,0.0017
3000.50,0.0016
3000.25,0.0015
3000.00,0.0015
2999.75,0.0015
2999.50,0.0014
2999.25,0.0013
2999.00,0.0013
2998.75,0.0013
2998.50,0.0014
2998.25,0.0015
2998.00,0.0016
2997.75,0.0017
2997.50,0.0018
2997.25,0.0018
2997.00,0.0019
2996.75,0.0020
2996.50,0.0021
2996.25,0.0022
2996.00,0.0023
2995.75,0.0024
2995.50,0.0026
2995.25,0.0027
2995.00,0.0027
2994.75,0.0026
2994.50,0.0024
2994.25,0.0022
2994.00,0.0021
2993.75,0.0020
2993.50,0.0020
2993.25,0.0020
2993.00,0.0021
2992.75,0.0022
2992.50,0.0023
2992.25,0.0025
2992.00,0.0025
2991.75,0.0026
2991.50,0.0026
2991.25,0.0026
2991.00,0.0025
2990.75,0.0023
2990.50,0.0022
2990.25,0.0021
2990.00,0.0021
2989.75,0.0023
2989.50,0.0025
2989.25,0.0027
2989.00,0.0029
2988.75,0.0030
2988.50,0.0031
2988.25,0.0032
2988.00,0.0032
2987.75,0.0032
2987.50,0.0032
2987.25,0.0032
2987.00,0.0033
2986.75,0.0034
2986.50,0.0034
2986.25,0.0034
2986.00,0.0034
2985.75,0.0035
2985.50,0.0035
2985.25,0.0037
2985.00,0.0038
2984.75,0.0040
2984.50,0.0041
2984.25,0.0041
2984.00,0.0041
2983.75,0.0041
2983.50,0.0041
2983.25,0.0041
2983.00,0.0042
2982.75,0.0043
2982.50,0.0045
2982.25,0.0046
2982.00,0.0047
2981.75,0.0049
2981.50,0.0051
2981.25,0.0053
2981.00,0.0053
2980.75,0.0053
2980.50,0.0053
2980.25,0.0053
2980.00,0.0055
2979.75,0.0058
2979.50,0.0061
2979.25,0.0064
2979.00,0.0066
2978.75,0.0068
2978.50,0.0069
2978.25,0.0071
2978.00,0.0073
2977.75,0.0074
2977.50,0.0076
2977.25,0.0077
2977.00,0.0078
2976.75,0.0079
2976.50,0.0081
2976.25,0.0084
2976.00,0.0087
2975.75,0.0090
2975.50,0.0093
2975.25,0.0096
2975.00,0.0100
2974.75,0.0103
2974.50,0.0106
2974.25,0.0109
2974.00,0.0112
2973.75,0.0115
2973.50,0.0118
2973.25,0.0122
2973.00,0.0126
2972.75,0.0129
2972.50,0.0133
2972.25,0.0137
2972.00,0.0140
2971.75,0.0144
2971.50,0.0148
2971.25,0.0153
2971.00,0.0158
2970.75,0.0163
2970.50,0.0168
2970.25,0.0173
2970.00,0.0178
2969.75,0.0183
2969.50,0.0187
2969.25,0.0192
2969.00,0.0198
2968.75,0.0204
2968.50,0.0210
2968.25,0.0216
2968.00,0.0222
2967.75,0.0228
2967.50,0.0234
2967.25,0.0240
2967.00,0.0246
2966.75,0.0251
2966.50,0.0256
2966.25,0.0260
2966.00,0.0265
2965.75,0.0269
2965.50,0.0274
2965.25,0.0279
2965.00,0.0284
2964.75,0.0289
2964.50,0.0294
2964.25,0.0299
2964.00,0.0303
2963.75,0.0306
2963.50,0.0308
2963.25,0.0309
2963.00,0.0311
2962.75,0.0311
2962.50,0.0312
2962.25,0.0312
2962.00,0.0312
2961.75,0.0313
2961.50,0.0314
2961.25,0.0314
2961.00,0.0312
2960.75,0.0308
2960.50,0.0304
2960.25,0.0299
2960.00,0.0295
2959.75,0.0291
2959.50,0.0288
2959.25,0.0284
2959.00,0.0280
2958.75,0.0274
2958.50,0.0268
2958.25,0.0262
2958.00,0.0257
2957.75,0.0251
2957.50,0.0246
2957.25,0.0240
2957.00,0.0234
2956.75,0.0227
2956.50,0.0221
2956.25,0.0215
2956.00,0.0208
2955.75,0.0202
2955.50,0.0196
2955.25,0.0190
2955.00,0.0184
2954.75,0.0179
2954.50,0.0174
2954.25,0.0169
2954.00,0.0164
2953.75,0.0159
2953.50,0.0154
2953.25,0.0150
2953.00,0.0145
2952.75,0.0140
2952.50,0.0135
2952.25,0.0131
2952.00,0.0126
2951.75,0.0123
2951.50,0.0119
2951.25,0.0116
2951.00,0.0114
2950.75,0.0111
2950.50,0.0109
2950.25,0.0106
2950.00,0.0103
2949.75,0.0099
2949.50,0.0094
2949.25,0.0090
2949.00,0.0087
2948.75,0.0084
2948.50,0.0081
2948.25,0.0079
2948.00,0.0077
2947.75,0.0076
2947.50,0.0076
2947.25,0.0076
2947.00,0.0076
2946.75,0.0075
2946.50,0.0074
2946.25,0.0072
2946.00,0.0071
2945.75,0.0069
2945.50,0.0066
2945.25,0.0064
2945.00,0.0062
2944.75,0.0060
2944.50,0.0059
2944.25,0.0058
2944.00,0.0057
2943.75,0.0056
2943.50,0.0055
2943.25,0.0052
2943.00,0.0050
2942.75,0.0049
2942.50,0.0049
2942.25,0.0049
2942.00,0.0049
2941.75,0.0049
2941.50,0.0049
2941.25,0.0048
2941.00,0.0048
2940.75,0.0047
2940.50,0.0046
2940.25,0.0045
2940.00,0.0043
2939.75,0.0042
2939.50,0.0040
2939.25,0.0039
2939.00,0.0037
2938.75,0.0037
2938.50,0.0036
2938.25,0.0037
2938.00,0.0038
2937.75,0.0038
2937.50,0.0038
2937.25,0.0038
2937.00,0.0037
2936.75,0.0037
2936.50,0.0037
2936.25,0.0037
2936.00,0.0036
2935.75,0.0035
2935.50,0.0035
2935.25,0.0035
2935.00,0.0035
2934.75,0.0035
2934.50,0.0035
2934.25,0.0034
2934.00,0.0033
2933.75,0.0032
2933.50,0.0032
2933.25,0.0032
2933.00,0.0032
2932.75,0.0033
2932.50,0.0033
2932.25,0.0034
2932.00,0.0034
2931.75,0.0033
2931.50,0.0033
2931.25,0.0032
2931.00,0.0032
2930.75,0.0032
2930.50,0.0032
2930.25,0.0032
2930.00,0.0032
2929.75,0.0033
2929.50,0.0033
2929.25,0.0033
2929.00,0.0033
2928.75,0.0033
2928.50,0.0033
2928.25,0.0033
2928.00,0.0033
2927.75,0.0034
2927.50,0.0035
2927.25,0.0036
2927.00,0.0035
2926.75,0.0034
2926.50,0.0034
2926.25,0.0033
2926.00,0.0034
2925.75,0.0035
2925.50,0.0036
2925.25,0.0038
2925.00,0.0039
2924.75,0.0039
2924.50,0.0038
2924.25,0.0037
2924.00,0.0037
2923.75,0.0038
2923.50,0.0039
2923.25,0.0040
2923.00,0.0041
2922.75,0.0041
2922.50,0.0041
2922.25,0.0041
2922.00,0.0042
2921.75,0.0043
2921.50,0.0044
2921.25,0.0046
2921.00,0.0048
2920.75,0.0051
2920.50,0.0052
2920.25,0.0053
2920.00,0.0053
2919.75,0.0053
2919.50,0.0053
2919.25,0.0053
2919.00,0.0053
2918.75,0.0053
2918.50,0.0053
2918.25,0.0054
2918.00,0.0056
2917.75,0.0058
2917.50,0.0060
2917.25,0.0061
2917.00,0.0062
2916.75,0.0063
2916.50,0.0062
2916.25,0.0061
2916.00,0.0060
2915.75,0.0058
2915.50,0.0057
2915.25,0.0056
2915.00,0.0055
2914.75,0.0055
2914.50,0.0056
2914.25,0.0058
2914.00,0.0059
2913.75,0.0060
2913.50,0.0060
2913.25,0.0059
2913.00,0.0057
2912.75,0.0055
2912.50,0.0053
2912.25,0.0052
2912.00,0.0051
2911.75,0.0052
2911.50,0.0052
2911.25,0.0052
2911.00,0.0051
2910.75,0.0050
2910.50,0.0049
2910.25,0.0050
2910.00,0.0051
2909.75,0.0052
2909.50,0.0053
2909.25,0.0052
2909.00,0.0051
2908.75,0.0050
2908.50,0.0050
2908.25,0.0051
2908.00,0.0052
2907.75,0.0053
2907.50,0.0054
2907.25,0.0055
2907.00,0.0056
2906.75,0.0057
2906.50,0.0058
2906.25,0.0059
2906.00,0.0059
2905.75,0.0059
2905.50,0.0059
2905.25,0.0059
2905.00,0.0059
2904.75,0.0059
2904.50,0.0058
2904.25,0.0058
2904.00,0.0057
2903.75,0.0056
2903.50,0.0055
2903.25,0.0054
2903.00,0.0053
2902.75,0.0053
2902.50,0.0053
2902.25,0.0053
2902.00,0.0054
2901.75,0.0055
2901.50,0.0055
2901.25,0.0055
2901.00,0.0055
2900.75,0.0054
2900.50,0.0054
2900.25,0.0053
2900.00,0.0052
2899.75,0.0051
2899.50,0.0049
2899.25,0.0047
2899.00,0.0046
2898.75,0.0044
2898.50,0.0044
2898.25,0.0044
2898.00,0.0045
2897.75,0.0045
2897.50,0.0045
2897.25,0.0045
2897.00,0.0045
2896.75,0.0043
2896.50,0.0041
2896.25,0.0039
2896.00,0.0037
2895.75,0.0036
2895.50,0.0036
2895.25,0.0036
2895.00,0.0036
2894.75,0.0036
2894.50,0.0036
2894.25,0.0036
2894.00,0.0035
2893.75,0.0035
2893.50,0.0034
2893.25,0.0034
2893.00,0.0034
2892.75,0.0034
2892.50,0.0033
2892.25,0.0032
2892.00,0.0030
2891.75,0.0029
2891.50,0.0028
2891.25,0.0028
2891.00,0.0029
2890.75,0.0028
2890.50,0.0028
2890.25,0.0026
2890.00,0.0025
2889.75,0.0023
2889.50,0.0023
2889.25,0.0023
2889.00,0.0023
2888.75,0.0023
2888.50,0.0024
2888.25,0.0024
2888.00,0.0024
2887.75,0.0024
2887.50,0.0023
2887.25,0.0022
2887.00,0.0022
2886.75,0.0022
2886.50,0.0022
2886.25,0.0023
2886.00,0.0023
2885.75,0.0023
2885.50,0.0022
2885.25,0.0021
2885.00,0.0021
2884.75,0.0021
2884.50,0.0021
2884.25,0.0021
2884.00,0.0021
2883.75,0.0020
2883.50,0.0020
2883.25,0.0020
2883.00,0.0021
2882.75,0.0022
2882.50,0.0023
2882.25,0.0023
2882.00,0.0022
2881.75,0.0021
2881.50,0.0019
2881.25,0.0019
2881.00,0.0019
2880.75,0.0020
2880.50,0.0020
2880.25,0.0020
2880.00,0.0019
2879.75,0.0019
2879.50,0.0019
2879.25,0.0019
2879.00,0.0019
2878.75,0.0020
2878.50,0.0020
2878.25,0.0021
2878.00,0.0021
2877.75,0.0020
2877.50,0.0019
2877.25,0.0019
2877.00,0.0018
2876.75,0.0017
2876.50,0.0017
2876.25,0.0017
2876.00,0.0017
2875.75,0.0017
2875.50,0.0018
2875.25,0.0018
2875.00,0.0019
2874.75,0.0019
2874.50,0.0019
2874.25,0.0018
2874.00,0.0017
2873.75,0.0016
2873.50,0.0016
2873.25,0.0016
2873.00,0.0017
2872.75,0.0017
2872.50,0.0017
2872.25,0.0017
2872.00,0.0018
2871.75,0.0018
2871.50,0.0018
2871.25,0.0017
2871.00,0.0017
2870.75,0.0017
2870.50,0.0017
2870.25,0.0017
2870.00,0.0016
2869.75,0.0015
2869.50,0.0014
2869.25,0.0014
2869.00,0.0015
2868.75,0.0017
2868.50,0.0018
2868.25,0.0020
2868.00,0.0020
2867.75,0.0020
2867.50,0.0019
2867.25,0.0018
2867.00,0.0017
2866.75,0.0016
2866.50,0.0015
2866.25,0.0015
2866.00,0.0014
2865.75,0.0015
2865.50,0.0015
2865.25,0.0016
2865.00,0.0017
2864.75,0.0017
2864.50,0.0017
2864.25,0.0017
2864.00,0.0017
2863.75,0.0016
2863.50,0.0016
2863.25,0.0016
2863.00,0.0017
2862.75,0.0017
2862.50,0.0016
2862.25,0.0015
2862.00,0.0014
2861.75,0.0015
2861.50,0.0016
2861.25,0.0017
2861.00,0.0018
2860.75,0.0018
2860.50,0.0018
2860.25,0.0017
2860.00,0.0016
2859.75,0.0015
2859.50,0.0014
2859.25,0.0014
2859.00,0.0015
2858.75,0.0015
2858.50,0.0015
2858.25,0.0016
2858.00,0.0017
2857.75,0.0018
2857.50,0.0019
2857.25,0.0020
2857.00,0.0020
2856.75,0.0019
2856.50,0.0018
2856.25,0.0018
2856.00,0.0018
2855.75,0.0017
2855.50,0.0017
2855.25,0.0016
2855.00,0.0017
2854.75,0.0018
2854.50,0.0020
2854.25,0.0021
2854.00,0.0023
2853.75,0.0024
2853.50,0.0025
2853.25,0.0026
2853.00,0.0025
2852.75,0.0025
2852.50,0.0023
2852.25,0.0022
2852.00,0.0022
2851.75,0.0023
2851.50,0.0024
2851.25,0.0027
2851.00,0.0029
2850.75,0.0030
2850.50,0.0032
2850.25,0.0034
2850.00,0.0035
2849.75,0.0036
2849.50,0.0036
2849.25,0.0035
2849.00,0.0034
2848.75,0.0033
2848.50,0.0032
2848.25,0.0032
2848.00,0.0031
2847.75,0.0031
2847.50,0.0031
2847.25,0.0031
2847.00,0.0031
2846.75,0.0030
2846.50,0.0030
2846.25,0.0029
2846.00,0.0028
2845.75,0.0027
2845.50,0.0026
2845.25,0.0024
2845.00,0.0023
2844.75,0.0021
2844.50,0.0020
2844.25,0.0020
2844.00,0.0019
2843.75,0.0019
2843.50,0.0019
2843.25,0.0019
2843.00,0.0019
2842.75,0.0019
2842.50,0.0018
2842.25,0.0017
2842.00,0.0015
2841.75,0.0014
2841.50,0.0013
2841.25,0.0013
2841.00,0.0014
2840.75,0.0015
2840.50,0.0017
2840.25,0.0018
2840.00,0.0019
2839.75,0.0019
2839.50,0.0018
2839.25,0.0017
2839.00,0.0016
2838.75,0.0016
2838.50,0.0015
2838.25,0.0016
2838.00,0.0017
2837.75,0.0018
2837.50,0.0018
2837.25,0.0018
2837.00,0.0018
2836.75,0.0017
2836.50,0.0016
2836.25,0.0015
2836.00,0.0015
2835.75,0.0015
2835.50,0.0014
2835.25,0.0014
2835.00,0.0014
2834.75,0.0015
2834.50,0.0016
2834.25,0.0016
2834.00,0.0017
2833.75,0.0017
2833.50,0.0016
2833.25,0.0014
2833.00,0.0013
2832.75,0.0012
2832.50,0.0012
2832.25,0.0012
2832.00,0.0012
2831.75,0.0012
2831.50,0.0012
2831.25,0.0012
2831.00,0.0012
2830.75,0.0012
2830.50,0.0012
2830.25,0.0012
2830.00,0.0013
2829.75,0.0014
2829.50,0.0015
2829.25,0.0015
2829.00,0.0015
2828.75,0.0014
2828.50,0.0013
2828.25,0.0012
2828.00,0.0011
2827.75,0.0011
2827.50,0.0011
2827.25,0.0011
2827.00,0.0011
2826.75,0.0010
2826.50,0.0010
2826.25,0.0009
2826.00,0.0009
2825.75,0.0010
2825.50,0.0011
2825.25,0.0011
2825.00,0.0012
2824.75,0.0012
2824.50,0.0013
2824.25,0.0013
2824.00,0.0013
2823.75,0.0012
2823.50,0.0013
2823.25,0.0013
2823.00,0.0013
2822.75,0.0012
2822.50,0.0012
2822.25,0.0012
2822.00,0.0012
2821.75,0.0014
2821.50,0.0015
2821.25,0.0015
2821.00,0.0015
2820.75,0.0014
2820.50,0.0013
2820.25,0.0012
2820.00,0.0012
2819.75,0.0013
2819.50,0.0014
2819.25,0.0015
2819.00,0.0015
2818.75,0.0014
2818.50,0.0013
2818.25,0.0012
2818.00,0.0010
2817.75,0.0009
2817.50,0.0009
2817.25,0.0009
2817.00,0.0009
2816.75,0.0009
2816.50,0.0010
2816.25,0.0010
2816.00,0.0011
2815.75,0.0011
2815.50,0.0012
2815.25,0.0013
2815.00,0.0015
2814.75,0.0016
2814.50,0.0016
2814.25,0.0016
2814.00,0.0016
2813.75,0.0016
2813.50,0.0015
2813.25,0.0014
2813.00,0.0013
2812.75,0.0012
2812.50,0.0012
2812.25,0.0012
2812.00,0.0012
2811.75,0.0011
2811.50,0.0011
2811.25,0.0011
2811.00,0.0010
2810.75,0.0010
2810.50,0.0010
2810.25,0.0010
2810.00,0.0012
2809.75,0.0013
2809.50,0.0014
2809.25,0.0015
2809.00,0.0015
2808.75,0.0015
2808.50,0.0014
2808.25,0.0014
2808.00,0.0013
2807.75,0.0013
2807.50,0.0013
2807.25,0.0012
2807.00,0.0011
2806.75,0.0011
2806.50,0.0010
2806.25,0.0011
2806.00,0.0012
2805.75,0.0013
2805.50,0.0014
2805.25,0.0014
2805.00,0.0014
2804.75,0.0013
2804.50,0.0012
2804.25,0.0011
2804.00,0.0010
2803.75,0.0011
2803.50,0.0010
2803.25,0.0010
2803.00,0.0009
2802.75,0.0009
2802.50,0.0010
2802.25,0.0011
2802.00,0.0013
2801.75,0.0014
2801.50,0.0014
2801.25,0.0014
2801.00,0.0013
2800.75,0.0013
2800.50,0.0012
2800.25,0.0012
2800.00,0.0011
2799.75,0.0011
2799.50,0.0011
2799.25,0.0011
2799.00,0.0011
2798.75,0.0010
2798.50,0.0009
2798.25,0.0009
2798.00,0.0009
2797.75,0.0009
2797.50,0.0010
2797.25,0.0011
2797.00,0.0012
2796.75,0.0013
2796.50,0.0013
2796.25,0.0013
2796.00,0.0012
2795.75,0.0012
2795.50,0.0011
2795.25,0.0011
2795.00,0.0012
2794.75,0.0012
2794.50,0.0013
2794.25,0.0014
2794.00,0.0014
2793.75,0.0013
2793.50,0.0011
2793.25,0.0010
2793.00,0.0010
2792.75,0.0011
2792.50,0.0012
2792.25,0.0014
2792.00,0.0014
2791.75,0.0014
2791.50,0.0013
2791.25,0.0012
2791.00,0.0011
2790.75,0.0010
2790.50,0.0008
2790.25,0.0007
2790.00,0.0007
2789.75,0.0007
2789.50,0.0009
2789.25,0.0010
2789.00,0.0012
2788.75,0.0012
2788.50,0.0013
2788.25,0.0013
2788.00,0.0012
2787.75,0.0012
2787.50,0.0011
2787.25,0.0011
2787.00,0.0010
2786.75,0.0010
2786.50,0.0010
2786.25,0.0011
2786.00,0.0011
2785.75,0.0011
2785.50,0.0010
2785.25,0.0009
2785.00,0.0009
2784.75,0.0010
2784.50,0.0010
2784.25,0.0011
2784.00,0.0011
2783.75,0.0010
2783.50,0.0010
2783.25,0.0011
2783.00,0.0011
2782.75,0.0011
2782.50,0.0010
2782.25,0.0009
2782.00,0.0007
2781.75,0.0005
2781.50,0.0005
2781.25,0.0006
2781.00,0.0009
2780.75,0.0011
2780.50,0.0013
2780.25,0.0013
2780.00,0.0013
2779.75,0.0011
2779.50,0.0010
2779.25,0.0008
2779.00,0.0007
2778.75,0.0007
2778.50,0.0008
2778.25,0.0008
2778.00,0.0009
2777.75,0.0009
2777.50,0.0009
2777.25,0.0008
2777.00,0.0008
2776.75,0.0008
2776.50,0.0007
2776.25,0.0006
2776.00,0.0006
2775.75,0.0005
2775.50,0.0005
2775.25,0.0006
2775.00,0.0007
2774.75,0.0007
2774.50,0.0008
2774.25,0.0007
2774.00,0.0007
2773.75,0.0007
2773.50,0.0008
2773.25,0.0009
2773.00,0.0009
2772.75,0.0009
2772.50,0.0009
2772.25,0.0008
2772.00,0.0007
2771.75,0.0007
2771.50,0.0007
2771.25,0.0007
2771.00,0.0006
2770.75,0.0006
2770.50,0.0006
2770.25,0.0007
2770.00,0.0008
2769.75,0.0008
2769.50,0.0007
2769.25,0.0006
2769.00,0.0005
2768.75,0.0006
2768.50,0.0006
2768.25,0.0007
2768.00,0.0008
2767.75,0.0008
2767.50,0.0007
2767.25,0.0007
2767.00,0.0006
2766.75,0.0006
2766.50,0.0005
2766.25,0.0005
2766.00,0.0005
2765.75,0.0006
2765.50,0.0007
2765.25,0.0008
2765.00,0.0009
2764.75,0.0009
2764.50,0.0008
2764.25,0.0007
2764.00,0.0007
2763.75,0.0007
2763.50,0.0007
2763.25,0.0008
2763.00,0.0008
2762.75,0.0007
2762.50,0.0007
2762.25,0.0006
2762.00,0.0006
2761.75,0.0006
2761.50,0.0006
2761.25,0.0006
2761.00,0.0006
2760.75,0.0006
2760.50,0.0006
2760.25,0.0006
2760.00,0.0005
2759.75,0.0005
2759.50,0.0005
2759.25,0.0005
2759.00,0.0005
2758.75,0.0005
2758.50,0.0005
2758.25,0.0005
2758.00,0.0004
2757.75,0.0005
2757.50,0.0006
2757.25,0.0008
2757.00,0.0008
2756.75,0.0008
2756.50,0.0007
2756.25,0.0006
2756.00,0.0006
2755.75,0.0006
2755.50,0.0007
2755.25,0.0007
2755.00,0.0008
2754.75,0.0008
2754.50,0.0008
2754.25,0.0007
2754.00,0.0007
2753.75,0.0006
2753.50,0.0005
2753.25,0.0004
2753.00,0.0003
2752.75,0.0003
2752.50,0.0004
2752.25,0.0005
2752.00,0.0006
2751.75,0.0005
2751.50,0.0004
2751.25,0.0003
2751.00,0.0002
2750.75,0.0001
2750.50,0.0002
2750.25,0.0002
2750.00,0.0003
2749.75,0.0003
2749.50,0.0003
2749.25,0.0003
2749.00,0.0003
2748.75,0.0004
2748.50,0.0005
2748.25,0.0007
2748.00,0.0008
2747.75,0.0009
2747.50,0.0009
2747.25,0.0008
2747.00,0.0007
2746.75,0.0006
2746.50,0.0006
2746.25,0.0006
2746.00,0.0006
2745.75,0.0006
2745.50,0.0006
2745.25,0.0005
2745.00,0.0005
2744.75,0.0003
2744.50,0.0002
2744.25,0.0002
2744.00,0.0001
2743.75,0.0001
2743.50,0.0001
2743.25,0.0001
2743.00,0.0002
2742.75,0.0004
2742.50,0.0006
2742.25,0.0007
2742.00,0.0008
2741.75,0.0008
2741.50,0.0007
2741.25,0.0005
2741.00,0.0004
2740.75,0.0004
2740.50,0.0003
2740.25,0.0004
2740.00,0.0005
2739.75,0.0006
2739.50,0.0006
2739.25,0.0006
2739.00,0.0005
2738.75,0.0005
2738.50,0.0004
2738.25,0.0004
2738.00,0.0005
2737.75,0.0006
2737.50,0.0006
2737.25,0.0007
2737.00,0.0007
2736.75,0.0006
2736.50,0.0005
2736.25,0.0005
2736.00,0.0005
2735.75,0.0005
2735.50,0.0005
2735.25,0.0005
2735.00,0.0005
2734.75,0.0006
2734.50,0.0006
2734.25,0.0006
2734.00,0.0007
2733.75,0.0007
2733.50,0.0007
2733.25,0.0006
2733.00,0.0006
2732.75,0.0005
2732.50,0.0005
2732.25,0.0005
2732.00,0.0005
2731.75,0.0006
2731.50,0.0006
2731.25,0.0006
2731.00,0.0005
2730.75,0.0005
2730.50,0.0004
2730.25,0.0004
2730.00,0.0005
2729.75,0.0006
2729.50,0.0006
2729.25,0.0006
2729.00,0.0006
2728.75,0.0005
2728.50,0.0005
2728.25,0.0005
2728.00,0.0005
2727.75,0.0004
2727.50,0.0004
2727.25,0.0004
2727.00,0.0004
2726.75,0.0005
2726.50,0.0006
2726.25,0.0007
2726.00,0.0008
2725.75,0.0008
2725.50,0.0008
2725.25,0.0007
2725.00,0.0006
2724.75,0.0005
2724.50,0.0004
2724.25,0.0004
2724.00,0.0004
2723.75,0.0004
2723.50,0.0004
2723.25,0.0004
2723.00,0.0005
2722.75,0.0005
2722.50,0.0005
2722.25,0.0005
2722.00,0.0005
2721.75,0.0005
2721.50,0.0005
2721.25,0.0005
2721.00,0.0004
2720.75,0.0004
2720.50,0.0004
2720.25,0.0005
2720.00,0.0006
2719.75,0.0006
2719.50,0.0006
2719.25,0.0006
2719.00,0.0006
2718.75,0.0005
2718.50,0.0005
2718.25,0.0005
2718.00,0.0005
2717.75,0.0005
2717.50,0.0005
2717.25,0.0005
2717.00,0.0004
2716.75,0.0004
2716.50,0.0005
2716.25,0.0005
2716.00,0.0005
2715.75,0.0005
2715.50,0.0004
2715.25,0.0004
2715.00,0.0004
2714.75,0.0004
2714.50,0.0005
2714.25,0.0005
2714.00,0.0006
2713.75,0.0006
2713.50,0.0006
2713.25,0.0007
2713.00,0.0007
2712.75,0.0006
2712.50,0.0005
2712.25,0.0004
2712.00,0.0003
2711.75,0.0002
2711.50,0.0002
2711.25,0.0003
2711.00,0.0003
2710.75,0.0003
2710.50,0.0003
2710.25,0.0004
2710.00,0.0004
2709.75,0.0004
2709.50,0.0004
2709.25,0.0005
2709.00,0.0005
2708.75,0.0006
2708.50,0.0007
2708.25,0.0007
2708.00,0.0006
2707.75,0.0005
2707.50,0.0004
2707.25,0.0003
2707.00,0.0003
2706.75,0.0004
2706.50,0.0005
2706.25,0.0005
2706.00,0.0006
2705.75,0.0006
2705.50,0.0005
2705.25,0.0005
2705.00,0.0004
2704.75,0.0004
2704.50,0.0003
2704.25,0.0003
2704.00,0.0003
2703.75,0.0004
2703.50,0.0005
2703.25,0.0006
2703.00,0.0006
2702.75,0.0006
2702.50,0.0005
2702.25,0.0004
2702.00,0.0003
2701.75,0.0004
2701.50,0.0005
2701.25,0.0006
2701.00,0.0007
2700.75,0.0007
2700.50,0.0007
2700.25,0.0006
2700.00,0.0006
2699.75,0.0005
2699.50,0.0005
2699.25,0.0005
2699.00,0.0005
2698.75,0.0006
2698.50,0.0007
2698.25,0.0007
2698.00,0.0006
2697.75,0.0005
2697.50,0.0004
2697.25,0.0003
2697.00,0.0002
2696.75,0.0002
2696.50,0.0003
2696.25,0.0002
2696.00,0.0002
2695.75,0.0001
2695.50,0.0002
2695.25,0.0003
2695.00,0.0004
2694.75,0.0006
2694.50,0.0008
2694.25,0.0009
2694.00,0.0009
2693.75,0.0007
2693.50,0.0006
2693.25,0.0004
2693.00,0.0004
2692.75,0.0005
2692.50,0.0006
2692.25,0.0008
2692.00,0.0008
2691.75,0.0008
2691.50,0.0007
2691.25,0.0005
2691.00,0.0004
2690.75,0.0004
2690.50,0.0004
2690.25,0.0004
2690.00,0.0005
2689.75,0.0005
2689.50,0.0006
2689.25,0.0006
2689.00,0.0007
2688.75,0.0007
2688.50,0.0008
2688.25,0.0008
2688.00,0.0007
2687.75,0.0007
2687.50,0.0006
2687.25,0.0005
2687.00,0.0005
2686.75,0.0005
2686.50,0.0005
2686.25,0.0006
2686.00,0.0006
2685.75,0.0006
2685.50,0.0006
2685.25,0.0005
2685.00,0.0003
2684.75,0.0002
2684.50,0.0001
2684.25,0.0001
2684.00,0.0002
2683.75,0.0003
2683.50,0.0004
2683.25,0.0005
2683.00,0.0006
2682.75,0.0006
2682.50,0.0007
2682.25,0.0008
2682.00,0.0008
2681.75,0.0008
2681.50,0.0007
2681.25,0.0006
2681.00,0.0005
2680.75,0.0005
2680.50,0.0005
2680.25,0.0004
2680.00,0.0004
2679.75,0.0004
2679.50,0.0004
2679.25,0.0005
2679.00,0.0005
2678.75,0.0004
2678.50,0.0004
2678.25,0.0004
2678.00,0.0005
2677.75,0.0005
2677.50,0.0007
2677.25,0.0008
2677.00,0.0008
2676.75,0.0009
2676.50,0.0009
2676.25,0.0008
2676.00,0.0007
2675.75,0.0006
2675.50,0.0005
2675.25,0.0004
2675.00,0.0003
2674.75,0.0003
2674.50,0.0004
2674.25,0.0004
2674.00,0.0004
2673.75,0.0004
2673.50,0.0005
2673.25,0.0005
2673.00,0.0006
2672.75,0.0007
2672.50,0.0007
2672.25,0.0007
2672.00,0.0006
2671.75,0.0005
2671.50,0.0004
2671.25,0.0004
2671.00,0.0004
2670.75,0.0005
2670.50,0.0005
2670.25,0.0005
2670.00,0.0005
2669.75,0.0005
2669.50,0.0005
2669.25,0.0004
2669.00,0.0004
2668.75,0.0004
2668.50,0.0004
2668.25,0.0004
2668.00,0.0004
2667.75,0.0004
2667.50,0.0004
2667.25,0.0004
2667.00,0.0004
2666.75,0.0004
2666.50,0.0005
2666.25,0.0005
2666.00,0.0005
2665.75,0.0006
2665.50,0.0007
2665.25,0.0008
2665.00,0.0009
2664.75,0.0008
2664.50,0.0006
2664.25,0.0005
2664.00,0.0005
2663.75,0.0004
2663.50,0.0004
2663.25,0.0004
2663.00,0.0004
2662.75,0.0005
2662.50,0.0006
2662.25,0.0006
2662.00,0.0006
2661.75,0.0005
2661.50,0.0005
2661.25,0.0004
2661.00,0.0004
2660.75,0.0004
2660.50,0.0004
2660.25,0.0005
2660.00,0.0005
2659.75,0.0006
2659.50,0.0007
2659.25,0.0007
2659.00,0.0007
2658.75,0.0007
2658.50,0.0007
2658.25,0.0007
2658.00,0.0007
2657.75,0.0008
2657.50,0.0008
2657.25,0.0008
2657.00,0.0008
2656.75,0.0007
2656.50,0.0006
2656.25,0.0004
2656.00,0.0004
2655.75,0.0004
2655.50,0.0005
2655.25,0.0006
2655.00,0.0006
2654.75,0.0006
2654.50,0.0005
2654.25,0.0005
2654.00,0.0006
2653.75,0.0007
2653.50,0.0008
2653.25,0.0008
2653.00,0.0009
2652.75,0.0008
2652.50,0.0008
2652.25,0.0007
2652.00,0.0005
2651.75,0.0004
2651.50,0.0004
2651.25,0.0003
2651.00,0.0003
2650.75,0.0003
2650.50,0.0004
2650.25,0.0004
2650.00,0.0005
2649.75,0.0006
2649.50,0.0006
2649.25,0.0006
2649.00,0.0006
2648.75,0.0006
2648.50,0.0006
2648.25,0.0006
2648.00,0.0006
2647.75,0.0006
2647.50,0.0006
2647.25,0.0007
2647.00,0.0007
2646.75,0.0008
2646.50,0.0008
2646.25,0.0008
2646.00,0.0008
2645.75,0.0007
2645.50,0.0006
2645.25,0.0005
2645.00,0.0004
2644.75,0.0003
2644.50,0.0003
2644.25,0.0003
2644.00,0.0002
2643.75,0.0002
2643.50,0.0002
2643.25,0.0003
2643.00,0.0005
2642.75,0.0007
2642.50,0.0008
2642.25,0.0008
2642.00,0.0007
2641.75,0.0006
2641.50,0.0005
2641.25,0.0005
2641.00,0.0006
2640.75,0.0006
2640.50,0.0006
2640.25,0.0006
2640.00,0.0005
2639.75,0.0005
2639.50,0.0005
2639.25,0.0005
2639.00,0.0005
2638.75,0.0005
2638.50,0.0006
2638.25,0.0006
2638.00,0.0006
2637.75,0.0006
2637.50,0.0005
2637.25,0.0005
2637.00,0.0004
2636.75,0.0003
2636.50,0.0002
2636.25,0.0002
2636.00,0.0002
2635.75,0.0003
2635.50,0.0004
2635.25,0.0004
2635.00,0.0005
2634.75,0.0005
2634.50,0.0004
2634.25,0.0003
2634.00,0.0003
2633.75,0.0003
2633.50,0.0004
2633.25,0.0005
2633.00,0.0006
2632.75,0.0007
2632.50,0.0007
2632.25,0.0007
2632.00,0.0007
2631.75,0.0007
2631.50,0.0007
2631.25,0.0006
2631.00,0.0004
2630.75,0.0003
2630.50,0.0001
2630.25,0.0001
2630.00,0.0001
2629.75,0.0002
2629.50,0.0003
2629.25,0.0004
2629.00,0.0005
2628.75,0.0005
2628.50,0.0005
2628.25,0.0005
2628.00,0.0004
2627.75,0.0004
2627.50,0.0004
2627.25,0.0004
2627.00,0.0005
2626.75,0.0006
2626.50,0.0007
2626.25,0.0008
2626.00,0.0008
2625.75,0.0008
2625.50,0.0006
2625.25,0.0004
2625.00,0.0003
2624.75,0.0001
2624.50,0.0001
2624.25,0.0002
2624.00,0.0002
2623.75,0.0003
2623.50,0.0003
2623.25,0.0002
2623.00,0.0001
2622.75,0.0001
2622.50,0.0001
2622.25,0.0002
2622.00,0.0002
2621.75,0.0002
2621.50,0.0002
2621.25,0.0002
2621.00,0.0002
2620.75,0.0002
2620.50,0.0003
2620.25,0.0003
2620.00,0.0004
2619.75,0.0004
2619.50,0.0004
2619.25,0.0004
2619.00,0.0004
2618.75,0.0004
2618.50,0.0006
2618.25,0.0007
2618.00,0.0007
2617.75,0.0007
2617.50,0.0007
2617.25,0.0006
2617.00,0.0004
2616.75,0.0002
2616.50,-0.0000
2616.25,-0.0002
2616.00,-0.0001
2615.75,0.0001
2615.50,0.0003
2615.25,0.0006
2615.00,0.0007
2614.75,0.0007
2614.50,0.0007
2614.25,0.0007
2614.00,0.0007
2613.75,0.0007
2613.50,0.0006
2613.25,0.0006
2613.00,0.0005
2612.75,0.0004
2612.50,0.0004
2612.25,0.0003
2612.00,0.0003
2611.75,0.0002
2611.50,0.0001
2611.25,0.0000
2611.00,-0.0000
2610.75,-0.0000
2610.50,0.0000
2610.25,0.0001
2610.00,0.0001
2609.75,0.0002
2609.50,0.0002
2609.25,0.0002
2609.00,0.0003
2608.75,0.0003
2608.50,0.0003
2608.25,0.0002
2608.00,0.0002
2607.75,0.0002
2607.50,0.0002
2607.25,0.0004
2607.00,0.0005
2606.75,0.0005
2606.50,0.0004
2606.25,0.0003
2606.00,0.0003
2605.75,0.0004
2605.50,0.0006
2605.25,0.0008
2605.00,0.0009
2604.75,0.0009
2604.50,0.0008
2604.25,0.0007
2604.00,0.0005
2603.75,0.0003
2603.50,0.0002
2603.25,0.0001
2603.00,0.0001
2602.75,0.0001
2602.50,0.0002
2602.25,0.0002
2602.00,0.0002
2601.75,0.0002
2601.50,0.0001
2601.25,0.0001
2601.00,-0.0000
2600.75,-0.0000
2600.50,0.0000
2600.25,0.0002
2600.00,0.0003
2599.75,0.0003
2599.50,0.0001
2599.25,-0.0001
2599.00,-0.0002
2598.75,-0.0003
2598.50,-0.0001
2598.25,0.0001
2598.00,0.0003
2597.75,0.0005
2597.50,0.0005
2597.25,0.0005
2597.00,0.0005
2596.75,0.0004
2596.50,0.0003
2596.25,0.0002
2596.00,0.0001
2595.75,-0.0000
2595.50,-0.0002
2595.25,-0.0003
2595.00,-0.0005
2594.75,-0.0005
2594.50,-0.0004
2594.25,-0.0003
2594.00,-0.0001
2593.75,-0.0000
2593.50,0.0001
2593.25,0.0001
2593.00,0.0001
2592.75,0.0002
2592.50,0.0002
2592.25,0.0003
2592.00,0.0002
2591.75,0.0001
2591.50,-0.0001
2591.25,-0.0001
2591.00,0.0000
2590.75,0.0003
2590.50,0.0005
2590.25,0.0007
2590.00,0.0007
2589.75,0.0006
2589.50,0.0004
2589.25,0.0004
2589.00,0.0004
2588.75,0.0004
2588.50,0.0005
2588.25,0.0005
2588.00,0.0006
2587.75,0.0007
2587.50,0.0007
2587.25,0.0006
2587.00,0.0004
2586.75,0.0001
2586.50,-0.0001
2586.25,-0.0002
2586.00,-0.0002
2585.75,-0.0001
2585.50,0.0001
2585.25,0.0002
2585.00,0.0004
2584.75,0.0004
2584.50,0.0004
2584.25,0.0003
2584.00,0.0001
2583.75,-0.0001
2583.50,-0.0001
2583.25,0.0000
2583.00,0.0002
2582.75,0.0004
2582.50,0.0004
2582.25,0.0002
2582.00,-0.0002
2581.75,-0.0004
2581.50,-0.0006
2581.25,-0.0006
2581.00,-0.0004
2580.75,-0.0003
2580.50,-0.0001
2580.25,0.0000
2580.00,0.0001
2579.75,0.0002
2579.50,0.0003
2579.25,0.0004
2579.00,0.0005
2578.75,0.0005
2578.50,0.0005
2578.25,0.0004
2578.00,0.0003
2577.75,0.0000
2577.50,-0.0002
2577.25,-0.0004
2577.00,-0.0004
2576.75,-0.0003
2576.50,-0.0001
2576.25,0.0001
2576.00,0.0004
2575.75,0.0006
2575.50,0.0008
2575.25,0.0008
2575.00,0.0007
2574.75,0.0005
2574.50,0.0004
2574.25,0.0003
2574.00,0.0003
2573.75,0.0003
2573.50,0.0003
2573.25,0.0004
2573.00,0.0003
2572.75,0.0001
2572.50,-0.0001
2572.25,-0.0003
2572.00,-0.0002
2571.75,-0.0001
2571.50,0.0001
2571.25,0.0003
2571.00,0.0003
2570.75,0.0003
2570.50,0.0002
2570.25,0.0001
2570.00,0.0001
2569.75,0.0001
2569.50,0.0001
2569.25,0.0002
2569.00,0.0003
2568.75,0.0004
2568.50,0.0004
2568.25,0.0002
2568.00,0.0000
2567.75,-0.0002
2567.50,-0.0003
2567.25,-0.0004
2567.00,-0.0004
2566.75,-0.0004
2566.50,-0.0003
2566.25,-0.0001
2566.00,0.0001
2565.75,0.0003
2565.50,0.0005
2565.25,0.0005
2565.00,0.0004
2564.75,0.0003
2564.50,0.0003
2564.25,0.0003
2564.00,0.0004
2563.75,0.0006
2563.50,0.0008
2563.25,0.0009
2563.00,0.0009
2562.75,0.0007
2562.50,0.0005
2562.25,0.0003
2562.00,0.0001
2561.75,-0.0001
2561.50,-0.0002
2561.25,-0.0002
2561.00,-0.0001
2560.75,0.0001
2560.50,0.0003
2560.25,0.0004
2560.00,0.0003
2559.75,0.0002
2559.50,0.0002
2559.25,0.0002
2559.00,0.0004
2558.75,0.0005
2558.50,0.0005
2558.25,0.0005
2558.00,0.0005
2557.75,0.0005
2557.50,0.0006
2557.25,0.0006
2557.00,0.0006
2556.75,0.0006
2556.50,0.0005
2556.25,0.0004
2556.00,0.0003
2555.75,0.0002
2555.50,0.0003
2555.25,0.0003
2555.00,0.0003
2554.75,0.0002
2554.50,-0.0000
2554.25,-0.0002
2554.00,-0.0003
2553.75,-0.0002
2553.50,-0.0000
2553.25,0.0001
2553.00,0.0001
2552.75,0.0000
2552.50,-0.0001
2552.25,-0.0002
2552.00,-0.0003
2551.75,-0.0004
2551.50,-0.0003
2551.25,-0.0002
2551.00,-0.0001
2550.75,0.0001
2550.50,0.0003
2550.25,0.0004
2550.00,0.0004
2549.75,0.0003
2549.50,0.0002
2549.25,-0.0000
2549.00,-0.0002
2548.75,-0.0004
2548.50,-0.0004
2548.25,-0.0003
2548.00,-0.0001
2547.75,-0.0000
2547.50,-0.0000
2547.25,-0.0001
2547.00,-0.0001
2546.75,-0.0001
2546.50,-0.0000
2546.25,0.0002
2546.00,0.0003
2545.75,0.0004
2545.50,0.0004
2545.25,0.0003
2545.00,0.0001
2544.75,-0.0000
2544.50,-0.0002
2544.25,-0.0003
2544.00,-0.0003
2543.75,-0.0003
2543.50,-0.0002
2543.25,-0.0001
2543.00,0.0000
2542.75,0.0000
2542.50,-0.0000
2542.25,-0.0000
2542.00,0.0001
2541.75,0.0002
2541.50,0.0002
2541.25,0.0002
2541.00,0.0001
2540.75,-0.0001
2540.50,-0.0002
2540.25,-0.0002
2540.00,-0.0001
2539.75,0.0000
2539.50,0.0001
2539.25,0.0002
2539.00,0.0003
2538.75,0.0003
2538.50,0.0003
2538.25,0.0001
2538.00,-0.0002
2537.75,-0.0004
2537.50,-0.0005
2537.25,-0.0004
2537.00,-0.0002
2536.75,-0.0000
2536.50,0.0001
2536.25,0.0002
2536.00,0.0003
2535.75,0.0002
2535.50,0.0001
2535.25,0.0000
2535.00,-0.0001
2534.75,-0.0002
2534.50,-0.0002
2534.25,-0.0001
2534.00,-0.0000
2533.75,0.0000
2533.50,-0.0000
2533.25,-0.0001
2533.00,-0.0002
2532.75,-0.0002
2532.50,-0.0002
2532.25,-0.0001
2532.00,-0.0001
2531.75,-0.0002
2531.50,-0.0004
2531.25,-0.0005
2531.00,-0.0007
2530.75,-0.0008
2530.50,-0.0009
2530.25,-0.0009
2530.00,-0.0008
2529.75,-0.0005
2529.50,-0.0003
2529.25,-0.0002
2529.00,-0.0003
2528.75,-0.0004
2528.50,-0.0006
2528.25,-0.0008
2528.00,-0.0009
2527.75,-0.0010
2527.50,-0.0011
2527.25,-0.0011
2527.00,-0.0011
2526.75,-0.0012
2526.50,-0.0013
2526.25,-0.0013
2526.00,-0.0012
2525.75,-0.0012
2525.50,-0.0011
2525.25,-0.0011
2525.00,-0.0010
2524.75,-0.0008
2524.50,-0.0005
2524.25,-0.0003
2524.00,-0.0003
2523.75,-0.0005
2523.50,-0.0008
2523.25,-0.0010
2523.00,-0.0010
2522.75,-0.0010
2522.50,-0.0010
2522.25,-0.0011
2522.00,-0.0012
2521.75,-0.0013
2521.50,-0.0012
2521.25,-0.0011
2521.00,-0.0009
2520.75,-0.0009
2520.50,-0.0009
2520.25,-0.0010
2520.00,-0.0010
2519.75,-0.0009
2519.50,-0.0008
2519.25,-0.0007
2519.00,-0.0006
2518.75,-0.0005
2518.50,-0.0005
2518.25,-0.0005
2518.00,-0.0005
2517.75,-0.0006
2517.50,-0.0007
2517.25,-0.0007
2517.00,-0.0007
2516.75,-0.0007
2516.50,-0.0007
2516.25,-0.0008
2516.00,-0.0008
2515.75,-0.0009
2515.50,-0.0009
2515.25,-0.0010
2515.00,-0.0010
2514.75,-0.0010
2514.50,-0.0009
2514.25,-0.0009
2514.00,-0.0009
2513.75,-0.0009
2513.50,-0.0008
2513.25,-0.0008
2513.00,-0.0008
2512.75,-0.0009
2512.50,-0.0009
2512.25,-0.0010
2512.00,-0.0010
2511.75,-0.0009
2511.50,-0.0007
2511.25,-0.0005
2511.00,-0.0004
2510.75,-0.0005
2510.50,-0.0006
2510.25,-0.0007
2510.00,-0.0007
2509.75,-0.0008
2509.50,-0.0008
2509.25,-0.0008
2509.00,-0.0008
2508.75,-0.0006
2508.50,-0.0005
2508.25,-0.0005
2508.00,-0.0005
2507.75,-0.0006
2507.50,-0.0006
2507.25,-0.0007
2507.00,-0.0007
2506.75,-0.0007
2506.50,-0.0008
2506.25,-0.0009
2506.00,-0.0010
2505.75,-0.0011
2505.50,-0.0011
2505.25,-0.0011
2505.00,-0.0010
2504.75,-0.0010
2504.50,-0.0009
2504.25,-0.0009
2504.00,-0.0009
2503.75,-0.0010
2503.50,-0.0009
2503.25,-0.0007
2503.00,-0.0006
2502.75,-0.0004
2502.50,-0.0004
2502.25,-0.0005
2502.00,-0.0006
2501.75,-0.0006
2501.50,-0.0005
2501.25,-0.0004
2501.00,-0.0003
2500.75,-0.0002
2500.50,-0.0002
2500.25,-0.0002
2500.00,-0.0003
2499.75,-0.0003
2499.50,-0.0004
2499.25,-0.0003
2499.00,-0.0003
2498.75,-0.0002
2498.50,-0.0002
2498.25,-0.0001
2498.00,-0.0001
2497.75,-0.0001
2497.50,-0.0001
2497.25,-0.0001
2497.00,-0.0001
2496.75,-0.0003
2496.50,-0.0004
2496.25,-0.0005
2496.00,-0.0004
2495.75,-0.0003
2495.50,-0.0002
2495.25,-0.0002
2495.00,-0.0003
2494.75,-0.0003
2494.50,-0.0002
2494.25,-0.0000
2494.00,0.0001
2493.75,0.0001
2493.50,-0.0001
2493.25,-0.0003
2493.00,-0.0004
2492.75,-0.0003
2492.50,-0.0001
2492.25,0.0002
2492.00,0.0004
2491.75,0.0004
2491.50,0.0003
2491.25,0.0000
2491.00,-0.0002
2490.75,-0.0003
2490.50,-0.0004
2490.25,-0.0003
2490.00,-0.0003
2489.75,-0.0003
2489.50,-0.0003
2489.25,-0.0003
2489.00,-0.0003
2488.75,-0.0002
2488.50,-0.0001
2488.25,-0.0001
2488.00,0.0000
2487.75,0.0001
2487.50,0.0001
2487.25,0.0001
2487.00,0.0001
2486.75,-0.0000
2486.50,-0.0002
2486.25,-0.0004
2486.00,-0.0006
2485.75,-0.0006
2485.50,-0.0005
2485.25,-0.0002
2485.00,0.0001
2484.75,0.0004
2484.50,0.0005
2484.25,0.0005
2484.00,0.0004
2483.75,0.0002
2483.50,0.0001
2483.25,-0.0001
2483.00,-0.0001
2482.75,-0.0002
2482.50,-0.0003
2482.25,-0.0003
2482.00,-0.0002
2481.75,-0.0000
2481.50,0.0001
2481.25,0.0002
2481.00,0.0004
2480.75,0.0005
2480.50,0.0005
2480.25,0.0006
2480.00,0.0006
2479.75,0.0006
2479.50,0.0006
2479.25,0.0005
2479.00,0.0003
2478.75,0.0001
2478.50,-0.0002
2478.25,-0.0003
2478.00,-0.0004
2477.75,-0.0004
2477.50,-0.0002
2477.25,-0.0001
2477.00,0.0001
2476.75,0.0002
2476.50,0.0001
2476.25,0.0001
2476.00,0.0000
2475.75,0.0002
2475.50,0.0004
2475.25,0.0006
2475.00,0.0006
2474.75,0.0004
2474.50,0.0001
2474.25,-0.0002
2474.00,-0.0005
2473.75,-0.0005
2473.50,-0.0004
2473.25,-0.0002
2473.00,0.0001
2472.75,0.0004
2472.50,0.0005
2472.25,0.0005
2472.00,0.0004
2471.75,0.0002
2471.50,0.0000
2471.25,-0.0001
2471.00,-0.0001
2470.75,-0.0001
2470.50,0.0000
2470.25,0.0001
2470.00,0.0002
2469.75,0.0001
2469.50,0.0000
2469.25,-0.0001
2469.00,-0.0001
2468.75,-0.0001
2468.50,-0.0000
2468.25,0.0001
2468.00,0.0003
2467.75,0.0004
2467.50,0.0005
2467.25,0.0005
2467.00,0.0005
2466.75,0.0004
2466.50,0.0003
2466.25,0.0003
2466.00,0.0003
2465.75,0.0003
2465.50,0.0003
2465.25,0.0003
2465.00,0.0003
2464.75,0.0003
2464.50,0.0004
2464.25,0.0005
2464.00,0.0005
2463.75,0.0003
2463.50,0.0000
2463.25,-0.0003
2463.00,-0.0007
2462.75,-0.0008
2462.50,-0.0007
2462.25,-0.0004
2462.00,-0.0000
2461.75,0.0003
2461.50,0.0004
2461.25,0.0004
2461.00,0.0003
2460.75,0.0002
2460.50,0.0002
2460.25,0.0003
2460.00,0.0003
2459.75,0.0003
2459.50,0.0002
2459.25,0.0002
2459.00,0.0002
2458.75,0.0002
2458.50,0.0001
2458.25,-0.0000
2458.00,-0.0002
2457.75,-0.0004
2457.50,-0.0004
2457.25,-0.0004
2457.00,-0.0004
2456.75,-0.0003
2456.50,-0.0003
2456.25,-0.0002
2456.00,-0.0000
2455.75,0.0000
2455.50,0.0001
2455.25,0.0001
2455.00,0.0000
2454.75,-0.0001
2454.50,-0.0002
2454.25,-0.0003
2454.00,-0.0003
2453.75,-0.0001
2453.50,0.0000
2453.25,0.0001
2453.00,0.0000
2452.75,-0.0001
2452.50,-0.0001
2452.25,-0.0001
2452.00,-0.0000
2451.75,0.0001
2451.50,0.0001
2451.25,0.0001
2451.00,0.0001
2450.75,0.0002
2450.50,0.0004
2450.25,0.0006
2450.00,0.0007
2449.75,0.0006
2449.50,0.0005
2449.25,0.0003
2449.00,0.0001
2448.75,0.0001
2448.50,0.0001
2448.25,0.0002
2448.00,0.0001
2447.75,-0.0001
2447.50,-0.0003
2447.25,-0.0004
2447.00,-0.0002
2446.75,0.0001
2446.50,0.0004
2446.25,0.0005
2446.00,0.0003
2445.75,-0.0001
2445.50,-0.0005
2445.25,-0.0007
2445.00,-0.0008
2444.75,-0.0007
2444.50,-0.0006
2444.25,-0.0005
2444.00,-0.0004
2443.75,-0.0003
2443.50,-0.0002
2443.25,-0.0001
2443.00,-0.0001
2442.75,-0.0001
2442.50,-0.0001
2442.25,0.0000
2442.00,0.0003
2441.75,0.0006
2441.50,0.0010
2441.25,0.0012
2441.00,0.0013
2440.75,0.0012
2440.50,0.0009
2440.25,0.0006
2440.00,0.0004
2439.75,0.0003
2439.50,0.0003
2439.25,0.0003
2439.00,0.0002
2438.75,0.0001
2438.50,0.0001
2438.25,0.0002
2438.00,0.0003
2437.75,0.0004
2437.50,0.0004
2437.25,0.0003
2437.00,0.0003
2436.75,0.0001
2436.50,-0.0000
2436.25,-0.0001
2436.00,-0.0002
2435.75,-0.0003
2435.50,-0.0004
2435.25,-0.0006
2435.00,-0.0007
2434.75,-0.0008
2434.50,-0.0008
2434.25,-0.0006
2434.00,-0.0003
2433.75,-0.0001
2433.50,0.0001
2433.25,0.0002
2433.00,0.0002
2432.75,0.0002
2432.50,0.0001
2432.25,0.0001
2432.00,0.0002
2431.75,0.0002
2431.50,0.0002
2431.25,0.0001
2431.00,-0.0001
2430.75,-0.0002
2430.50,-0.0003
2430.25,-0.0003
2430.00,-0.0002
2429.75,-0.0001
2429.50,0.0001
2429.25,0.0002
2429.00,0.0004
2428.75,0.0005
2428.50,0.0006
2428.25,0.0006
2428.00,0.0005
2427.75,0.0003
2427.50,0.0001
2427.25,0.0000
2427.00,0.0000
2426.75,-0.0000
2426.50,-0.0001
2426.25,-0.0001
2426.00,-0.0002
2425.75,-0.0002
2425.50,-0.0001
2425.25,-0.0001
2425.00,0.0001
2424.75,0.0002
2424.50,0.0002
2424.25,0.0002
2424.00,-0.0000
2423.75,-0.0003
2423.50,-0.0005
2423.25,-0.0007
2423.00,-0.0007
2422.75,-0.0006
2422.50,-0.0005
2422.25,-0.0004
2422.00,-0.0002
2421.75,-0.0001
2421.50,0.0000
2421.25,0.0000
2421.00,0.0000
2420.75,0.0000
2420.50,0.0000
2420.25,0.0000
2420.00,0.0000
2419.75,0.0001
2419.50,0.0001
2419.25,0.0001
2419.00,0.0001
2418.75,0.0002
2418.50,0.0002
2418.25,0.0003
2418.00,0.0004
2417.75,0.0005
2417.50,0.0006
2417.25,0.0006
2417.00,0.0006
2416.75,0.0005
2416.50,0.0003
2416.25,0.0000
2416.00,-0.0003
2415.75,-0.0004
2415.50,-0.0005
2415.25,-0.0003
2415.00,-0.0002
2414.75,0.0000
2414.50,0.0000
2414.25,-0.0000
2414.00,-0.0002
2413.75,-0.0003
2413.50,-0.0003
2413.25,-0.0002
2413.00,-0.0000
2412.75,0.0001
2412.50,0.0003
2412.25,0.0005
2412.00,0.0007
2411.75,0.0008
2411.50,0.0008
2411.25,0.0006
2411.00,0.0003
2410.75,0.0000
2410.50,-0.0002
2410.25,-0.0002
2410.00,-0.0002
2409.75,-0.0001
2409.50,0.0001
2409.25,0.0002
2409.00,0.0003
2408.75,0.0004
2408.50,0.0003
2408.25,0.0002
2408.00,0.0001
2407.75,0.0001
2407.50,0.0001
2407.25,0.0001
2407.00,0.0001
2406.75,0.0001
2406.50,0.0002
2406.25,0.0002
2406.00,0.0003
2405.75,0.0002
2405.50,0.0002
2405.25,0.0001
2405.00,0.0001
2404.75,0.0001
2404.50,0.0002
2404.25,0.0002
2404.00,0.0002
2403.75,0.0002
2403.50,0.0002
2403.25,0.0003
2403.00,0.0003
2402.75,0.0004
2402.50,0.0004
2402.25,0.0004
2402.00,0.0004
2401.75,0.0004
2401.50,0.0003
2401.25,0.0002
2401.00,0.0002
2400.75,0.0001
2400.50,-0.0000
2400.25,-0.0001
2400.00,-0.0003
2399.75,-0.0003
2399.50,-0.0003
2399.25,-0.0002
2399.00,-0.0001
2398.75,0.0000
2398.50,0.0001
2398.25,0.0002
2398.00,0.0002
2397.75,-0.0000
2397.50,-0.0003
2397.25,-0.0005
2397.00,-0.0006
2396.75,-0.0006
2396.50,-0.0004
2396.25,-0.0001
2396.00,0.0000
2395.75,0.0001
2395.50,0.0000
2395.25,-0.0001
2395.00,-0.0001
2394.75,-0.0001
2394.50,0.0000
2394.25,0.0001
2394.00,0.0002
2393.75,0.0003
2393.50,0.0002
2393.25,0.0001
2393.00,-0.0001
2392.75,-0.0003
2392.50,-0.0005
2392.25,-0.0005
2392.00,-0.0004
2391.75,-0.0002
2391.50,-0.0001
2391.25,-0.0002
2391.00,-0.0004
2390.75,-0.0004
2390.50,-0.0002
2390.25,0.0000
2390.00,0.0003
2389.75,0.0004
2389.50,0.0005
2389.25,0.0004
2389.00,0.0003
2388.75,0.0002
2388.50,0.0001
2388.25,0.0000
2388.00,-0.0001
2387.75,-0.0002
2387.50,-0.0003
2387.25,-0.0003
2387.00,-0.0003
2386.75,-0.0003
2386.50,-0.0003
2386.25,-0.0004
2386.00,-0.0003
2385.75,-0.0002
2385.50,-0.0000
2385.25,0.0001
2385.00,0.0000
2384.75,-0.0000
2384.50,-0.0001
2384.25,-0.0001
2384.00,-0.0001
2383.75,-0.0001
2383.50,-0.0002
2383.25,-0.0002
2383.00,-0.0002
2382.75,-0.0003
2382.50,-0.0004
2382.25,-0.0004
2382.00,-0.0005
2381.75,-0.0005
2381.50,-0.0005
2381.25,-0.0005
2381.00,-0.0004
2380.75,-0.0004
2380.50,-0.0004
2380.25,-0.0004
2380.00,-0.0005
2379.75,-0.0007
2379.50,-0.0007
2379.25,-0.0007
2379.00,-0.0007
2378.75,-0.0008
2378.50,-0.0010
2378.25,-0.0012
2378.00,-0.0014
2377.75,-0.0013
2377.50,-0.0010
2377.25,-0.0006
2377.00,-0.0002
2376.75,0.0002
2376.50,0.0005
2376.25,0.0007
2376.00,0.0007
2375.75,0.0006
2375.50,0.0003
2375.25,0.0000
2375.00,-0.0003
2374.75,-0.0007
2374.50,-0.0011
2374.25,-0.0013
2374.00,-0.0014
2373.75,-0.0013
2373.50,-0.0012
2373.25,-0.0010
2373.00,-0.0009
2372.75,-0.0008
2372.50,-0.0009
2372.25,-0.0010
2372.00,-0.0010
2371.75,-0.0009
2371.50,-0.0008
2371.25,-0.0008
2371.00,-0.0009
2370.75,-0.0011
2370.50,-0.0012
2370.25,-0.0012
2370.00,-0.0010
2369.75,-0.0007
2369.50,-0.0006
2369.25,-0.0007
2369.00,-0.0011
2368.75,-0.0016
2368.50,-0.0019
2368.25,-0.0021
2368.00,-0.0020
2367.75,-0.0018
2367.50,-0.0016
2367.25,-0.0014
2367.00,-0.0014
2366.75,-0.0017
2366.50,-0.0020
2366.25,-0.0022
2366.00,-0.0022
2365.75,-0.0022
2365.50,-0.0021
2365.25,-0.0019
2365.00,-0.0016
2364.75,-0.0012
2364.50,-0.0010
2364.25,-0.0009
2364.00,-0.0011
2363.75,-0.0013
2363.50,-0.0014
2363.25,-0.0015
2363.00,-0.0015
2362.75,-0.0015
2362.50,-0.0015
2362.25,-0.0015
2362.00,-0.0015
2361.75,-0.0017
2361.50,-0.0019
2361.25,-0.0019
2361.00,-0.0016
2360.75,-0.0014
2360.50,-0.0013
2360.25,-0.0015
2360.00,-0.0018
2359.75,-0.0020
2359.50,-0.0020
2359.25,-0.0017
2359.00,-0.0013
2358.75,-0.0008
2358.50,-0.0005
2358.25,-0.0004
2358.00,-0.0006
2357.75,-0.0008
2357.50,-0.0009
2357.25,-0.0009
2357.00,-0.0010
2356.75,-0.0011
2356.50,-0.0015
2356.25,-0.0021
2356.00,-0.0029
2355.75,-0.0033
2355.50,-0.0031
2355.25,-0.0025
2355.00,-0.0020
2354.75,-0.0017
2354.50,-0.0016
2354.25,-0.0014
2354.00,-0.0011
2353.75,-0.0008
2353.50,-0.0008
2353.25,-0.0011
2353.00,-0.0017
2352.75,-0.0022
2352.50,-0.0024
2352.25,-0.0022
2352.00,-0.0020
2351.75,-0.0020
2351.50,-0.0022
2351.25,-0.0024
2351.00,-0.0024
2350.75,-0.0022
2350.50,-0.0020
2350.25,-0.0018
2350.00,-0.0016
2349.75,-0.0014
2349.50,-0.0012
2349.25,-0.0011
2349.00,-0.0010
2348.75,-0.0009
2348.50,-0.0007
2348.25,-0.0006
2348.00,-0.0006
2347.75,-0.0007
2347.50,-0.0008
2347.25,-0.0009
2347.00,-0.0009
2346.75,-0.0009
2346.50,-0.0010
2346.25,-0.0013
2346.00,-0.0015
2345.75,-0.0015
2345.50,-0.0013
2345.25,-0.0009
2345.00,-0.0007
2344.75,-0.0007
2344.50,-0.0012
2344.25,-0.0018
2344.00,-0.0020
2343.75,-0.0018
2343.50,-0.0014
2343.25,-0.0011
2343.00,-0.0009
2342.75,-0.0010
2342.50,-0.0011
2342.25,-0.0010
2342.00,-0.0008
2341.75,-0.0005
2341.50,-0.0003
2341.25,-0.0005
2341.00,-0.0009
2340.75,-0.0011
2340.50,-0.0010
2340.25,-0.0008
2340.00,-0.0006
2339.75,-0.0006
2339.50,-0.0009
2339.25,-0.0014
2339.00,-0.0016
2338.75,-0.0015
2338.50,-0.0014
2338.25,-0.0014
2338.00,-0.0016
2337.75,-0.0018
2337.50,-0.0019
2337.25,-0.0015
2337.00,-0.0012
2336.75,-0.0011
2336.50,-0.0012
2336.25,-0.0014
2336.00,-0.0016
2335.75,-0.0016
2335.50,-0.0013
2335.25,-0.0010
2335.00,-0.0008
2334.75,-0.0008
2334.50,-0.0011
2334.25,-0.0018
2334.00,-0.0026
2333.75,-0.0029
2333.50,-0.0027
2333.25,-0.0023
2333.00,-0.0020
2332.75,-0.0018
2332.50,-0.0016
2332.25,-0.0012
2332.00,-0.0008
2331.75,-0.0006
2331.50,-0.0007
2331.25,-0.0009
2331.00,-0.0012
2330.75,-0.0015
2330.50,-0.0015
2330.25,-0.0013
2330.00,-0.0011
2329.75,-0.0011
2329.50,-0.0012
2329.25,-0.0013
2329.00,-0.0015
2328.75,-0.0015
2328.50,-0.0014
2328.25,-0.0012
2328.00,-0.0011
2327.75,-0.0011
2327.50,-0.0012
2327.25,-0.0013
2327.00,-0.0016
2326.75,-0.0018
2326.50,-0.0020
2326.25,-0.0019
2326.00,-0.0016
2325.75,-0.0012
2325.50,-0.0008
2325.25,-0.0005
2325.00,-0.0007
2324.75,-0.0012
2324.50,-0.0017
2324.25,-0.0018
2324.00,-0.0017
2323.75,-0.0014
2323.50,-0.0012
2323.25,-0.0013
2323.00,-0.0014
2322.75,-0.0014
2322.50,-0.0012
2322.25,-0.0008
2322.00,-0.0003
2321.75,-0.0001
2321.50,-0.0003
2321.25,-0.0009
2321.00,-0.0015
2320.75,-0.0018
2320.50,-0.0016
2320.25,-0.0011
2320.00,-0.0007
2319.75,-0.0004
2319.50,-0.0003
2319.25,-0.0006
2319.00,-0.0009
2318.75,-0.0012
2318.50,-0.0014
2318.25,-0.0014
2318.00,-0.0013
2317.75,-0.0012
2317.50,-0.0010
2317.25,-0.0008
2317.00,-0.0005
2316.75,-0.0003
2316.50,-0.0002
2316.25,-0.0001
2316.00,-0.0000
2315.75,0.0000
2315.50,-0.0000
2315.25,-0.0001
2315.00,-0.0004
2314.75,-0.0006
2314.50,-0.0009
2314.25,-0.0011
2314.00,-0.0013
2313.75,-0.0016
2313.50,-0.0021
2313.25,-0.0024
2313.00,-0.0025
2312.75,-0.0023
2312.50,-0.0019
2312.25,-0.0015
2312.00,-0.0012
2311.75,-0.0009
2311.50,-0.0009
2311.25,-0.0009
2311.00,-0.0009
2310.75,-0.0010
2310.50,-0.0010
2310.25,-0.0011
2310.00,-0.0012
2309.75,-0.0014
2309.50,-0.0016
2309.25,-0.0016
2309.00,-0.0017
2308.75,-0.0017
2308.50,-0.0016
2308.25,-0.0014
2308.00,-0.0012
2307.75,-0.0010
2307.50,-0.0010
2307.25,-0.0012
2307.00,-0.0015
2306.75,-0.0016
2306.50,-0.0015
2306.25,-0.0013
2306.00,-0.0011
2305.75,-0.0010
2305.50,-0.0010
2305.25,-0.0010
2305.00,-0.0010
2304.75,-0.0010
2304.50,-0.0009
2304.25,-0.0008
2304.00,-0.0007
2303.75,-0.0006
2303.50,-0.0007
2303.25,-0.0008
2303.00,-0.0009
2302.75,-0.0010
2302.50,-0.0010
2302.25,-0.0010
2302.00,-0.0010
2301.75,-0.0010
2301.50,-0.0010
2301.25,-0.0010
2301.00,-0.0009
2300.75,-0.0009
2300.50,-0.0009
2300.25,-0.0010
2300.00,-0.0011
2299.75,-0.0012
2299.50,-0.0012
2299.25,-0.0011
2299.00,-0.0008
2298.75,-0.0006
2298.50,-0.0005
2298.25,-0.0004
2298.00,-0.0004
2297.75,-0.0005
2297.50,-0.0006
2297.25,-0.0007
2297.00,-0.0009
2296.75,-0.0012
2296.50,-0.0014
2296.25,-0.0015
2296.00,-0.0014
2295.75,-0.0012
2295.50,-0.0009
2295.25,-0.0006
2295.00,-0.0005
2294.75,-0.0004
2294.50,-0.0004
2294.25,-0.0005
2294.00,-0.0005
2293.75,-0.0005
2293.50,-0.0005
2293.25,-0.0004
2293.00,-0.0004
2292.75,-0.0005
2292.50,-0.0006
2292.25,-0.0006
2292.00,-0.0005
2291.75,-0.0002
2291.50,0.0001
2291.25,0.0002
2291.00,0.0002
2290.75,0.0001
2290.50,0.0001
2290.25,0.0001
2290.00,0.0002
2289.75,0.0002
2289.50,0.0001
2289.25,-0.0001
2289.00,-0.0003
2288.75,-0.0004
2288.50,-0.0006
2288.25,-0.0007
2288.00,-0.0008
2287.75,-0.0008
2287.50,-0.0008
2287.25,-0.0006
2287.00,-0.0004
2286.75,-0.0003
2286.50,-0.0001
2286.25,-0.0001
2286.00,0.0000
2285.75,0.0001
2285.50,0.0003
2285.25,0.0003
2285.00,0.0002
2284.75,-0.0000
2284.50,-0.0004
2284.25,-0.0008
2284.00,-0.0010
2283.75,-0.0010
2283.50,-0.0008
2283.25,-0.0005
2283.00,-0.0003
2282.75,-0.0002
2282.50,-0.0002
2282.25,-0.0002
2282.00,-0.0003
2281.75,-0.0005
2281.50,-0.0008
2281.25,-0.0010
2281.00,-0.0011
2280.75,-0.0009
2280.50,-0.0006
2280.25,-0.0002
2280.00,-0.0001
2279.75,-0.0001
2279.50,-0.0002
2279.25,-0.0003
2279.00,-0.0003
2278.75,-0.0003
2278.50,-0.0003
2278.25,-0.0003
2278.00,-0.0003
2277.75,-0.0004
2277.50,-0.0005
2277.25,-0.0006
2277.00,-0.0006
2276.75,-0.0006
2276.50,-0.0006
2276.25,-0.0007
2276.00,-0.0009
2275.75,-0.0012
2275.50,-0.0013
2275.25,-0.0013
2275.00,-0.0011
2274.75,-0.0007
2274.50,-0.0003
2274.25,0.0001
2274.00,0.0003
2273.75,0.0003
2273.50,0.0002
2273.25,-0.0001
2273.00,-0.0004
2272.75,-0.0007
2272.50,-0.0010
2272.25,-0.0011
2272.00,-0.0009
2271.75,-0.0005
2271.50,0.0000
2271.25,0.0005
2271.00,0.0006
2270.75,0.0004
2270.50,-0.0000
2270.25,-0.0006
2270.00,-0.0011
2269.75,-0.0014
2269.50,-0.0015
2269.25,-0.0016
2269.00,-0.0015
2268.75,-0.0013
2268.50,-0.0010
2268.25,-0.0007
2268.00,-0.0005
2267.75,-0.0003
2267.50,-0.0003
2267.25,-0.0003
2267.00,-0.0004
2266.75,-0.0006
2266.50,-0.0006
2266.25,-0.0006
2266.00,-0.0005
2265.75,-0.0003
2265.50,-0.0001
2265.25,-0.0000
2265.00,0.0001
2264.75,0.0001
2264.50,-0.0001
2264.25,-0.0003
2264.00,-0.0005
2263.75,-0.0008
2263.50,-0.0010
2263.25,-0.0011
2263.00,-0.0012
2262.75,-0.0013
2262.50,-0.0013
2262.25,-0.0012
2262.00,-0.0010
2261.75,-0.0007
2261.50,-0.0005
2261.25,-0.0003
2261.00,-0.0002
2260.75,-0.0002
2260.50,-0.0003
2260.25,-0.0004
2260.00,-0.0007
2259.75,-0.0009
2259.50,-0.0011
2259.25,-0.0011
2259.00,-0.0010
2258.75,-0.0008
2258.50,-0.0007
2258.25,-0.0007
2258.00,-0.0007
2257.75,-0.0008
2257.50,-0.0008
2257.25,-0.0008
2257.00,-0.0009
2256.75,-0.0010
2256.50,-0.0010
2256.25,-0.0010
2256.00,-0.0011
2255.75,-0.0011
2255.50,-0.0012
2255.25,-0.0011
2255.00,-0.0009
2254.75,-0.0006
2254.50,-0.0004
2254.25,-0.0006
2254.00,-0.0008
2253.75,-0.0011
2253.50,-0.0011
2253.25,-0.0010
2253.00,-0.0008
2252.75,-0.0007
2252.50,-0.0007
2252.25,-0.0007
2252.00,-0.0008
2251.75,-0.0008
2251.50,-0.0009
2251.25,-0.0010
2251.00,-0.0010
2250.75,-0.0010
2250.50,-0.0009
2250.25,-0.0007
2250.00,-0.0005
2249.75,-0.0004
2249.50,-0.0004
2249.25,-0.0005
2249.00,-0.0007
2248.75,-0.0009
2248.50,-0.0009
2248.25,-0.0008
2248.00,-0.0005
2247.75,-0.0004
2247.50,-0.0004
2247.25,-0.0005
2247.00,-0.0006
2246.75,-0.0007
2246.50,-0.0009
2246.25,-0.0012
2246.00,-0.0014
2245.75,-0.0015
2245.50,-0.0013
2245.25,-0.0009
2245.00,-0.0005
2244.75,-0.0002
2244.50,-0.0000
2244.25,-0.0000
2244.00,-0.0002
2243.75,-0.0005
2243.50,-0.0008
2243.25,-0.0010
2243.00,-0.0010
2242.75,-0.0010
2242.50,-0.0010
2242.25,-0.0011
2242.00,-0.0011
2241.75,-0.0011
2241.50,-0.0010
2241.25,-0.0010
2241.00,-0.0011
2240.75,-0.0011
2240.50,-0.0010
2240.25,-0.0008
2240.00,-0.0008
2239.75,-0.0010
2239.50,-0.0012
2239.25,-0.0014
2239.00,-0.0015
2238.75,-0.0013
2238.50,-0.0009
2238.25,-0.0005
2238.00,0.0000
2237.75,0.0004
2237.50,0.0006
2237.25,0.0006
2237.00,0.0003
2236.75,-0.0002
2236.50,-0.0006
2236.25,-0.0010
2236.00,-0.0013
2235.75,-0.0015
2235.50,-0.0018
2235.25,-0.0020
2235.00,-0.0021
2234.75,-0.0021
2234.50,-0.0020
2234.25,-0.0017
2234.00,-0.0014
2233.75,-0.0010
2233.50,-0.0006
2233.25,-0.0001
2233.00,0.0002
2232.75,0.0002
2232.50,0.0000
2232.25,-0.0004
2232.00,-0.0008
2231.75,-0.0011
2231.50,-0.0012
2231.25,-0.0011
2231.00,-0.0009
2230.75,-0.0006
2230.50,-0.0002
2230.25,0.0001
2230.00,0.0002
2229.75,0.0002
2229.50,0.0001
2229.25,-0.0003
2229.00,-0.0008
2228.75,-0.0013
2228.50,-0.0015
2228.25,-0.0015
2228.00,-0.0012
2227.75,-0.0009
2227.50,-0.0006
2227.25,-0.0004
2227.00,-0.0002
2226.75,-0.0001
2226.50,-0.0003
2226.25,-0.0008
2226.00,-0.0014
2225.75,-0.0019
2225.50,-0.0021
2225.25,-0.0019
2225.00,-0.0013
2224.75,-0.0007
2224.50,-0.0003
2224.25,-0.0002
2224.00,-0.0003
2223.75,-0.0005
2223.50,-0.0006
2223.25,-0.0006
2223.00,-0.0006
2222.75,-0.0006
2222.50,-0.0006
2222.25,-0.0007
2222.00,-0.0009
2221.75,-0.0012
2221.50,-0.0015
2221.25,-0.0018
2221.00,-0.0020
2220.75,-0.0021
2220.50,-0.0020
2220.25,-0.0019
2220.00,-0.0018
2219.75,-0.0018
2219.50,-0.0016
2219.25,-0.0014
2219.00,-0.0011
2218.75,-0.0010
2218.50,-0.0012
2218.25,-0.0015
2218.00,-0.0016
2217.75,-0.0016
2217.50,-0.0014
2217.25,-0.0010
2217.00,-0.0008
2216.75,-0.0007
2216.50,-0.0008
2216.25,-0.0012
2216.00,-0.0017
2215.75,-0.0020
2215.50,-0.0020
2215.25,-0.0017
2215.00,-0.0013
2214.75,-0.0010
2214.50,-0.0010
2214.25,-0.0011
2214.00,-0.0013
2213.75,-0.0015
2213.50,-0.0017
2213.25,-0.0020
2213.00,-0.0024
2212.75,-0.0028
2212.50,-0.0031
2212.25,-0.0031
2212.00,-0.0027
2211.75,-0.0021
2211.50,-0.0014
2211.25,-0.0009
2211.00,-0.0007
2210.75,-0.0007
2210.50,-0.0006
2210.25,-0.0005
2210.00,-0.0004
2209.75,-0.0006
2209.50,-0.0010
2209.25,-0.0013
2209.00,-0.0015
2208.75,-0.0016
2208.50,-0.0016
2208.25,-0.0018
2208.00,-0.0021
2207.75,-0.0024
2207.50,-0.0026
2207.25,-0.0025
2207.00,-0.0021
2206.75,-0.0016
2206.50,-0.0011
2206.25,-0.0008
2206.00,-0.0009
2205.75,-0.0015
2205.50,-0.0023
2205.25,-0.0029
2205.00,-0.0032
2204.75,-0.0030
2204.50,-0.0024
2204.25,-0.0019
2204.00,-0.0018
2203.75,-0.0019
2203.50,-0.0022
2203.25,-0.0022
2203.00,-0.0019
2202.75,-0.0014
2202.50,-0.0010
2202.25,-0.0009
2202.00,-0.0009
2201.75,-0.0011
2201.50,-0.0013
2201.25,-0.0014
2201.00,-0.0015
2200.75,-0.0016
2200.50,-0.0017
2200.25,-0.0017
2200.00,-0.0017
2199.75,-0.0018
2199.50,-0.0021
2199.25,-0.0023
2199.00,-0.0025
2198.75,-0.0024
2198.50,-0.0023
2198.25,-0.0022
2198.00,-0.0021
2197.75,-0.0020
2197.50,-0.0018
2197.25,-0.0015
2197.00,-0.0013
2196.75,-0.0011
2196.50,-0.0012
2196.25,-0.0014
2196.00,-0.0017
2195.75,-0.0020
2195.50,-0.0020
2195.25,-0.0019
2195.00,-0.0016
2194.75,-0.0014
2194.50,-0.0014
2194.25,-0.0016
2194.00,-0.0020
2193.75,-0.0025
2193.50,-0.0029
2193.25,-0.0032
2193.00,-0.0034
2192.75,-0.0036
2192.50,-0.0037
2192.25,-0.0035
2192.00,-0.0030
2191.75,-0.0023
2191.50,-0.0016
2191.25,-0.0014
2191.00,-0.0015
2190.75,-0.0018
2190.50,-0.0021
2190.25,-0.0022
2190.00,-0.0021
2189.75,-0.0020
2189.50,-0.0019
2189.25,-0.0017
2189.00,-0.0014
2188.75,-0.0011
2188.50,-0.0009
2188.25,-0.0009
2188.00,-0.0010
2187.75,-0.0011
2187.50,-0.0011
2187.25,-0.0010
2187.00,-0.0011
2186.75,-0.0013
2186.50,-0.0016
2186.25,-0.0020
2186.00,-0.0022
2185.75,-0.0021
2185.50,-0.0020
2185.25,-0.0019
2185.00,-0.0020
2184.75,-0.0024
2184.50,-0.0027
2184.25,-0.0029
2184.00,-0.0029
2183.75,-0.0027
2183.50,-0.0024
2183.25,-0.0023
2183.00,-0.0023
2182.75,-0.0023
2182.50,-0.0023
2182.25,-0.0024
2182.00,-0.0026
2181.75,-0.0030
2181.50,-0.0033
2181.25,-0.0033
2181.00,-0.0031
2180.75,-0.0026
2180.50,-0.0021
2180.25,-0.0019
2180.00,-0.0019
2179.75,-0.0020
2179.50,-0.0020
2179.25,-0.0019
2179.00,-0.0017
2178.75,-0.0014
2178.50,-0.0013
2178.25,-0.0015
2178.00,-0.0018
2177.75,-0.0020
2177.50,-0.0021
2177.25,-0.0019
2177.00,-0.0015
2176.75,-0.0009
2176.50,-0.0005
2176.25,-0.0003
2176.00,-0.0004
2175.75,-0.0007
2175.50,-0.0011
2175.25,-0.0014
2175.00,-0.0013
2174.75,-0.0011
2174.50,-0.0009
2174.25,-0.0008
2174.00,-0.0010
2173.75,-0.0013
2173.50,-0.0016
2173.25,-0.0019
2173.00,-0.0019
2172.75,-0.0017
2172.50,-0.0014
2172.25,-0.0011
2172.00,-0.0010
2171.75,-0.0011
2171.50,-0.0014
2171.25,-0.0016
2171.00,-0.0016
2170.75,-0.0012
2170.50,-0.0008
2170.25,-0.0005
2170.00,-0.0006
2169.75,-0.0010
2169.50,-0.0014
2169.25,-0.0015
2169.00,-0.0015
2168.75,-0.0012
2168.50,-0.0010
2168.25,-0.0010
2168.00,-0.0011
2167.75,-0.0014
2167.50,-0.0016
2167.25,-0.0017
2167.00,-0.0017
2166.75,-0.0018
2166.50,-0.0021
2166.25,-0.0025
2166.00,-0.0028
2165.75,-0.0027
2165.50,-0.0023
2165.25,-0.0018
2165.00,-0.0013
2164.75,-0.0009
2164.50,-0.0006
2164.25,-0.0004
2164.00,-0.0005
2163.75,-0.0010
2163.50,-0.0016
2163.25,-0.0024
2163.00,-0.0030
2162.75,-0.0034
2162.50,-0.0035
2162.25,-0.0032
2162.00,-0.0028
2161.75,-0.0024
2161.50,-0.0022
2161.25,-0.0024
2161.00,-0.0027
2160.75,-0.0030
2160.50,-0.0031
2160.25,-0.0030
2160.00,-0.0028
2159.75,-0.0027
2159.50,-0.0027
2159.25,-0.0028
2159.00,-0.0027
2158.75,-0.0025
2158.50,-0.0023
2158.25,-0.0024
2158.00,-0.0027
2157.75,-0.0032
2157.50,-0.0035
2157.25,-0.0034
2157.00,-0.0030
2156.75,-0.0023
2156.50,-0.0018
2156.25,-0.0016
2156.00,-0.0015
2155.75,-0.0015
2155.50,-0.0016
2155.25,-0.0017
2155.00,-0.0020
2154.75,-0.0022
2154.50,-0.0023
2154.25,-0.0020
2154.00,-0.0016
2153.75,-0.0012
2153.50,-0.0011
2153.25,-0.0011
2153.00,-0.0013
2152.75,-0.0017
2152.50,-0.0022
2152.25,-0.0027
2152.00,-0.0031
2151.75,-0.0032
2151.50,-0.0031
2151.25,-0.0028
2151.00,-0.0023
2150.75,-0.0019
2150.50,-0.0017
2150.25,-0.0017
2150.00,-0.0020
2149.75,-0.0022
2149.50,-0.0024
2149.25,-0.0023
2149.00,-0.0020
2148.75,-0.0018
2148.50,-0.0016
2148.25,-0.0015
2148.00,-0.0015
2147.75,-0.0015
2147.50,-0.0014
2147.25,-0.0014
2147.00,-0.0015
2146.75,-0.0017
2146.50,-0.0021
2146.25,-0.0024
2146.00,-0.0025
2145.75,-0.0024
2145.50,-0.0021
2145.25,-0.0018
2145.00,-0.0017
2144.75,-0.0018
2144.50,-0.0021
2144.25,-0.0022
2144.00,-0.0022
2143.75,-0.0018
2143.50,-0.0012
2143.25,-0.0007
2143.00,-0.0004
2142.75,-0.0005
2142.50,-0.0008
2142.25,-0.0014
2142.00,-0.0019
2141.75,-0.0023
2141.50,-0.0026
2141.25,-0.0029
2141.00,-0.0033
2140.75,-0.0036
2140.50,-0.0035
2140.25,-0.0032
2140.00,-0.0026
2139.75,-0.0020
2139.50,-0.0015
2139.25,-0.0012
2139.00,-0.0012
2138.75,-0.0014
2138.50,-0.0016
2138.25,-0.0018
2138.00,-0.0017
2137.75,-0.0014
2137.50,-0.0011
2137.25,-0.0010
2137.00,-0.0010
2136.75,-0.0011
2136.50,-0.0013
2136.25,-0.0015
2136.00,-0.0017
2135.75,-0.0019
2135.50,-0.0021
2135.25,-0.0022
2135.00,-0.0021
2134.75,-0.0019
2134.50,-0.0017
2134.25,-0.0016
2134.00,-0.0017
2133.75,-0.0019
2133.50,-0.0020
2133.25,-0.0019
2133.00,-0.0016
2132.75,-0.0012
2132.50,-0.0009
2132.25,-0.0008
2132.00,-0.0009
2131.75,-0.0011
2131.50,-0.0014
2131.25,-0.0016
2131.00,-0.0017
2130.75,-0.0017
2130.50,-0.0018
2130.25,-0.0019
2130.00,-0.0021
2129.75,-0.0022
2129.50,-0.0022
2129.25,-0.0018
2129.00,-0.0012
2128.75,-0.0006
2128.50,-0.0003
2128.25,-0.0004
2128.00,-0.0009
2127.75,-0.0015
2127.50,-0.0019
2127.25,-0.0021
2127.00,-0.0020
2126.75,-0.0017
2126.50,-0.0013
2126.25,-0.0011
2126.00,-0.0011
2125.75,-0.0014
2125.50,-0.0018
2125.25,-0.0021
2125.00,-0.0022
2124.75,-0.0021
2124.50,-0.0020
2124.25,-0.0019
2124.00,-0.0018
2123.75,-0.0017
2123.50,-0.0016
2123.25,-0.0013
2123.00,-0.0010
2122.75,-0.0008
2122.50,-0.0008
2122.25,-0.0009
2122.00,-0.0010
2121.75,-0.0010
2121.50,-0.0010
2121.25,-0.0009
2121.00,-0.0009
2120.75,-0.0009
2120.50,-0.0010
2120.25,-0.0013
2120.00,-0.0015
2119.75,-0.0016
2119.50,-0.0015
2119.25,-0.0013
2119.00,-0.0011
2118.75,-0.0011
2118.50,-0.0013
2118.25,-0.0015
2118.00,-0.0018
2117.75,-0.0021
2117.50,-0.0022
2117.25,-0.0022
2117.00,-0.0021
2116.75,-0.0018
2116.50,-0.0015
2116.25,-0.0013
2116.00,-0.0012
2115.75,-0.0012
2115.50,-0.0014
2115.25,-0.0015
2115.00,-0.0016
2114.75,-0.0015
2114.50,-0.0013
2114.25,-0.0011
2114.00,-0.0010
2113.75,-0.0010
2113.50,-0.0011
2113.25,-0.0010
2113.00,-0.0008
2112.75,-0.0007
2112.50,-0.0008
2112.25,-0.0012
2112.00,-0.0018
2111.75,-0.0023
2111.50,-0.0025
2111.25,-0.0023
2111.00,-0.0021
2110.75,-0.0019
2110.50,-0.0019
2110.25,-0.0022
2110.00,-0.0024
2109.75,-0.0025
2109.50,-0.0023
2109.25,-0.0020
2109.00,-0.0018
2108.75,-0.0016
2108.50,-0.0016
2108.25,-0.0015
2108.00,-0.0015
2107.75,-0.0013
2107.50,-0.0012
2107.25,-0.0012
2107.00,-0.0013
2106.75,-0.0014
2106.50,-0.0016
2106.25,-0.0016
2106.00,-0.0016
2105.75,-0.0015
2105.50,-0.0015
2105.25,-0.0014
2105.00,-0.0014
2104.75,-0.0013
2104.50,-0.0013
2104.25,-0.0012
2104.00,-0.0011
2103.75,-0.0011
2103.50,-0.0012
2103.25,-0.0015
2103.00,-0.0017
2102.75,-0.0017
2102.50,-0.0014
2102.25,-0.0010
2102.00,-0.0008
2101.75,-0.0007
2101.50,-0.0007
2101.25,-0.0007
2101.00,-0.0007
2100.75,-0.0008
2100.50,-0.0010
2100.25,-0.0012
2100.00,-0.0013
2099.75,-0.0012
2099.50,-0.0011
2099.25,-0.0011
2099.00,-0.0012
2098.75,-0.0013
2098.50,-0.0013
2098.25,-0.0012
2098.00,-0.0011
2097.75,-0.0012
2097.50,-0.0014
2097.25,-0.0018
2097.00,-0.0022
2096.75,-0.0026
2096.50,-0.0026
2096.25,-0.0024
2096.00,-0.0019
2095.75,-0.0013
2095.50,-0.0009
2095.25,-0.0008
2095.00,-0.0010
2094.75,-0.0013
2094.50,-0.0015
2094.25,-0.0015
2094.00,-0.0013
2093.75,-0.0011
2093.50,-0.0010
2093.25,-0.0013
2093.00,-0.0017
2092.75,-0.0020
2092.50,-0.0021
2092.25,-0.0020
2092.00,-0.0018
2091.75,-0.0015
2091.50,-0.0015
2091.25,-0.0015
2091.00,-0.0016
2090.75,-0.0016
2090.50,-0.0015
2090.25,-0.0013
2090.00,-0.0010
2089.75,-0.0008
2089.50,-0.0006
2089.25,-0.0006
2089.00,-0.0008
2088.75,-0.0011
2088.50,-0.0015
2088.25,-0.0017
2088.00,-0.0020
2087.75,-0.0021
2087.50,-0.0023
2087.25,-0.0023
2087.00,-0.0022
2086.75,-0.0020
2086.50,-0.0019
2086.25,-0.0019
2086.00,-0.0020
2085.75,-0.0019
2085.50,-0.0018
2085.25,-0.0016
2085.00,-0.0016
2084.75,-0.0017
2084.50,-0.0019
2084.25,-0.0021
2084.00,-0.0021
2083.75,-0.0020
2083.50,-0.0019
2083.25,-0.0018
2083.00,-0.0017
2082.75,-0.0017
2082.50,-0.0017
2082.25,-0.0017
2082.00,-0.0016
2081.75,-0.0014
2081.50,-0.0013
2081.25,-0.0011
2081.00,-0.0012
2080.75,-0.0013
2080.50,-0.0012
2080.25,-0.0009
2080.00,-0.0006
2079.75,-0.0005
2079.50,-0.0006
2079.25,-0.0009
2079.00,-0.0011
2078.75,-0.0011
2078.50,-0.0009
2078.25,-0.0008
2078.00,-0.0007
2077.75,-0.0008
2077.50,-0.0010
2077.25,-0.0012
2077.00,-0.0014
2076.75,-0.0015
2076.50,-0.0016
2076.25,-0.0018
2076.00,-0.0021
2075.75,-0.0024
2075.50,-0.0026
2075.25,-0.0027
2075.00,-0.0028
2074.75,-0.0028
2074.50,-0.0028
2074.25,-0.0026
2074.00,-0.0022
2073.75,-0.0018
2073.50,-0.0016
2073.25,-0.0015
2073.00,-0.0014
2072.75,-0.0012
2072.50,-0.0008
2072.25,-0.0004
2072.00,-0.0002
2071.75,-0.0002
2071.50,-0.0003
2071.25,-0.0005
2071.00,-0.0007
2070.75,-0.0010
2070.50,-0.0012
2070.25,-0.0014
2070.00,-0.0016
2069.75,-0.0017
2069.50,-0.0018
2069.25,-0.0018
2069.00,-0.0017
2068.75,-0.0017
2068.50,-0.0016
2068.25,-0.0017
2068.00,-0.0017
2067.75,-0.0016
2067.50,-0.0015
2067.25,-0.0014
2067.00,-0.0013
2066.75,-0.0013
2066.50,-0.0012
2066.25,-0.0011
2066.00,-0.0010
2065.75,-0.0009
2065.50,-0.0007
2065.25,-0.0006
2065.00,-0.0007
2064.75,-0.0011
2064.50,-0.0016
2064.25,-0.0020
2064.00,-0.0021
2063.75,-0.0019
2063.50,-0.0017
2063.25,-0.0015
2063.00,-0.0016
2062.75,-0.0018
2062.50,-0.0020
2062.25,-0.0020
2062.00,-0.0017
2061.75,-0.0014
2061.50,-0.0009
2061.25,-0.0006
2061.00,-0.0004
2060.75,-0.0003
2060.50,-0.0005
2060.25,-0.0007
2060.00,-0.0010
2059.75,-0.0013
2059.50,-0.0016
2059.25,-0.0018
2059.00,-0.0018
2058.75,-0.0017
2058.50,-0.0016
2058.25,-0.0014
2058.00,-0.0013
2057.75,-0.0014
2057.50,-0.0016
2057.25,-0.0018
2057.00,-0.0019
2056.75,-0.0019
2056.50,-0.0018
2056.25,-0.0016
2056.00,-0.0014
2055.75,-0.0012
2055.50,-0.0011
2055.25,-0.0013
2055.00,-0.0015
2054.75,-0.0017
2054.50,-0.0016
2054.25,-0.0015
2054.00,-0.0014
2053.75,-0.0016
2053.50,-0.0017
2053.25,-0.0017
2053.00,-0.0014
2052.75,-0.0010
2052.50,-0.0010
2052.25,-0.0012
2052.00,-0.0016
2051.75,-0.0019
2051.50,-0.0020
2051.25,-0.0018
2051.00,-0.0015
2050.75,-0.0013
2050.50,-0.0010
2050.25,-0.0009
2050.00,-0.0008
2049.75,-0.0007
2049.50,-0.0008
2049.25,-0.0010
2049.00,-0.0013
2048.75,-0.0016
2048.50,-0.0018
2048.25,-0.0017
2048.00,-0.0014
2047.75,-0.0012
2047.50,-0.0012
2047.25,-0.0015
2047.00,-0.0018
2046.75,-0.0021
2046.50,-0.0021
2046.25,-0.0019
2046.00,-0.0018
2045.75,-0.0020
2045.50,-0.0022
2045.25,-0.0025
2045.00,-0.0025
2044.75,-0.0023
2044.50,-0.0021
2044.25,-0.0020
2044.00,-0.0020
2043.75,-0.0019
2043.50,-0.0018
2043.25,-0.0015
2043.00,-0.0014
2042.75,-0.0015
2042.50,-0.0018
2042.25,-0.0022
2042.00,-0.0026
2041.75,-0.0027
2041.50,-0.0026
2041.25,-0.0023
2041.00,-0.0020
2040.75,-0.0020
2040.50,-0.0023
2040.25,-0.0028
2040.00,-0.0033
2039.75,-0.0034
2039.50,-0.0032
2039.25,-0.0027
2039.00,-0.0022
2038.75,-0.0019
2038.50,-0.0019
2038.25,-0.0020
2038.00,-0.0020
2037.75,-0.0018
2037.50,-0.0014
2037.25,-0.0010
2037.00,-0.0009
2036.75,-0.0010
2036.50,-0.0012
2036.25,-0.0015
2036.00,-0.0018
2035.75,-0.0020
2035.50,-0.0021
2035.25,-0.0023
2035.00,-0.0025
2034.75,-0.0026
2034.50,-0.0027
2034.25,-0.0026
2034.00,-0.0026
2033.75,-0.0025
2033.50,-0.0024
2033.25,-0.0023
2033.00,-0.0023
2032.75,-0.0024
2032.50,-0.0025
2032.25,-0.0027
2032.00,-0.0028
2031.75,-0.0030
2031.50,-0.0032
2031.25,-0.0033
2031.00,-0.0033
2030.75,-0.0031
2030.50,-0.0028
2030.25,-0.0023
2030.00,-0.0019
2029.75,-0.0017
2029.50,-0.0018
2029.25,-0.0022
2029.00,-0.0027
2028.75,-0.0029
2028.50,-0.0029
2028.25,-0.0027
2028.00,-0.0025
2027.75,-0.0022
2027.50,-0.0020
2027.25,-0.0017
2027.00,-0.0014
2026.75,-0.0012
2026.50,-0.0012
2026.25,-0.0013
2026.00,-0.0016
2025.75,-0.0019
2025.50,-0.0021
2025.25,-0.0022
2025.00,-0.0021
2024.75,-0.0020
2024.50,-0.0019
2024.25,-0.0020
2024.00,-0.0021
2023.75,-0.0022
2023.50,-0.0024
2023.25,-0.0025
2023.00,-0.0028
2022.75,-0.0032
2022.50,-0.0036
2022.25,-0.0038
2022.00,-0.0039
2021.75,-0.0036
2021.50,-0.0033
2021.25,-0.0030
2021.00,-0.0027
2020.75,-0.0026
2020.50,-0.0024
2020.25,-0.0024
2020.00,-0.0024
2019.75,-0.0025
2019.50,-0.0024
2019.25,-0.0022
2019.00,-0.0019
2018.75,-0.0016
2018.50,-0.0013
2018.25,-0.0011
2018.00,-0.0009
2017.75,-0.0005
2017.50,-0.0003
2017.25,-0.0003
2017.00,-0.0006
2016.75,-0.0013
2016.50,-0.0020
2016.25,-0.0024
2016.00,-0.0027
2015.75,-0.0028
2015.50,-0.0028
2015.25,-0.0027
2015.00,-0.0025
2014.75,-0.0022
2014.50,-0.0020
2014.25,-0.0017
2014.00,-0.0015
2013.75,-0.0013
2013.50,-0.0013
2013.25,-0.0013
2013.00,-0.0014
2012.75,-0.0014
2012.50,-0.0013
2012.25,-0.0013
2012.00,-0.0015
2011.75,-0.0017
2011.50,-0.0020
2011.25,-0.0020
2011.00,-0.0018
2010.75,-0.0015
2010.50,-0.0013
2010.25,-0.0012
2010.00,-0.0013
2009.75,-0.0014
2009.50,-0.0017
2009.25,-0.0019
2009.00,-0.0021
2008.75,-0.0023
2008.50,-0.0025
2008.25,-0.0028
2008.00,-0.0029
2007.75,-0.0027
2007.50,-0.0023
2007.25,-0.0019
2007.00,-0.0016
2006.75,-0.0015
2006.50,-0.0017
2006.25,-0.0019
2006.00,-0.0019
2005.75,-0.0018
2005.50,-0.0015
2005.25,-0.0013
2005.00,-0.0012
2004.75,-0.0012
2004.50,-0.0013
2004.25,-0.0015
2004.00,-0.0018
2003.75,-0.0020
2003.50,-0.0020
2003.25,-0.0018
2003.00,-0.0016
2002.75,-0.0016
2002.50,-0.0019
2002.25,-0.0024
2002.00,-0.0030
2001.75,-0.0032
2001.50,-0.0030
2001.25,-0.0025
2001.00,-0.0019
2000.75,-0.0014
2000.50,-0.0012
2000.25,-0.0013
2000.00,-0.0015
1999.75,-0.0015
1999.50,-0.0012
1999.25,-0.0006
1999.00,0.0001
1998.75,0.0005
1998.50,0.0003
1998.25,-0.0002
1998.00,-0.0009
1997.75,-0.0013
1997.50,-0.0014
1997.25,-0.0014
1997.00,-0.0012
1996.75,-0.0011
1996.50,-0.0010
1996.25,-0.0010
1996.00,-0.0010
1995.75,-0.0011
1995.50,-0.0012
1995.25,-0.0014
1995.00,-0.0013
1994.75,-0.0012
1994.50,-0.0010
1994.25,-0.0009
1994.00,-0.0011
1993.75,-0.0013
1993.50,-0.0015
1993.25,-0.0016
1993.00,-0.0014
1992.75,-0.0011
1992.50,-0.0009
1992.25,-0.0010
1992.00,-0.0011
1991.75,-0.0012
1991.50,-0.0011
1991.25,-0.0008
1991.00,-0.0005
1990.75,-0.0002
1990.50,-0.0001
1990.25,-0.0001
1990.00,-0.0000
1989.75,-0.0001
1989.50,-0.0003
1989.25,-0.0007
1989.00,-0.0012
1988.75,-0.0016
1988.50,-0.0018
1988.25,-0.0018
1988.00,-0.0018
1987.75,-0.0016
1987.50,-0.0015
1987.25,-0.0012
1987.00,-0.0009
1986.75,-0.0004
1986.50,0.0001
1986.25,0.0004
1986.00,0.0006
1985.75,0.0007
1985.50,0.0007
1985.25,0.0007
1985.00,0.0006
1984.75,0.0005
1984.50,0.0002
1984.25,-0.0001
1984.00,-0.0004
1983.75,-0.0008
1983.50,-0.0011
1983.25,-0.0015
1983.00,-0.0018
1982.75,-0.0019
1982.50,-0.0018
1982.25,-0.0016
1982.00,-0.0014
1981.75,-0.0013
1981.50,-0.0012
1981.25,-0.0010
1981.00,-0.0008
1980.75,-0.0006
1980.50,-0.0005
1980.25,-0.0003
1980.00,-0.0000
1979.75,0.0004
1979.50,0.0007
1979.25,0.0009
1979.00,0.0007
1978.75,0.0003
1978.50,-0.0002
1978.25,-0.0006
1978.00,-0.0011
1977.75,-0.0014
1977.50,-0.0017
1977.25,-0.0019
1977.00,-0.0018
1976.75,-0.0013
1976.50,-0.0006
1976.25,0.0000
1976.00,0.0003
1975.75,0.0002
1975.50,-0.0003
1975.25,-0.0007
1975.00,-0.0008
1974.75,-0.0004
1974.50,0.0000
1974.25,0.0003
1974.00,0.0002
1973.75,-0.0001
1973.50,-0.0006
1973.25,-0.0009
1973.00,-0.0011
1972.75,-0.0011
1972.50,-0.0009
1972.25,-0.0007
1972.00,-0.0004
1971.75,-0.0001
1971.50,0.0000
1971.25,-0.0000
1971.00,-0.0002
1970.75,-0.0005
1970.50,-0.0009
1970.25,-0.0011
1970.00,-0.0013
1969.75,-0.0014
1969.50,-0.0015
1969.25,-0.0018
1969.00,-0.0019
1968.75,-0.0017
1968.50,-0.0011
1968.25,-0.0003
1968.00,0.0001
1967.75,0.0002
1967.50,0.0002
1967.25,0.0002
1967.00,0.0004
1966.75,0.0007
1966.50,0.0008
1966.25,0.0006
1966.00,0.0001
1965.75,-0.0005
1965.50,-0.0008
1965.25,-0.0009
1965.00,-0.0008
1964.75,-0.0006
1964.50,-0.0004
1964.25,-0.0003
1964.00,0.0000
1963.75,0.0004
1963.50,0.0008
1963.25,0.0009
1963.00,0.0009
1962.75,0.0008
1962.50,0.0006
1962.25,0.0004
1962.00,0.0001
1961.75,-0.0003
1961.50,-0.0008
1961.25,-0.0012
1961.00,-0.0013
1960.75,-0.0011
1960.50,-0.0007
1960.25,-0.0002
1960.00,0.0004
1959.75,0.0007
1959.50,0.0009
1959.25,0.0009
1959.00,0.0008
1958.75,0.0006
1958.50,0.0006
1958.25,0.0005
1958.00,0.0004
1957.75,0.0002
1957.50,0.0001
1957.25,0.0000
1957.00,0.0000
1956.75,0.0001
1956.50,0.0002
1956.25,0.0004
1956.00,0.0006
1955.75,0.0007
1955.50,0.0005
1955.25,0.0003
1955.00,0.0002
1954.75,0.0003
1954.50,0.0005
1954.25,0.0006
1954.00,0.0005
1953.75,0.0003
1953.50,0.0002
1953.25,0.0004
1953.00,0.0007
1952.75,0.0009
1952.50,0.0009
1952.25,0.0006
1952.00,0.0001
1951.75,-0.0002
1951.50,-0.0004
1951.25,-0.0003
1951.00,-0.0000
1950.75,0.0002
1950.50,0.0004
1950.25,0.0004
1950.00,0.0003
1949.75,0.0001
1949.50,-0.0002
1949.25,-0.0003
1949.00,-0.0003
1948.75,-0.0002
1948.50,-0.0002
1948.25,-0.0003
1948.00,-0.0003
1947.75,-0.0003
1947.50,-0.0000
1947.25,0.0003
1947.00,0.0007
1946.75,0.0008
1946.50,0.0009
1946.25,0.0010
1946.00,0.0011
1945.75,0.0013
1945.50,0.0014
1945.25,0.0012
1945.00,0.0008
1944.75,0.0002
1944.50,-0.0003
1944.25,-0.0006
1944.00,-0.0007
1943.75,-0.0006
1943.50,-0.0003
1943.25,-0.0000
1943.00,0.0002
1942.75,0.0004
1942.50,0.0006
1942.25,0.0008
1942.00,0.0009
1941.75,0.0010
1941.50,0.0009
1941.25,0.0008
1941.00,0.0006
1940.75,0.0003
1940.50,0.0000
1940.25,-0.0001
1940.00,0.0001
1939.75,0.0003
1939.50,0.0005
1939.25,0.0006
1939.00,0.0005
1938.75,0.0004
1938.50,0.0003
1938.25,0.0004
1938.00,0.0005
1937.75,0.0007
1937.50,0.0007
1937.25,0.0006
1937.00,0.0003
1936.75,-0.0001
1936.50,-0.0005
1936.25,-0.0008
1936.00,-0.0009
1935.75,-0.0009
1935.50,-0.0007
1935.25,-0.0006
1935.00,-0.0004
1934.75,-0.0001
1934.50,0.0002
1934.25,0.0004
1934.00,0.0006
1933.75,0.0006
1933.50,0.0004
1933.25,0.0003
1933.00,0.0002
1932.75,0.0003
1932.50,0.0005
1932.25,0.0005
1932.00,0.0005
1931.75,0.0004
1931.50,0.0002
1931.25,0.0001
1931.00,0.0001
1930.75,0.0001
1930.50,0.0001
1930.25,0.0000
1930.00,-0.0000
1929.75,0.0000
1929.50,0.0002
1929.25,0.0003
1929.00,0.0005
1928.75,0.0006
1928.50,0.0006
1928.25,0.0005
1928.00,0.0004
1927.75,0.0004
1927.50,0.0006
1927.25,0.0009
1927.00,0.0012
1926.75,0.0013
1926.50,0.0012
1926.25,0.0009
1926.00,0.0005
1925.75,-0.0001
1925.50,-0.0005
1925.25,-0.0007
1925.00,-0.0006
1924.75,-0.0003
1924.50,0.0000
1924.25,0.0003
1924.00,0.0006
1923.75,0.0007
1923.50,0.0008
1923.25,0.0006
1923.00,0.0004
1922.75,0.0001
1922.50,-0.0001
1922.25,-0.0001
1922.00,-0.0001
1921.75,-0.0001
1921.50,-0.0001
1921.25,0.0000
1921.00,0.0002
1920.75,0.0004
1920.50,0.0004
1920.25,0.0004
1920.00,0.0004
1919.75,0.0005
1919.50,0.0007
1919.25,0.0009
1919.00,0.0009
1918.75,0.0007
1918.50,0.0004
1918.25,0.0000
1918.00,-0.0003
1917.75,-0.0004
1917.50,-0.0002
1917.25,0.0001
1917.00,0.0004
1916.75,0.0005
1916.50,0.0005
1916.25,0.0004
1916.00,0.0003
1915.75,0.0004
1915.50,0.0005
1915.25,0.0007
1915.00,0.0008
1914.75,0.0008
1914.50,0.0006
1914.25,0.0003
1914.00,0.0001
1913.75,0.0000
1913.50,0.0002
1913.25,0.0006
1913.00,0.0010
1912.75,0.0012
1912.50,0.0011
1912.25,0.0009
1912.00,0.0006
1911.75,0.0005
1911.50,0.0005
1911.25,0.0005
1911.00,0.0005
1910.75,0.0005
1910.50,0.0004
1910.25,0.0004
1910.00,0.0002
1909.75,-0.0001
1909.50,-0.0003
1909.25,-0.0005
1909.00,-0.0006
1908.75,-0.0004
1908.50,-0.0002
1908.25,0.0001
1908.00,0.0003
1907.75,0.0005
1907.50,0.0005
1907.25,0.0006
1907.00,0.0005
1906.75,0.0005
1906.50,0.0005
1906.25,0.0004
1906.00,0.0003
1905.75,0.0003
1905.50,0.0002
1905.25,0.0003
1905.00,0.0003
1904.75,0.0003
1904.50,0.0003
1904.25,0.0003
1904.00,0.0003
1903.75,0.0005
1903.50,0.0007
1903.25,0.0008
1903.00,0.0009
1902.75,0.0008
1902.50,0.0007
1902.25,0.0006
1902.00,0.0003
1901.75,0.0001
1901.50,-0.0001
1901.25,-0.0001
1901.00,0.0001
1900.75,0.0003
1900.50,0.0004
1900.25,0.0004
1900.00,0.0004
1899.75,0.0004
1899.50,0.0004
1899.25,0.0004
1899.00,0.0004
1898.75,0.0004
1898.50,0.0003
1898.25,0.0004
1898.00,0.0005
1897.75,0.0007
1897.50,0.0007
1897.25,0.0005
1897.00,0.0003
1896.75,0.0001
1896.50,0.0001
1896.25,0.0003
1896.00,0.0006
1895.75,0.0008
1895.50,0.0008
1895.25,0.0007
1895.00,0.0005
1894.75,0.0004
1894.50,0.0003
1894.25,0.0003
1894.00,0.0003
1893.75,0.0004
1893.50,0.0005
1893.25,0.0006
1893.00,0.0005
1892.75,0.0005
1892.50,0.0005
1892.25,0.0007
1892.00,0.0008
1891.75,0.0007
1891.50,0.0005
1891.25,0.0002
1891.00,0.0001
1890.75,0.0000
1890.50,0.0001
1890.25,0.0001
1890.00,0.0000
1889.75,-0.0001
1889.50,-0.0003
1889.25,-0.0003
1889.00,-0.0001
1888.75,0.0002
1888.50,0.0006
1888.25,0.0008
1888.00,0.0008
1887.75,0.0006
1887.50,0.0004
1887.25,0.0002
1887.00,0.0002
1886.75,0.0002
1886.50,0.0002
1886.25,0.0002
1886.00,0.0002
1885.75,0.0000
1885.50,-0.0001
1885.25,-0.0002
1885.00,-0.0003
1884.75,-0.0004
1884.50,-0.0003
1884.25,-0.0002
1884.00,0.0001
1883.75,0.0004
1883.50,0.0005
1883.25,0.0005
1883.00,0.0003
1882.75,0.0001
1882.50,0.0000
1882.25,0.0001
1882.00,0.0002
1881.75,0.0003
1881.50,0.0003
1881.25,0.0003
1881.00,0.0004
1880.75,0.0004
1880.50,0.0005
1880.25,0.0005
1880.00,0.0006
1879.75,0.0007
1879.50,0.0007
1879.25,0.0008
1879.00,0.0008
1878.75,0.0008
1878.50,0.0008
1878.25,0.0007
1878.00,0.0007
1877.75,0.0006
1877.50,0.0006
1877.25,0.0004
1877.00,0.0001
1876.75,-0.0001
1876.50,-0.0003
1876.25,-0.0003
1876.00,-0.0001
1875.75,0.0000
1875.50,0.0002
1875.25,0.0003
1875.00,0.0005
1874.75,0.0008
1874.50,0.0009
1874.25,0.0009
1874.00,0.0008
1873.75,0.0006
1873.50,0.0005
1873.25,0.0005
1873.00,0.0005
1872.75,0.0004
1872.50,0.0003
1872.25,0.0001
1872.00,-0.0000
1871.75,-0.0001
1871.50,-0.0001
1871.25,-0.0001
1871.00,-0.0001
1870.75,0.0000
1870.50,0.0003
1870.25,0.0005
1870.00,0.0007
1869.75,0.0007
1869.50,0.0007
1869.25,0.0006
1869.00,0.0006
1868.75,0.0007
1868.50,0.0008
1868.25,0.0009
1868.00,0.0009
1867.75,0.0008
1867.50,0.0007
1867.25,0.0005
1867.00,0.0003
1866.75,0.0002
1866.50,0.0002
1866.25,0.0002
1866.00,0.0002
1865.75,0.0002
1865.50,0.0001
1865.25,0.0001
1865.00,0.0001
1864.75,0.0002
1864.50,0.0002
1864.25,0.0002
1864.00,0.0003
1863.75,0.0004
1863.50,0.0005
1863.25,0.0007
1863.00,0.0009
1862.75,0.0009
1862.50,0.0008
1862.25,0.0006
1862.00,0.0003
1861.75,0.0000
1861.50,-0.0001
1861.25,-0.0000
1861.00,0.0001
1860.75,0.0003
1860.50,0.0005
1860.25,0.0006
1860.00,0.0006
1859.75,0.0006
1859.50,0.0006
1859.25,0.0007
1859.00,0.0007
1858.75,0.0008
1858.50,0.0008
1858.25,0.0006
1858.00,0.0004
1857.75,0.0001
1857.50,-0.0002
1857.25,-0.0004
1857.00,-0.0005
1856.75,-0.0004
1856.50,-0.0003
1856.25,-0.0001
1856.00,0.0002
1855.75,0.0005
1855.50,0.0008
1855.25,0.0010
1855.00,0.0010
1854.75,0.0010
1854.50,0.0008
1854.25,0.0008
1854.00,0.0008
1853.75,0.0008
1853.50,0.0007
1853.25,0.0007
1853.00,0.0008
1852.75,0.0008
1852.50,0.0009
1852.25,0.0008
1852.00,0.0006
1851.75,0.0005
1851.50,0.0003
1851.25,0.0003
1851.00,0.0004
1850.75,0.0004
1850.50,0.0005
1850.25,0.0007
1850.00,0.0007
1849.75,0.0008
1849.50,0.0008
1849.25,0.0008
1849.00,0.0008
1848.75,0.0008
1848.50,0.0007
1848.25,0.0006
1848.00,0.0004
1847.75,0.0003
1847.50,0.0001
1847.25,-0.0001
1847.00,-0.0002
1846.75,-0.0001
1846.50,0.0000
1846.25,0.0003
1846.00,0.0006
1845.75,0.0009
1845.50,0.0009
1845.25,0.0008
1845.00,0.0005
1844.75,0.0001
1844.50,-0.0002
1844.25,-0.0003
1844.00,-0.0001
1843.75,0.0003
1843.50,0.0006
1843.25,0.0008
1843.00,0.0008
1842.75,0.0006
1842.50,0.0004
1842.25,0.0002
1842.00,0.0001
1841.75,0.0001
1841.50,0.0002
1841.25,0.0003
1841.00,0.0004
1840.75,0.0005
1840.50,0.0006
1840.25,0.0008
1840.00,0.0010
1839.75,0.0011
1839.50,0.0010
1839.25,0.0009
1839.00,0.0007
1838.75,0.0005
1838.50,0.0005
1838.25,0.0005
1838.00,0.0004
1837.75,0.0004
1837.50,0.0004
1837.25,0.0004
1837.00,0.0005
1836.75,0.0006
1836.50,0.0007
1836.25,0.0007
1836.00,0.0006
1835.75,0.0006
1835.50,0.0006
1835.25,0.0005
1835.00,0.0005
1834.75,0.0004
1834.50,0.0003
1834.25,0.0002
1834.00,0.0001
1833.75,0.0001
1833.50,0.0002
1833.25,0.0004
1833.00,0.0005
1832.75,0.0006
1832.50,0.0006
1832.25,0.0006
1832.00,0.0007
1831.75,0.0007
1831.50,0.0008
1831.25,0.0009
1831.00,0.0011
1830.75,0.0012
1830.50,0.0012
1830.25,0.0011
1830.00,0.0009
1829.75,0.0009
1829.50,0.0010
1829.25,0.0011
1829.00,0.0012
1828.75,0.0011
1828.50,0.0011
1828.25,0.0010
1828.00,0.0009
1827.75,0.0009
1827.50,0.0009
1827.25,0.0009
1827.00,0.0009
1826.75,0.0009
1826.50,0.0009
1826.25,0.0009
1826.00,0.0009
1825.75,0.0009
1825.50,0.0007
1825.25,0.0004
1825.00,0.0002
1824.75,0.0003
1824.50,0.0004
1824.25,0.0005
1824.00,0.0006
1823.75,0.0006
1823.50,0.0007
1823.25,0.0008
1823.00,0.0010
1822.75,0.0011
1822.50,0.0011
1822.25,0.0010
1822.00,0.0008
1821.75,0.0007
1821.50,0.0007
1821.25,0.0008
1821.00,0.0009
1820.75,0.0010
1820.50,0.0009
1820.25,0.0008
1820.00,0.0006
1819.75,0.0004
1819.50,0.0003
1819.25,0.0003
1819.00,0.0003
1818.75,0.0004
1818.50,0.0005
1818.25,0.0006
1818.00,0.0005
1817.75,0.0004
1817.50,0.0002
1817.25,0.0002
1817.00,0.0003
1816.75,0.0005
1816.50,0.0007
1816.25,0.0009
1816.00,0.0010
1815.75,0.0011
1815.50,0.0011
1815.25,0.0012
1815.00,0.0012
1814.75,0.0012
1814.50,0.0010
1814.25,0.0009
1814.00,0.0008
1813.75,0.0008
1813.50,0.0008
1813.25,0.0009
1813.00,0.0009
1812.75,0.0008
1812.50,0.0007
1812.25,0.0007
1812.00,0.0008
1811.75,0.0008
1811.50,0.0009
1811.25,0.0010
1811.00,0.0010
1810.75,0.0010
1810.50,0.0011
1810.25,0.0010
1810.00,0.0010
1809.75,0.0009
1809.50,0.0008
1809.25,0.0008
1809.00,0.0008
1808.75,0.0007
1808.50,0.0005
1808.25,0.0004
1808.00,0.0004
1807.75,0.0005
1807.50,0.0005
1807.25,0.0006
1807.00,0.0006
1806.75,0.0006
1806.50,0.0006
1806.25,0.0007
1806.00,0.0008
1805.75,0.0009
1805.50,0.0008
1805.25,0.0007
1805.00,0.0006
1804.75,0.0005
1804.50,0.0005
1804.25,0.0005
1804.00,0.0007
1803.75,0.0009
1803.50,0.0010
1803.25,0.0010
1803.00,0.0009
1802.75,0.0009
1802.50,0.0009
1802.25,0.0009
1802.00,0.0008
1801.75,0.0008
1801.50,0.0007
1801.25,0.0007
1801.00,0.0006
1800.75,0.0006
1800.50,0.0008
1800.25,0.0010
1800.00,0.0012
1799.75,0.0013
1799.50,0.0013
1799.25,0.0012
1799.00,0.0010
1798.75,0.0008
1798.50,0.0007
1798.25,0.0007
1798.00,0.0007
1797.75,0.0008
1797.50,0.0007
1797.25,0.0007
1797.00,0.0006
1796.75,0.0006
1796.50,0.0005
1796.25,0.0005
1796.00,0.0004
1795.75,0.0005
1795.50,0.0005
1795.25,0.0006
1795.00,0.0007
1794.75,0.0007
1794.50,0.0007
1794.25,0.0007
1794.00,0.0007
1793.75,0.0007
1793.50,0.0008
1793.25,0.0008
1793.00,0.0007
1792.75,0.0005
1792.50,0.0005
1792.25,0.0006
1792.00,0.0009
1791.75,0.0011
1791.50,0.0011
1791.25,0.0009
1791.00,0.0007
1790.75,0.0006
1790.50,0.0006
1790.25,0.0008
1790.00,0.0009
1789.75,0.0012
1789.50,0.0014
1789.25,0.0015
1789.00,0.0016
1788.75,0.0015
1788.50,0.0013
1788.25,0.0011
1788.00,0.0009
1787.75,0.0009
1787.50,0.0008
1787.25,0.0009
1787.00,0.0009
1786.75,0.0010
1786.50,0.0011
1786.25,0.0011
1786.00,0.0012
1785.75,0.0011
1785.50,0.0011
1785.25,0.0010
1785.00,0.0009
1784.75,0.0008
1784.50,0.0008
1784.25,0.0009
1784.00,0.0010
1783.75,0.0011
1783.50,0.0012
1783.25,0.0012
1783.00,0.0012
1782.75,0.0011
1782.50,0.0010
1782.25,0.0009
1782.00,0.0008
1781.75,0.0008
1781.50,0.0008
1781.25,0.0008
1781.00,0.0009
1780.75,0.0010
1780.50,0.0011
1780.25,0.0012
1780.00,0.0012
1779.75,0.0011
1779.50,0.0010
1779.25,0.0010
1779.00,0.0010
1778.75,0.0011
1778.50,0.0012
1778.25,0.0013
1778.00,0.0013
1777.75,0.0012
1777.50,0.0010
1777.25,0.0009
1777.00,0.0009
1776.75,0.0010
1776.50,0.0012
1776.25,0.0013
1776.00,0.0013
1775.75,0.0013
1775.50,0.0013
1775.25,0.0013
1775.00,0.0012
1774.75,0.0011
1774.50,0.0011
1774.25,0.0010
1774.00,0.0010
1773.75,0.0010
1773.50,0.0011
1773.25,0.0012
1773.00,0.0011
1772.75,0.0011
1772.50,0.0011
1772.25,0.0012
1772.00,0.0013
1771.75,0.0014
1771.50,0.0014
1771.25,0.0014
1771.00,0.0013
1770.75,0.0013
1770.50,0.0013
1770.25,0.0013
1770.00,0.0012
1769.75,0.0011
1769.50,0.0011
1769.25,0.0010
1769.00,0.0010
1768.75,0.0009
1768.50,0.0007
1768.25,0.0005
1768.00,0.0004
1767.75,0.0005
1767.50,0.0007
1767.25,0.0008
1767.00,0.0009
1766.75,0.0009
1766.50,0.0010
1766.25,0.0010
1766.00,0.0011
1765.75,0.0011
1765.50,0.0010
1765.25,0.0010
1765.00,0.0009
1764.75,0.0009
1764.50,0.0009
1764.25,0.0010
1764.00,0.0010
1763.75,0.0010
1763.50,0.0011
1763.25,0.0011
1763.00,0.0012
1762.75,0.0012
1762.50,0.0011
1762.25,0.0008
1762.00,0.0005
1761.75,0.0003
1761.50,0.0004
1761.25,0.0007
1761.00,0.0008
1760.75,0.0008
1760.50,0.0008
1760.25,0.0007
1760.00,0.0007
1759.75,0.0007
1759.50,0.0008
1759.25,0.0010
1759.00,0.0011
1758.75,0.0012
1758.50,0.0013
1758.25,0.0013
1758.00,0.0012
1757.75,0.0013
1757.50,0.0014
1757.25,0.0015
1757.00,0.0016
1756.75,0.0016
1756.50,0.0016
1756.25,0.0015
1756.00,0.0014
1755.75,0.0013
1755.50,0.0012
1755.25,0.0011
1755.00,0.0011
1754.75,0.0012
1754.50,0.0012
1754.25,0.0013
1754.00,0.0013
1753.75,0.0012
1753.50,0.0011
1753.25,0.0009
1753.00,0.0008
1752.75,0.0008
1752.50,0.0009
1752.25,0.0012
1752.00,0.0014
1751.75,0.0015
1751.50,0.0014
1751.25,0.0012
1751.00,0.0009
1750.75,0.0008
1750.50,0.0008
1750.25,0.0009
1750.00,0.0011
1749.75,0.0012
1749.50,0.0013
1749.25,0.0013
1749.00,0.0014
1748.75,0.0015
1748.50,0.0015
1748.25,0.0015
1748.00,0.0015
1747.75,0.0016
1747.50,0.0016
1747.25,0.0016
1747.00,0.0015
1746.75,0.0013
1746.50,0.0011
1746.25,0.0010
1746.00,0.0010
1745.75,0.0011
1745.50,0.0012
1745.25,0.0013
1745.00,0.0013
1744.75,0.0012
1744.50,0.0012
1744.25,0.0012
1744.00,0.0012
1743.75,0.0013
1743.50,0.0015
1743.25,0.0015
1743.00,0.0015
1742.75,0.0014
1742.50,0.0014
1742.25,0.0013
1742.00,0.0013
1741.75,0.0013
1741.50,0.0013
1741.25,0.0013
1741.00,0.0013
1740.75,0.0013
1740.50,0.0014
1740.25,0.0014
1740.00,0.0014
1739.75,0.0014
1739.50,0.0013
1739.25,0.0013
1739.00,0.0013
1738.75,0.0013
1738.50,0.0012
1738.25,0.0011
1738.00,0.0010
1737.75,0.0010
1737.50,0.0010
1737.25,0.0012
1737.00,0.0014
1736.75,0.0015
1736.50,0.0017
1736.25,0.0018
1736.00,0.0019
1735.75,0.0018
1735.50,0.0017
1735.25,0.0014
1735.00,0.0009
1734.75,0.0005
1734.50,0.0003
1734.25,0.0006
1734.00,0.0009
1733.75,0.0009
1733.50,0.0006
1733.25,0.0004
1733.00,0.0004
1732.75,0.0007
1732.50,0.0010
1732.25,0.0013
1732.00,0.0015
1731.75,0.0017
1731.50,0.0017
1731.25,0.0018
1731.00,0.0017
1730.75,0.0017
1730.50,0.0017
1730.25,0.0016
1730.00,0.0015
1729.75,0.0014
1729.50,0.0013
1729.25,0.0013
1729.00,0.0014
1728.75,0.0015
1728.50,0.0016
1728.25,0.0016
1728.00,0.0016
1727.75,0.0017
1727.50,0.0017
1727.25,0.0017
1727.00,0.0018
1726.75,0.0017
1726.50,0.0017
1726.25,0.0016
1726.00,0.0015
1725.75,0.0014
1725.50,0.0014
1725.25,0.0015
1725.00,0.0015
1724.75,0.0015
1724.50,0.0015
1724.25,0.0015
1724.00,0.0014
1723.75,0.0013
1723.50,0.0013
1723.25,0.0014
1723.00,0.0015
1722.75,0.0016
1722.50,0.0016
1722.25,0.0016
1722.00,0.0015
1721.75,0.0014
1721.50,0.0014
1721.25,0.0013
1721.00,0.0014
1720.75,0.0015
1720.50,0.0016
1720.25,0.0017
1720.00,0.0018
1719.75,0.0018
1719.50,0.0019
1719.25,0.0019
1719.00,0.0020
1718.75,0.0021
1718.50,0.0022
1718.25,0.0021
1718.00,0.0018
1717.75,0.0013
1717.50,0.0008
1717.25,0.0005
1717.00,0.0006
1716.75,0.0009
1716.50,0.0012
1716.25,0.0014
1716.00,0.0015
1715.75,0.0016
1715.50,0.0017
1715.25,0.0018
1715.00,0.0018
1714.75,0.0016
1714.50,0.0015
1714.25,0.0015
1714.00,0.0016
1713.75,0.0018
1713.50,0.0018
1713.25,0.0018
1713.00,0.0017
1712.75,0.0016
1712.50,0.0015
1712.25,0.0015
1712.00,0.0015
1711.75,0.0015
1711.50,0.0016
1711.25,0.0018
1711.00,0.0019
1710.75,0.0019
1710.50,0.0017
1710.25,0.0015
1710.00,0.0013
1709.75,0.0012
1709.50,0.0012
1709.25,0.0013
1709.00,0.0014
1708.75,0.0014
1708.50,0.0014
1708.25,0.0013
1708.00,0.0013
1707.75,0.0013
1707.50,0.0012
1707.25,0.0013
1707.00,0.0013
1706.75,0.0014
1706.50,0.0014
1706.25,0.0016
1706.00,0.0017
1705.75,0.0017
1705.50,0.0017
1705.25,0.0017
1705.00,0.0016
1704.75,0.0015
1704.50,0.0013
1704.25,0.0013
1704.00,0.0014
1703.75,0.0015
1703.50,0.0016
1703.25,0.0017
1703.00,0.0017
1702.75,0.0018
1702.50,0.0017
1702.25,0.0016
1702.00,0.0014
1701.75,0.0013
1701.50,0.0012
1701.25,0.0012
1701.00,0.0014
1700.75,0.0018
1700.50,0.0028
1700.25,0.0040
1700.00,0.0036
1699.75,0.0026
1699.50,0.0022
1699.25,0.0019
1699.00,0.0019
1698.75,0.0018
1698.50,0.0018
1698.25,0.0017
1698.00,0.0017
1697.75,0.0015
1697.50,0.0014
1697.25,0.0014
1697.00,0.0014
1696.75,0.0015
1696.50,0.0016
1696.25,0.0018
1696.00,0.0019
1695.75,0.0018
1695.50,0.0014
1695.25,0.0012
1695.00,0.0012
1694.75,0.0013
1694.50,0.0014
1694.25,0.0015
1694.00,0.0015
1693.75,0.0015
1693.50,0.0015
1693.25,0.0015
1693.00,0.0015
1692.75,0.0015
1692.50,0.0015
1692.25,0.0016
1692.00,0.0016
1691.75,0.0016
1691.50,0.0015
1691.25,0.0014
1691.00,0.0013
1690.75,0.0013
1690.50,0.0015
1690.25,0.0016
1690.00,0.0017
1689.75,0.0017
1689.50,0.0016
1689.25,0.0016
1689.00,0.0016
1688.75,0.0015
1688.50,0.0014
1688.25,0.0013
1688.00,0.0013
1687.75,0.0014
1687.50,0.0016
1687.25,0.0018
1687.00,0.0019
1686.75,0.0019
1686.50,0.0018
1686.25,0.0016
1686.00,0.0015
1685.75,0.0014
1685.50,0.0013
1685.25,0.0012
1685.00,0.0013
1684.75,0.0019
1684.50,0.0028
1684.25,0.0032
1684.00,0.0030
1683.75,0.0026
1683.50,0.0020
1683.25,0.0015
1683.00,0.0012
1682.75,0.0012
1682.50,0.0013
1682.25,0.0013
1682.00,0.0014
1681.75,0.0015
1681.50,0.0016
1681.25,0.0018
1681.00,0.0018
1680.75,0.0019
1680.50,0.0019
1680.25,0.0018
1680.00,0.0017
1679.75,0.0016
1679.50,0.0015
1679.25,0.0014
1679.00,0.0013
1678.75,0.0014
1678.50,0.0015
1678.25,0.0016
1678.00,0.0018
1677.75,0.0019
1677.50,0.0019
1677.25,0.0019
1677.00,0.0019
1676.75,0.0018
1676.50,0.0016
1676.25,0.0015
1676.00,0.0014
1675.75,0.0012
1675.50,0.0009
1675.25,0.0008
1675.00,0.0010
1674.75,0.0011
1674.50,0.0013
1674.25,0.0013
1674.00,0.0013
1673.75,0.0012
1673.50,0.0012
1673.25,0.0013
1673.00,0.0014
1672.75,0.0015
1672.50,0.0016
1672.25,0.0017
1672.00,0.0017
1671.75,0.0016
1671.50,0.0015
1671.25,0.0014
1671.00,0.0015
1670.75,0.0015
1670.50,0.0015
1670.25,0.0015
1670.00,0.0015
1669.75,0.0015
1669.50,0.0015
1669.25,0.0017
1669.00,0.0018
1668.75,0.0018
1668.50,0.0018
1668.25,0.0019
1668.00,0.0020
1667.75,0.0020
1667.50,0.0020
1667.25,0.0020
1667.00,0.0019
1666.75,0.0019
1666.50,0.0018
1666.25,0.0017
1666.00,0.0017
1665.75,0.0017
1665.50,0.0016
1665.25,0.0016
1665.00,0.0015
1664.75,0.0014
1664.50,0.0013
1664.25,0.0014
1664.00,0.0015
1663.75,0.0016
1663.50,0.0017
1663.25,0.0017
1663.00,0.0017
1662.75,0.0017
1662.50,0.0017
1662.25,0.0019
1662.00,0.0020
1661.75,0.0022
1661.50,0.0022
1661.25,0.0021
1661.00,0.0019
1660.75,0.0018
1660.50,0.0018
1660.25,0.0019
1660.00,0.0020
1659.75,0.0020
1659.50,0.0020
1659.25,0.0019
1659.00,0.0018
1658.75,0.0018
1658.50,0.0017
1658.25,0.0017
1658.00,0.0017
1657.75,0.0016
1657.50,0.0016
1657.25,0.0016
1657.00,0.0017
1656.75,0.0017
1656.50,0.0018
1656.25,0.0019
1656.00,0.0020
1655.75,0.0021
1655.50,0.0020
1655.25,0.0020
1655.00,0.0018
1654.75,0.0016
1654.50,0.0015
1654.25,0.0014
1654.00,0.0014
1653.75,0.0013
1653.50,0.0012
1653.25,0.0012
1653.00,0.0019
1652.75,0.0032
1652.50,0.0034
1652.25,0.0027
1652.00,0.0023
1651.75,0.0021
1651.50,0.0019
1651.25,0.0018
1651.00,0.0018
1650.75,0.0019
1650.50,0.0021
1650.25,0.0022
1650.00,0.0023
1649.75,0.0022
1649.50,0.0020
1649.25,0.0019
1649.00,0.0017
1648.75,0.0016
1648.50,0.0016
1648.25,0.0017
1648.00,0.0019
1647.75,0.0020
1647.50,0.0020
1647.25,0.0020
1647.00,0.0020
1646.75,0.0020
1646.50,0.0020
1646.25,0.0021
1646.00,0.0021
1645.75,0.0021
1645.50,0.0021
1645.25,0.0020
1645.00,0.0019
1644.75,0.0018
1644.50,0.0018
1644.25,0.0018
1644.00,0.0019
1643.75,0.0020
1643.50,0.0021
1643.25,0.0021
1643.00,0.0022
1642.75,0.0022
1642.50,0.0022
1642.25,0.0023
1642.00,0.0023
1641.75,0.0023
1641.50,0.0024
1641.25,0.0024
1641.00,0.0023
1640.75,0.0022
1640.50,0.0021
1640.25,0.0020
1640.00,0.0019
1639.75,0.0020
1639.50,0.0021
1639.25,0.0022
1639.00,0.0022
1638.75,0.0022
1638.50,0.0022
1638.25,0.0021
1638.00,0.0022
1637.75,0.0022
1637.50,0.0023
1637.25,0.0024
1637.00,0.0025
1636.75,0.0025
1636.50,0.0026
1636.25,0.0026
1636.00,0.0028
1635.75,0.0031
1635.50,0.0035
1635.25,0.0034
1635.00,0.0027
1634.75,0.0022
1634.50,0.0020
1634.25,0.0020
1634.00,0.0021
1633.75,0.0021
1633.50,0.0022
1633.25,0.0023
1633.00,0.0024
1632.75,0.0025
1632.50,0.0025
1632.25,0.0025
1632.00,0.0024
1631.75,0.0023
1631.50,0.0022
1631.25,0.0021
1631.00,0.0021
1630.75,0.0021
1630.50,0.0021
1630.25,0.0021
1630.00,0.0022
1629.75,0.0023
1629.50,0.0023
1629.25,0.0024
1629.00,0.0025
1628.75,0.0025
1628.50,0.0025
1628.25,0.0023
1628.00,0.0021
1627.75,0.0019
1627.50,0.0019
1627.25,0.0021
1627.00,0.0023
1626.75,0.0024
1626.50,0.0024
1626.25,0.0024
1626.00,0.0024
1625.75,0.0023
1625.50,0.0024
1625.25,0.0024
1625.00,0.0024
1624.75,0.0024
1624.50,0.0024
1624.25,0.0023
1624.00,0.0022
1623.75,0.0021
1623.50,0.0019
1623.25,0.0019
1623.00,0.0020
1622.75,0.0022
1622.50,0.0023
1622.25,0.0023
1622.00,0.0023
1621.75,0.0023
1621.50,0.0023
1621.25,0.0023
1621.00,0.0024
1620.75,0.0024
1620.50,0.0023
1620.25,0.0023
1620.00,0.0022
1619.75,0.0022
1619.50,0.0021
1619.25,0.0021
1619.00,0.0022
1618.75,0.0023
1618.50,0.0024
1618.25,0.0025
1618.00,0.0026
1617.75,0.0025
1617.50,0.0024
1617.25,0.0021
1617.00,0.0017
1616.75,0.0012
1616.50,0.0010
1616.25,0.0013
1616.00,0.0017
1615.75,0.0020
1615.50,0.0021
1615.25,0.0022
1615.00,0.0023
1614.75,0.0024
1614.50,0.0025
1614.25,0.0025
1614.00,0.0025
1613.75,0.0024
1613.50,0.0024
1613.25,0.0024
1613.00,0.0023
1612.75,0.0023
1612.50,0.0023
1612.25,0.0024
1612.00,0.0024
1611.75,0.0024
1611.50,0.0024
1611.25,0.0024
1611.00,0.0024
1610.75,0.0025
1610.50,0.0026
1610.25,0.0027
1610.00,0.0028
1609.75,0.0028
1609.50,0.0027
1609.25,0.0026
1609.00,0.0025
1608.75,0.0025
1608.50,0.0026
1608.25,0.0026
1608.00,0.0026
1607.75,0.0026
1607.50,0.0026
1607.25,0.0027
1607.00,0.0027
1606.75,0.0027
1606.50,0.0028
1606.25,0.0028
1606.00,0.0028
1605.75,0.0028
1605.50,0.0027
1605.25,0.0027
1605.00,0.0026
1604.75,0.0025
1604.50,0.0025
1604.25,0.0024
1604.00,0.0024
1603.75,0.0024
1603.50,0.0025
1603.25,0.0025
1603.00,0.0024
1602.75,0.0024
1602.50,0.0025
1602.25,0.0025
1602.00,0.0025
1601.75,0.0025
1601.50,0.0024
1601.25,0.0023
1601.00,0.0024
1600.75,0.0024
1600.50,0.0025
1600.25,0.0025
1600.00,0.0026
1599.75,0.0026
1599.50,0.0027
1599.25,0.0029
1599.00,0.0030
1598.75,0.0030
1598.50,0.0030
1598.25,0.0029
1598.00,0.0029
1597.75,0.0028
1597.50,0.0028
1597.25,0.0029
1597.00,0.0031
1596.75,0.0032
1596.50,0.0033
1596.25,0.0034
1596.00,0.0033
1595.75,0.0033
1595.50,0.0032
1595.25,0.0032
1595.00,0.0032
1594.75,0.0032
1594.50,0.0032
1594.25,0.0032
1594.00,0.0031
1593.75,0.0031
1593.50,0.0030
1593.25,0.0029
1593.00,0.0029
1592.75,0.0028
1592.50,0.0027
1592.25,0.0027
1592.00,0.0027
1591.75,0.0027
1591.50,0.0028
1591.25,0.0030
1591.00,0.0031
1590.75,0.0032
1590.50,0.0032
1590.25,0.0031
1590.00,0.0030
1589.75,0.0028
1589.50,0.0027
1589.25,0.0028
1589.00,0.0029
1588.75,0.0029
1588.50,0.0030
1588.25,0.0029
1588.00,0.0028
1587.75,0.0028
1587.50,0.0027
1587.25,0.0027
1587.00,0.0028
1586.75,0.0029
1586.50,0.0030
1586.25,0.0031
1586.00,0.0032
1585.75,0.0032
1585.50,0.0032
1585.25,0.0031
1585.00,0.0030
1584.75,0.0030
1584.50,0.0031
1584.25,0.0032
1584.00,0.0032
1583.75,0.0032
1583.50,0.0031
1583.25,0.0031
1583.00,0.0031
1582.75,0.0032
1582.50,0.0033
1582.25,0.0035
1582.00,0.0036
1581.75,0.0037
1581.50,0.0038
1581.25,0.0038
1581.00,0.0039
1580.75,0.0039
1580.50,0.0039
1580.25,0.0039
1580.00,0.0040
1579.75,0.0041
1579.50,0.0042
1579.25,0.0042
1579.00,0.0042
1578.75,0.0041
1578.50,0.0041
1578.25,0.0040
1578.00,0.0040
1577.75,0.0040
1577.50,0.0041
1577.25,0.0041
1577.00,0.0041
1576.75,0.0040
1576.50,0.0038
1576.25,0.0034
1576.00,0.0032
1575.75,0.0032
1575.50,0.0034
1575.25,0.0036
1575.00,0.0037
1574.75,0.0038
1574.50,0.0038
1574.25,0.0038
1574.00,0.0038
1573.75,0.0038
1573.50,0.0037
1573.25,0.0037
1573.00,0.0036
1572.75,0.0036
1572.50,0.0037
1572.25,0.0037
1572.00,0.0038
1571.75,0.0038
1571.50,0.0037
1571.25,0.0037
1571.00,0.0036
1570.75,0.0035
1570.50,0.0035
1570.25,0.0034
1570.00,0.0032
1569.75,0.0030
1569.50,0.0028
1569.25,0.0026
1569.00,0.0025
1568.75,0.0025
1568.50,0.0026
1568.25,0.0027
1568.00,0.0029
1567.75,0.0029
1567.50,0.0030
1567.25,0.0030
1567.00,0.0030
1566.75,0.0030
1566.50,0.0031
1566.25,0.0032
1566.00,0.0033
1565.75,0.0033
1565.50,0.0032
1565.25,0.0032
1565.00,0.0031
1564.75,0.0029
1564.50,0.0027
1564.25,0.0025
1564.00,0.0025
1563.75,0.0025
1563.50,0.0026
1563.25,0.0026
1563.00,0.0026
1562.75,0.0025
1562.50,0.0025
1562.25,0.0025
1562.00,0.0025
1561.75,0.0026
1561.50,0.0027
1561.25,0.0027
1561.00,0.0027
1560.75,0.0026
1560.50,0.0026
1560.25,0.0027
1560.00,0.0029
1559.75,0.0032
1559.50,0.0032
1559.25,0.0034
1559.00,0.0036
1558.75,0.0041
1558.50,0.0046
1558.25,0.0048
1558.00,0.0044
1557.75,0.0037
1557.50,0.0031
1557.25,0.0027
1557.00,0.0026
1556.75,0.0025
1556.50,0.0025
1556.25,0.0024
1556.00,0.0025
1555.75,0.0026
1555.50,0.0028
1555.25,0.0028
1555.00,0.0027
1554.75,0.0025
1554.50,0.0021
1554.25,0.0018
1554.00,0.0019
1553.75,0.0021
1553.50,0.0023
1553.25,0.0023
1553.00,0.0023
1552.75,0.0022
1552.50,0.0022
1552.25,0.0022
1552.00,0.0023
1551.75,0.0024
1551.50,0.0025
1551.25,0.0026
1551.00,0.0027
1550.75,0.0027
1550.50,0.0028
1550.25,0.0029
1550.00,0.0029
1549.75,0.0030
1549.50,0.0030
1549.25,0.0030
1549.00,0.0030
1548.75,0.0029
1548.50,0.0029
1548.25,0.0028
1548.00,0.0028
1547.75,0.0028
1547.50,0.0028
1547.25,0.0028
1547.00,0.0029
1546.75,0.0029
1546.50,0.0030
1546.25,0.0030
1546.00,0.0032
1545.75,0.0033
1545.50,0.0033
1545.25,0.0034
1545.00,0.0034
1544.75,0.0034
1544.50,0.0035
1544.25,0.0036
1544.00,0.0036
1543.75,0.0035
1543.50,0.0034
1543.25,0.0033
1543.00,0.0033
1542.75,0.0034
1542.50,0.0035
1542.25,0.0037
1542.00,0.0040
1541.75,0.0043
1541.50,0.0045
1541.25,0.0047
1541.00,0.0048
1540.75,0.0048
1540.50,0.0047
1540.25,0.0047
1540.00,0.0047
1539.75,0.0047
1539.50,0.0045
1539.25,0.0043
1539.00,0.0041
1538.75,0.0039
1538.50,0.0037
1538.25,0.0036
1538.00,0.0035
1537.75,0.0035
1537.50,0.0035
1537.25,0.0036
1537.00,0.0036
1536.75,0.0036
1536.50,0.0036
1536.25,0.0036
1536.00,0.0035
1535.75,0.0035
1535.50,0.0035
1535.25,0.0035
1535.00,0.0035
1534.75,0.0034
1534.50,0.0033
1534.25,0.0031
1534.00,0.0029
1533.75,0.0027
1533.50,0.0026
1533.25,0.0025
1533.00,0.0025
1532.75,0.0025
1532.50,0.0026
1532.25,0.0027
1532.00,0.0027
1531.75,0.0027
1531.50,0.0027
1531.25,0.0027
1531.00,0.0027
1530.75,0.0028
1530.50,0.0029
1530.25,0.0030
1530.00,0.0030
1529.75,0.0029
1529.50,0.0028
1529.25,0.0028
1529.00,0.0027
1528.75,0.0026
1528.50,0.0024
1528.25,0.0023
1528.00,0.0023
1527.75,0.0022
1527.50,0.0022
1527.25,0.0022
1527.00,0.0023
1526.75,0.0023
1526.50,0.0023
1526.25,0.0024
1526.00,0.0025
1525.75,0.0025
1525.50,0.0025
1525.25,0.0026
1525.00,0.0027
1524.75,0.0027
1524.50,0.0026
1524.25,0.0024
1524.00,0.0023
1523.75,0.0021
1523.50,0.0021
1523.25,0.0022
1523.00,0.0023
1522.75,0.0025
1522.50,0.0025
1522.25,0.0025
1522.00,0.0026
1521.75,0.0026
1521.50,0.0025
1521.25,0.0023
1521.00,0.0021
1520.75,0.0021
1520.50,0.0022
1520.25,0.0023
1520.00,0.0024
1519.75,0.0023
1519.50,0.0023
1519.25,0.0022
1519.00,0.0022
1518.75,0.0022
1518.50,0.0022
1518.25,0.0022
1518.00,0.0022
1517.75,0.0023
1517.50,0.0025
1517.25,0.0027
1517.00,0.0029
1516.75,0.0030
1516.50,0.0029
1516.25,0.0027
1516.00,0.0026
1515.75,0.0025
1515.50,0.0025
1515.25,0.0025
1515.00,0.0025
1514.75,0.0025
1514.50,0.0025
1514.25,0.0025
1514.00,0.0025
1513.75,0.0025
1513.50,0.0025
1513.25,0.0024
1513.00,0.0023
1512.75,0.0023
1512.50,0.0022
1512.25,0.0021
1512.00,0.0021
1511.75,0.0020
1511.50,0.0020
1511.25,0.0021
1511.00,0.0021
1510.75,0.0022
1510.50,0.0022
1510.25,0.0021
1510.00,0.0020
1509.75,0.0019
1509.50,0.0019
1509.25,0.0019
1509.00,0.0019
1508.75,0.0018
1508.50,0.0018
1508.25,0.0017
1508.00,0.0017
1507.75,0.0017
1507.50,0.0016
1507.25,0.0016
1507.00,0.0018
1506.75,0.0021
1506.50,0.0021
1506.25,0.0019
1506.00,0.0017
1505.75,0.0014
1505.50,0.0013
1505.25,0.0014
1505.00,0.0016
1504.75,0.0017
1504.50,0.0018
1504.25,0.0018
1504.00,0.0018
1503.75,0.0019
1503.50,0.0019
1503.25,0.0020
1503.00,0.0021
1502.75,0.0021
1502.50,0.0021
1502.25,0.0020
1502.00,0.0019
1501.75,0.0018
1501.50,0.0018
1501.25,0.0018
1501.00,0.0019
1500.75,0.0019
1500.50,0.0019
1500.25,0.0019
1500.00,0.0018
1499.75,0.0018
1499.50,0.0018
1499.25,0.0018
1499.00,0.0017
1498.75,0.0018
1498.50,0.0020
1498.25,0.0021
1498.00,0.0021
1497.75,0.0021
1497.50,0.0019
1497.25,0.0018
1497.00,0.0018
1496.75,0.0018
1496.50,0.0018
1496.25,0.0019
1496.00,0.0020
1495.75,0.0019
1495.50,0.0019
1495.25,0.0019
1495.00,0.0018
1494.75,0.0018
1494.50,0.0018
1494.25,0.0017
1494.00,0.0018
1493.75,0.0019
1493.50,0.0021
1493.25,0.0023
1493.00,0.0023
1492.75,0.0024
1492.50,0.0024
1492.25,0.0025
1492.00,0.0025
1491.75,0.0025
1491.50,0.0024
1491.25,0.0022
1491.00,0.0020
1490.75,0.0019
1490.50,0.0019
1490.25,0.0019
1490.00,0.0020
1489.75,0.0021
1489.50,0.0022
1489.25,0.0023
1489.00,0.0023
1488.75,0.0022
1488.50,0.0022
1488.25,0.0023
1488.00,0.0025
1487.75,0.0027
1487.50,0.0028
1487.25,0.0029
1487.00,0.0029
1486.75,0.0028
1486.50,0.0027
1486.25,0.0027
1486.00,0.0027
1485.75,0.0026
1485.50,0.0026
1485.25,0.0025
1485.00,0.0025
1484.75,0.0025
1484.50,0.0026
1484.25,0.0027
1484.00,0.0028
1483.75,0.0029
1483.50,0.0030
1483.25,0.0031
1483.00,0.0032
1482.75,0.0032
1482.50,0.0033
1482.25,0.0032
1482.00,0.0032
1481.75,0.0032
1481.50,0.0033
1481.25,0.0034
1481.00,0.0034
1480.75,0.0035
1480.50,0.0035
1480.25,0.0035
1480.00,0.0035
1479.75,0.0035
1479.50,0.0035
1479.25,0.0034
1479.00,0.0034
1478.75,0.0035
1478.50,0.0036
1478.25,0.0036
1478.00,0.0036
1477.75,0.0036
1477.50,0.0035
1477.25,0.0035
1477.00,0.0035
1476.75,0.0035
1476.50,0.0035
1476.25,0.0034
1476.00,0.0034
1475.75,0.0034
1475.50,0.0034
1475.25,0.0035
1475.00,0.0035
1474.75,0.0035
1474.50,0.0036
1474.25,0.0036
1474.00,0.0037
1473.75,0.0038
1473.50,0.0039
1473.25,0.0040
1473.00,0.0040
1472.75,0.0040
1472.50,0.0039
1472.25,0.0038
1472.00,0.0037
1471.75,0.0037
1471.50,0.0037
1471.25,0.0037
1471.00,0.0037
1470.75,0.0036
1470.50,0.0035
1470.25,0.0035
1470.00,0.0036
1469.75,0.0037
1469.50,0.0037
1469.25,0.0037
1469.00,0.0036
1468.75,0.0035
1468.50,0.0034
1468.25,0.0033
1468.00,0.0033
1467.75,0.0034
1467.50,0.0035
1467.25,0.0036
1467.00,0.0038
1466.75,0.0038
1466.50,0.0038
1466.25,0.0037
1466.00,0.0037
1465.75,0.0037
1465.50,0.0038
1465.25,0.0039
1465.00,0.0041
1464.75,0.0043
1464.50,0.0043
1464.25,0.0043
1464.00,0.0043
1463.75,0.0043
1463.50,0.0043
1463.25,0.0042
1463.00,0.0041
1462.75,0.0040
1462.50,0.0040
1462.25,0.0041
1462.00,0.0042
1461.75,0.0042
1461.50,0.0043
1461.25,0.0042
1461.00,0.0041
1460.75,0.0040
1460.50,0.0040
1460.25,0.0039
1460.00,0.0039
1459.75,0.0038
1459.50,0.0038
1459.25,0.0039
1459.00,0.0040
1458.75,0.0041
1458.50,0.0042
1458.25,0.0042
1458.00,0.0042
1457.75,0.0043
1457.50,0.0044
1457.25,0.0045
1457.00,0.0045
1456.75,0.0042
1456.50,0.0036
1456.25,0.0034
1456.00,0.0036
1455.75,0.0038
1455.50,0.0040
1455.25,0.0042
1455.00,0.0044
1454.75,0.0046
1454.50,0.0047
1454.25,0.0048
1454.00,0.0048
1453.75,0.0048
1453.50,0.0048
1453.25,0.0048
1453.00,0.0048
1452.75,0.0049
1452.50,0.0049
1452.25,0.0049
1452.00,0.0050
1451.75,0.0050
1451.50,0.0051
1451.25,0.0052
1451.00,0.0052
1450.75,0.0052
1450.50,0.0052
1450.25,0.0051
1450.00,0.0050
1449.75,0.0050
1449.50,0.0050
1449.25,0.0050
1449.00,0.0051
1448.75,0.0051
1448.50,0.0050
1448.25,0.0049
1448.00,0.0049
1447.75,0.0050
1447.50,0.0052
1447.25,0.0055
1447.00,0.0057
1446.75,0.0059
1446.50,0.0060
1446.25,0.0061
1446.00,0.0062
1445.75,0.0062
1445.50,0.0062
1445.25,0.0062
1445.00,0.0061
1444.75,0.0060
1444.50,0.0058
1444.25,0.0057
1444.00,0.0056
1443.75,0.0056
1443.50,0.0055
1443.25,0.0055
1443.00,0.0055
1442.75,0.0055
1442.50,0.0055
1442.25,0.0055
1442.00,0.0055
1441.75,0.0055
1441.50,0.0054
1441.25,0.0054
1441.00,0.0053
1440.75,0.0053
1440.50,0.0053
1440.25,0.0053
1440.00,0.0053
1439.75,0.0053
1439.50,0.0053
1439.25,0.0053
1439.00,0.0052
1438.75,0.0052
1438.50,0.0051
1438.25,0.0051
1438.00,0.0051
1437.75,0.0051
1437.50,0.0051
1437.25,0.0049
1437.00,0.0047
1436.75,0.0046
1436.50,0.0047
1436.25,0.0049
1436.00,0.0050
1435.75,0.0051
1435.50,0.0050
1435.25,0.0049
1435.00,0.0047
1434.75,0.0046
1434.50,0.0046
1434.25,0.0046
1434.00,0.0047
1433.75,0.0047
1433.50,0.0048
1433.25,0.0048
1433.00,0.0048
1432.75,0.0047
1432.50,0.0046
1432.25,0.0046
1432.00,0.0046
1431.75,0.0047
1431.50,0.0048
1431.25,0.0049
1431.00,0.0050
1430.75,0.0050
1430.50,0.0050
1430.25,0.0048
1430.00,0.0047
1429.75,0.0047
1429.50,0.0048
1429.25,0.0050
1429.00,0.0051
1428.75,0.0052
1428.50,0.0053
1428.25,0.0053
1428.00,0.0054
1427.75,0.0055
1427.50,0.0056
1427.25,0.0058
1427.00,0.0058
1426.75,0.0058
1426.50,0.0058
1426.25,0.0058
1426.00,0.0058
1425.75,0.0058
1425.50,0.0058
1425.25,0.0058
1425.00,0.0058
1424.75,0.0059
1424.50,0.0060
1424.25,0.0061
1424.00,0.0062
1423.75,0.0063
1423.50,0.0064
1423.25,0.0066
1423.00,0.0067
1422.75,0.0067
1422.50,0.0068
1422.25,0.0069
1422.00,0.0070
1421.75,0.0072
1421.50,0.0074
1421.25,0.0076
1421.00,0.0078
1420.75,0.0079
1420.50,0.0080
1420.25,0.0080
1420.00,0.0080
1419.75,0.0080
1419.50,0.0079
1419.25,0.0081
1419.00,0.0085
1418.75,0.0089
1418.50,0.0093
1418.25,0.0095
1418.00,0.0097
1417.75,0.0098
1417.50,0.0099
1417.25,0.0099
1417.00,0.0100
1416.75,0.0101
1416.50,0.0101
1416.25,0.0102
1416.00,0.0102
1415.75,0.0103
1415.50,0.0104
1415.25,0.0104
1415.00,0.0105
1414.75,0.0106
1414.50,0.0108
1414.25,0.0109
1414.00,0.0111
1413.75,0.0111
1413.50,0.0112
1413.25,0.0113
1413.00,0.0113
1412.75,0.0114
1412.50,0.0114
1412.25,0.0114
1412.00,0.0114
1411.75,0.0115
1411.50,0.0115
1411.25,0.0116
1411.00,0.0116
1410.75,0.0115
1410.50,0.0114
1410.25,0.0113
1410.00,0.0112
1409.75,0.0111
1409.50,0.0111
1409.25,0.0111
1409.00,0.0110
1408.75,0.0110
1408.50,0.0110
1408.25,0.0111
1408.00,0.0111
1407.75,0.0112
1407.50,0.0111
1407.25,0.0110
1407.00,0.0109
1406.75,0.0107
1406.50,0.0106
1406.25,0.0106
1406.00,0.0106
1405.75,0.0105
1405.50,0.0104
1405.25,0.0103
1405.00,0.0103
1404.75,0.0103
1404.50,0.0103
1404.25,0.0103
1404.00,0.0103
1403.75,0.0102
1403.50,0.0101
1403.25,0.0099
1403.00,0.0097
1402.75,0.0096
1402.50,0.0095
1402.25,0.0095
1402.00,0.0095
1401.75,0.0095
1401.50,0.0095
1401.25,0.0095
1401.00,0.0094
1400.75,0.0093
1400.50,0.0092
1400.25,0.0091
1400.00,0.0090
1399.75,0.0090
1399.50,0.0089
1399.25,0.0089
1399.00,0.0088
1398.75,0.0087
1398.50,0.0086
1398.25,0.0086
1398.00,0.0085
1397.75,0.0084
1397.50,0.0083
1397.25,0.0081
1397.00,0.0078
1396.75,0.0076
1396.50,0.0075
1396.25,0.0074
1396.00,0.0073
1395.75,0.0073
1395.50,0.0073
1395.25,0.0073
1395.00,0.0073
1394.75,0.0073
1394.50,0.0072
1394.25,0.0069
1394.00,0.0066
1393.75,0.0064
1393.50,0.0063
1393.25,0.0063
1393.00,0.0063
1392.75,0.0063
1392.50,0.0062
1392.25,0.0061
1392.00,0.0060
1391.75,0.0059
1391.50,0.0057
1391.25,0.0057
1391.00,0.0055
1390.75,0.0054
1390.50,0.0053
1390.25,0.0052
1390.00,0.0051
1389.75,0.0050
1389.50,0.0049
1389.25,0.0049
1389.00,0.0048
1388.75,0.0048
1388.50,0.0048
1388.25,0.0047
1388.00,0.0047
1387.75,0.0047
1387.50,0.0048
1387.25,0.0047
1387.00,0.0047
1386.75,0.0046
1386.50,0.0046
1386.25,0.0045
1386.00,0.0045
1385.75,0.0045
1385.50,0.0045
1385.25,0.0045
1385.00,0.0044
1384.75,0.0044
1384.50,0.0042
1384.25,0.0041
1384.00,0.0039
1383.75,0.0039
1383.50,0.0039
1383.25,0.0041
1383.00,0.0042
1382.75,0.0043
1382.50,0.0044
1382.25,0.0044
1382.00,0.0044
1381.75,0.0043
1381.50,0.0042
1381.25,0.0041
1381.00,0.0040
1380.75,0.0040
1380.50,0.0041
1380.25,0.0041
1380.00,0.0041
1379.75,0.0041
1379.50,0.0041
1379.25,0.0040
1379.00,0.0040
1378.75,0.0039
1378.50,0.0038
1378.25,0.0038
1378.00,0.0037
1377.75,0.0037
1377.50,0.0038
1377.25,0.0038
1377.00,0.0038
1376.75,0.0037
1376.50,0.0037
1376.25,0.0037
1376.00,0.0038
1375.75,0.0038
1375.50,0.0038
1375.25,0.0038
1375.00,0.0038
1374.75,0.0038
1374.50,0.0038
1374.25,0.0039
1374.00,0.0038
1373.75,0.0037
1373.50,0.0036
1373.25,0.0037
1373.00,0.0037
1372.75,0.0038
1372.50,0.0039
1372.25,0.0038
1372.00,0.0038
1371.75,0.0038
1371.50,0.0038
1371.25,0.0039
1371.00,0.0039
1370.75,0.0039
1370.50,0.0038
1370.25,0.0037
1370.00,0.0037
1369.75,0.0036
1369.50,0.0035
1369.25,0.0034
1369.00,0.0034
1368.75,0.0033
1368.50,0.0034
1368.25,0.0034
1368.00,0.0035
1367.75,0.0036
1367.50,0.0036
1367.25,0.0036
1367.00,0.0036
1366.75,0.0035
1366.50,0.0034
1366.25,0.0034
1366.00,0.0034
1365.75,0.0035
1365.50,0.0035
1365.25,0.0036
1365.00,0.0036
1364.75,0.0035
1364.50,0.0034
1364.25,0.0034
1364.00,0.0033
1363.75,0.0033
1363.50,0.0033
1363.25,0.0034
1363.00,0.0035
1362.75,0.0035
1362.50,0.0034
1362.25,0.0033
1362.00,0.0032
1361.75,0.0031
1361.50,0.0030
1361.25,0.0030
1361.00,0.0029
1360.75,0.0031
1360.50,0.0032
1360.25,0.0034
1360.00,0.0035
1359.75,0.0036
1359.50,0.0037
1359.25,0.0037
1359.00,0.0036
1358.75,0.0034
1358.50,0.0033
1358.25,0.0033
1358.00,0.0034
1357.75,0.0034
1357.50,0.0033
1357.25,0.0032
1357.00,0.0032
1356.75,0.0032
1356.50,0.0033
1356.25,0.0034
1356.00,0.0035
1355.75,0.0035
1355.50,0.0034
1355.25,0.0033
1355.00,0.0032
1354.75,0.0032
1354.50,0.0031
1354.25,0.0031
1354.00,0.0031
1353.75,0.0032
1353.50,0.0034
1353.25,0.0035
1353.00,0.0035
1352.75,0.0035
1352.50,0.0034
1352.25,0.0034
1352.00,0.0033
1351.75,0.0033
1351.50,0.0032
1351.25,0.0031
1351.00,0.0030
1350.75,0.0030
1350.50,0.0030
1350.25,0.0031
1350.00,0.0033
1349.75,0.0034
1349.50,0.0035
1349.25,0.0035
1349.00,0.0034
1348.75,0.0034
1348.50,0.0033
1348.25,0.0033
1348.00,0.0032
1347.75,0.0031
1347.50,0.0031
1347.25,0.0031
1347.00,0.0032
1346.75,0.0032
1346.50,0.0032
1346.25,0.0032
1346.00,0.0032
1345.75,0.0032
1345.50,0.0032
1345.25,0.0032
1345.00,0.0031
1344.75,0.0030
1344.50,0.0029
1344.25,0.0029
1344.00,0.0030
1343.75,0.0031
1343.50,0.0032
1343.25,0.0033
1343.00,0.0034
1342.75,0.0034
1342.50,0.0034
1342.25,0.0033
1342.00,0.0033
1341.75,0.0032
1341.50,0.0032
1341.25,0.0031
1341.00,0.0031
1340.75,0.0030
1340.50,0.0030
1340.25,0.0029
1340.00,0.0029
1339.75,0.0029
1339.50,0.0030
1339.25,0.0030
1339.00,0.0031
1338.75,0.0031
1338.50,0.0031
1338.25,0.0031
1338.00,0.0030
1337.75,0.0029
1337.50,0.0029
1337.25,0.0030
1337.00,0.0030
1336.75,0.0031
1336.50,0.0033
1336.25,0.0033
1336.00,0.0033
1335.75,0.0032
1335.50,0.0031
1335.25,0.0031
1335.00,0.0031
1334.75,0.0031
1334.50,0.0032
1334.25,0.0033
1334.00,0.0034
1333.75,0.0034
1333.50,0.0033
1333.25,0.0033
1333.00,0.0032
1332.75,0.0032
1332.50,0.0032
1332.25,0.0032
1332.00,0.0032
1331.75,0.0031
1331.50,0.0031
1331.25,0.0031
1331.00,0.0032
1330.75,0.0032
1330.50,0.0033
1330.25,0.0033
1330.00,0.0034
1329.75,0.0033
1329.50,0.0033
1329.25,0.0033
1329.00,0.0033
1328.75,0.0033
1328.50,0.0033
1328.25,0.0033
1328.00,0.0033
1327.75,0.0033
1327.50,0.0034
1327.25,0.0034
1327.00,0.0035
1326.75,0.0035
1326.50,0.0035
1326.25,0.0035
1326.00,0.0035
1325.75,0.0034
1325.50,0.0034
1325.25,0.0034
1325.00,0.0034
1324.75,0.0034
1324.50,0.0034
1324.25,0.0034
1324.00,0.0033
1323.75,0.0034
1323.50,0.0034
1323.25,0.0035
1323.00,0.0036
1322.75,0.0036
1322.50,0.0037
1322.25,0.0038
1322.00,0.0039
1321.75,0.0039
1321.50,0.0039
1321.25,0.0039
1321.00,0.0039
1320.75,0.0039
1320.50,0.0040
1320.25,0.0040
1320.00,0.0040
1319.75,0.0039
1319.50,0.0038
1319.25,0.0037
1319.00,0.0036
1318.75,0.0035
1318.50,0.0035
1318.25,0.0037
1318.00,0.0038
1317.75,0.0040
1317.50,0.0041
1317.25,0.0041
1317.00,0.0040
1316.75,0.0040
1316.50,0.0039
1316.25,0.0039
1316.00,0.0039
1315.75,0.0039
1315.50,0.0039
1315.25,0.0040
1315.00,0.0039
1314.75,0.0039
1314.50,0.0038
1314.25,0.0038
1314.00,0.0038
1313.75,0.0039
1313.50,0.0040
1313.25,0.0041
1313.00,0.0041
1312.75,0.0042
1312.50,0.0041
1312.25,0.0040
1312.00,0.0039
1311.75,0.0039
1311.50,0.0039
1311.25,0.0039
1311.00,0.0040
1310.75,0.0041
1310.50,0.0041
1310.25,0.0043
1310.00,0.0045
1309.75,0.0046
1309.50,0.0047
1309.25,0.0047
1309.00,0.0047
1308.75,0.0046
1308.50,0.0046
1308.25,0.0046
1308.00,0.0046
1307.75,0.0046
1307.50,0.0046
1307.25,0.0046
1307.00,0.0045
1306.75,0.0045
1306.50,0.0046
1306.25,0.0046
1306.00,0.0047
1305.75,0.0047
1305.50,0.0048
1305.25,0.0048
1305.00,0.0049
1304.75,0.0048
1304.50,0.0048
1304.25,0.0048
1304.00,0.0048
1303.75,0.0049
1303.50,0.0050
1303.25,0.0051
1303.00,0.0052
1302.75,0.0052
1302.50,0.0051
1302.25,0.0051
1302.00,0.0051
1301.75,0.0051
1301.50,0.0053
1301.25,0.0054
1301.00,0.0054
1300.75,0.0053
1300.50,0.0052
1300.25,0.0052
1300.00,0.0053
1299.75,0.0054
1299.50,0.0056
1299.25,0.0056
1299.00,0.0056
1298.75,0.0055
1298.50,0.0055
1298.25,0.0055
1298.00,0.0057
1297.75,0.0058
1297.50,0.0058
1297.25,0.0058
1297.00,0.0058
1296.75,0.0057
1296.50,0.0057
1296.25,0.0057
1296.00,0.0057
1295.75,0.0057
1295.50,0.0058
1295.25,0.0057
1295.00,0.0058
1294.75,0.0058
1294.50,0.0060
1294.25,0.0062
1294.00,0.0063
1293.75,0.0064
1293.50,0.0063
1293.25,0.0063
1293.00,0.0063
1292.75,0.0064
1292.50,0.0065
1292.25,0.0065
1292.00,0.0065
1291.75,0.0066
1291.50,0.0067
1291.25,0.0068
1291.00,0.0070
1290.75,0.0071
1290.50,0.0071
1290.25,0.0071
1290.00,0.0070
1289.75,0.0070
1289.50,0.0069
1289.25,0.0070
1289.00,0.0071
1288.75,0.0072
1288.50,0.0073
1288.25,0.0074
1288.00,0.0075
1287.75,0.0076
1287.50,0.0076
1287.25,0.0076
1287.00,0.0076
1286.75,0.0076
1286.50,0.0077
1286.25,0.0078
1286.00,0.0079
1285.75,0.0081
1285.50,0.0083
1285.25,0.0085
1285.00,0.0087
1284.75,0.0088
1284.50,0.0089
1284.25,0.0090
1284.00,0.0091
1283.75,0.0090
1283.50,0.0090
1283.25,0.0089
1283.00,0.0089
1282.75,0.0089
1282.50,0.0090
1282.25,0.0090
1282.00,0.0091
1281.75,0.0093
1281.50,0.0096
1281.25,0.0098
1281.00,0.0101
1280.75,0.0103
1280.50,0.0105
1280.25,0.0107
1280.00,0.0109
1279.75,0.0110
1279.50,0.0111
1279.25,0.0113
1279.00,0.0114
1278.75,0.0117
1278.50,0.0119
1278.25,0.0122
1278.00,0.0124
1277.75,0.0126
1277.50,0.0127
1277.25,0.0129
1277.00,0.0131
1276.75,0.0133
1276.50,0.0135
1276.25,0.0138
1276.00,0.0141
1275.75,0.0145
1275.50,0.0149
1275.25,0.0153
1275.00,0.0157
1274.75,0.0161
1274.50,0.0164
1274.25,0.0167
1274.00,0.0172
1273.75,0.0178
1273.50,0.0185
1273.25,0.0192
1273.00,0.0199
1272.75,0.0205
1272.50,0.0210
1272.25,0.0216
1272.00,0.0223
1271.75,0.0231
1271.50,0.0240
1271.25,0.0249
1271.00,0.0259
1270.75,0.0268
1270.50,0.0278
1270.25,0.0289
1270.00,0.0300
1269.75,0.0313
1269.50,0.0327
1269.25,0.0342
1269.00,0.0358
1268.75,0.0376
1268.50,0.0395
1268.25,0.0416
1268.00,0.0438
1267.75,0.0462
1267.50,0.0487
1267.25,0.0513
1267.00,0.0540
1266.75,0.0570
1266.50,0.0601
1266.25,0.0635
1266.00,0.0669
1265.75,0.0705
1265.50,0.0741
1265.25,0.0778
1265.00,0.0818
1264.75,0.0859
1264.50,0.0901
1264.25,0.0944
1264.00,0.0987
1263.75,0.1031
1263.50,0.1076
1263.25,0.1122
1263.00,0.1168
1262.75,0.1213
1262.50,0.1256
1262.25,0.1298
1262.00,0.1337
1261.75,0.1373
1261.50,0.1408
1261.25,0.1440
1261.00,0.1471
1260.75,0.1500
1260.50,0.1528
1260.25,0.1552
1260.00,0.1574
1259.75,0.1592
1259.50,0.1606
1259.25,0.1617
1259.00,0.1625
1258.75,0.1631
1258.50,0.1634
1258.25,0.1632
1258.00,0.1627
1257.75,0.1617
1257.50,0.1605
1257.25,0.1590
1257.00,0.1572
1256.75,0.1553
1256.50,0.1531
1256.25,0.1508
1256.00,0.1484
1255.75,0.1459
1255.50,0.1435
1255.25,0.1410
1255.00,0.1385
1254.75,0.1359
1254.50,0.1332
1254.25,0.1305
1254.00,0.1279
1253.75,0.1253
1253.50,0.1226
1253.25,0.1199
1253.00,0.1170
1252.75,0.1140
1252.50,0.1107
1252.25,0.1074
1252.00,0.1038
1251.75,0.1003
1251.50,0.0967
1251.25,0.0931
1251.00,0.0894
1250.75,0.0858
1250.50,0.0821
1250.25,0.0785
1250.00,0.0750
1249.75,0.0715
1249.50,0.0681
1249.25,0.0648
1249.00,0.0616
1248.75,0.0584
1248.50,0.0555
1248.25,0.0527
1248.00,0.0502
1247.75,0.0478
1247.50,0.0457
1247.25,0.0437
1247.00,0.0419
1246.75,0.0401
1246.50,0.0383
1246.25,0.0366
1246.00,0.0349
1245.75,0.0334
1245.50,0.0320
1245.25,0.0309
1245.00,0.0298
1244.75,0.0289
1244.50,0.0280
1244.25,0.0271
1244.00,0.0263
1243.75,0.0255
1243.50,0.0247
1243.25,0.0240
1243.00,0.0233
1242.75,0.0227
1242.50,0.0221
1242.25,0.0216
1242.00,0.0212
1241.75,0.0208
1241.50,0.0204
1241.25,0.0200
1241.00,0.0196
1240.75,0.0193
1240.50,0.0189
1240.25,0.0186
1240.00,0.0181
1239.75,0.0177
1239.50,0.0173
1239.25,0.0171
1239.00,0.0168
1238.75,0.0167
1238.50,0.0166
1238.25,0.0164
1238.00,0.0163
1237.75,0.0161
1237.50,0.0159
1237.25,0.0157
1237.00,0.0155
1236.75,0.0153
1236.50,0.0151
1236.25,0.0149
1236.00,0.0148
1235.75,0.0147
1235.50,0.0147
1235.25,0.0147
1235.00,0.0146
1234.75,0.0145
1234.50,0.0143
1234.25,0.0141
1234.00,0.0138
1233.75,0.0135
1233.50,0.0133
1233.25,0.0133
1233.00,0.0133
1232.75,0.0133
1232.50,0.0134
1232.25,0.0135
1232.00,0.0137
1231.75,0.0138
1231.50,0.0139
1231.25,0.0138
1231.00,0.0137
1230.75,0.0135
1230.50,0.0133
1230.25,0.0132
1230.00,0.0132
1229.75,0.0133
1229.50,0.0134
1229.25,0.0135
1229.00,0.0135
1228.75,0.0134
1228.50,0.0133
1228.25,0.0133
1228.00,0.0133
1227.75,0.0133
1227.50,0.0133
1227.25,0.0133
1227.00,0.0133
1226.75,0.0133
1226.50,0.0133
1226.25,0.0134
1226.00,0.0136
1225.75,0.0137
1225.50,0.0138
1225.25,0.0138
1225.00,0.0139
1224.75,0.0140
1224.50,0.0141
1224.25,0.0141
1224.00,0.0141
1223.75,0.0141
1223.50,0.0142
1223.25,0.0142
1223.00,0.0143
1222.75,0.0143
1222.50,0.0144
1222.25,0.0144
1222.00,0.0145
1221.75,0.0147
1221.50,0.0148
1221.25,0.0149
1221.00,0.0149
1220.75,0.0150
1220.50,0.0150
1220.25,0.0150
1220.00,0.0151
1219.75,0.0151
1219.50,0.0153
1219.25,0.0154
1219.00,0.0156
1218.75,0.0158
1218.50,0.0160
1218.25,0.0162
1218.00,0.0164
1217.75,0.0165
1217.50,0.0165
1217.25,0.0165
1217.00,0.0165
1216.75,0.0165
1216.50,0.0165
1216.25,0.0166
1216.00,0.0168
1215.75,0.0170
1215.50,0.0171
1215.25,0.0172
1215.00,0.0173
1214.75,0.0174
1214.50,0.0176
1214.25,0.0177
1214.00,0.0179
1213.75,0.0180
1213.50,0.0180
1213.25,0.0181
1213.00,0.0181
1212.75,0.0182
1212.50,0.0183
1212.25,0.0185
1212.00,0.0187
1211.75,0.0190
1211.50,0.0192
1211.25,0.0194
1211.00,0.0195
1210.75,0.0196
1210.50,0.0196
1210.25,0.0197
1210.00,0.0198
1209.75,0.0199
1209.50,0.0200
1209.25,0.0202
1209.00,0.0204
1208.75,0.0206
1208.50,0.0207
1208.25,0.0208
1208.00,0.0207
1207.75,0.0206
1207.50,0.0206
1207.25,0.0207
1207.00,0.0209
1206.75,0.0211
1206.50,0.0214
1206.25,0.0215
1206.00,0.0216
1205.75,0.0216
1205.50,0.0216
1205.25,0.0218
1205.00,0.0220
1204.75,0.0221
1204.50,0.0223
1204.25,0.0224
1204.00,0.0226
1203.75,0.0228
1203.50,0.0230
1203.25,0.0232
1203.00,0.0234
1202.75,0.0234
1202.50,0.0235
1202.25,0.0236
1202.00,0.0236
1201.75,0.0237
1201.50,0.0238
1201.25,0.0239
1201.00,0.0239
1200.75,0.0239
1200.50,0.0239
1200.25,0.0239
1200.00,0.0240
1199.75,0.0241
1199.50,0.0243
1199.25,0.0244
1199.00,0.0245
1198.75,0.0246
1198.50,0.0247
1198.25,0.0249
1198.00,0.0250
1197.75,0.0251
1197.50,0.0251
1197.25,0.0251
1197.00,0.0252
1196.75,0.0253
1196.50,0.0255
1196.25,0.0257
1196.00,0.0259
1195.75,0.0260
1195.50,0.0260
1195.25,0.0260
1195.00,0.0259
1194.75,0.0259
1194.50,0.0259
1194.25,0.0260
1194.00,0.0260
1193.75,0.0260
1193.50,0.0260
1193.25,0.0260
1193.00,0.0261
1192.75,0.0262
1192.50,0.0264
1192.25,0.0266
1192.00,0.0267
1191.75,0.0268
1191.50,0.0268
1191.25,0.0268
1191.00,0.0268
1190.75,0.0268
1190.50,0.0268
1190.25,0.0268
1190.00,0.0268
1189.75,0.0269
1189.50,0.0269
1189.25,0.0270
1189.00,0.0271
1188.75,0.0271
1188.50,0.0271
1188.25,0.0271
1188.00,0.0271
1187.75,0.0272
1187.50,0.0274
1187.25,0.0275
1187.00,0.0276
1186.75,0.0276
1186.50,0.0275
1186.25,0.0275
1186.00,0.0275
1185.75,0.0276
1185.50,0.0278
1185.25,0.0279
1185.00,0.0280
1184.75,0.0280
1184.50,0.0280
1184.25,0.0280
1184.00,0.0280
1183.75,0.0279
1183.50,0.0279
1183.25,0.0279
1183.00,0.0279
1182.75,0.0280
1182.50,0.0280
1182.25,0.0280
1182.00,0.0279
1181.75,0.0280
1181.50,0.0280
1181.25,0.0281
1181.00,0.0281
1180.75,0.0281
1180.50,0.0281
1180.25,0.0281
1180.00,0.0281
1179.75,0.0281
1179.50,0.0282
1179.25,0.0282
1179.00,0.0282
1178.75,0.0281
1178.50,0.0281
1178.25,0.0282
1178.00,0.0283
1177.75,0.0284
1177.50,0.0284
1177.25,0.0284
1177.00,0.0284
1176.75,0.0286
1176.50,0.0288
1176.25,0.0290
1176.00,0.0291
1175.75,0.0292
1175.50,0.0291
1175.25,0.0290
1175.00,0.0288
1174.75,0.0287
1174.50,0.0286
1174.25,0.0287
1174.00,0.0289
1173.75,0.0289
1173.50,0.0289
1173.25,0.0289
1173.00,0.0289
1172.75,0.0290
1172.50,0.0291
1172.25,0.0291
1172.00,0.0291
1171.75,0.0291
1171.50,0.0290
1171.25,0.0291
1171.00,0.0291
1170.75,0.0293
1170.50,0.0294
1170.25,0.0295
1170.00,0.0296
1169.75,0.0296
1169.50,0.0296
1169.25,0.0295
1169.00,0.0294
1168.75,0.0293
1168.50,0.0293
1168.25,0.0293
1168.00,0.0294
1167.75,0.0295
1167.50,0.0295
1167.25,0.0296
1167.00,0.0296
1166.75,0.0297
1166.50,0.0297
1166.25,0.0298
1166.00,0.0299
1165.75,0.0301
1165.50,0.0302
1165.25,0.0303
1165.00,0.0303
1164.75,0.0303
1164.50,0.0302
1164.25,0.0301
1164.00,0.0300
1163.75,0.0300
1163.50,0.0299
1163.25,0.0299
1163.00,0.0299
1162.75,0.0299
1162.50,0.0300
1162.25,0.0301
1162.00,0.0302
1161.75,0.0303
1161.50,0.0303
1161.25,0.0304
1161.00,0.0304
1160.75,0.0304
1160.50,0.0304
1160.25,0.0305
1160.00,0.0305
1159.75,0.0305
1159.50,0.0305
1159.25,0.0305
1159.00,0.0306
1158.75,0.0307
1158.50,0.0308
1158.25,0.0309
1158.00,0.0309
1157.75,0.0310
1157.50,0.0310
1157.25,0.0311
1157.00,0.0312
1156.75,0.0313
1156.50,0.0314
1156.25,0.0315
1156.00,0.0316
1155.75,0.0317
1155.50,0.0318
1155.25,0.0318
1155.00,0.0318
1154.75,0.0319
1154.50,0.0320
1154.25,0.0322
1154.00,0.0324
1153.75,0.0325
1153.50,0.0325
1153.25,0.0323
1153.00,0.0322
1152.75,0.0320
1152.50,0.0320
1152.25,0.0320
1152.00,0.0322
1151.75,0.0325
1151.50,0.0328
1151.25,0.0330
1151.00,0.0331
1150.75,0.0332
1150.50,0.0334
1150.25,0.0335
1150.00,0.0336
1149.75,0.0336
1149.50,0.0336
1149.25,0.0336
1149.00,0.0336
1148.75,0.0337
1148.50,0.0338
1148.25,0.0339
1148.00,0.0340
1147.75,0.0341
1147.50,0.0341
1147.25,0.0342
1147.00,0.0342
1146.75,0.0343
1146.50,0.0345
1146.25,0.0347
1146.00,0.0350
1145.75,0.0353
1145.50,0.0355
1145.25,0.0357
1145.00,0.0358
1144.75,0.0358
1144.50,0.0358
1144.25,0.0358
1144.00,0.0360
1143.75,0.0363
1143.50,0.0366
1143.25,0.0368
1143.00,0.0370
1142.75,0.0371
1142.50,0.0372
1142.25,0.0373
1142.00,0.0373
1141.75,0.0373
1141.50,0.0374
1141.25,0.0374
1141.00,0.0375
1140.75,0.0378
1140.50,0.0381
1140.25,0.0384
1140.00,0.0386
1139.75,0.0389
1139.50,0.0390
1139.25,0.0393
1139.00,0.0396
1138.75,0.0400
1138.50,0.0403
1138.25,0.0405
1138.00,0.0406
1137.75,0.0407
1137.50,0.0408
1137.25,0.0409
1137.00,0.0412
1136.75,0.0415
1136.50,0.0417
1136.25,0.0419
1136.00,0.0420
1135.75,0.0421
1135.50,0.0422
1135.25,0.0424
1135.00,0.0427
1134.75,0.0431
1134.50,0.0434
1134.25,0.0437
1134.00,0.0439
1133.75,0.0441
1133.50,0.0444
1133.25,0.0446
1133.00,0.0449
1132.75,0.0450
1132.50,0.0452
1132.25,0.0454
1132.00,0.0457
1131.75,0.0460
1131.50,0.0464
1131.25,0.0468
1131.00,0.0472
1130.75,0.0476
1130.50,0.0480
1130.25,0.0482
1130.00,0.0484
1129.75,0.0486
1129.50,0.0487
1129.25,0.0489
1129.00,0.0491
1128.75,0.0494
1128.50,0.0498
1128.25,0.0502
1128.00,0.0505
1127.75,0.0509
1127.50,0.0512
1127.25,0.0516
1127.00,0.0521
1126.75,0.0526
1126.50,0.0531
1126.25,0.0536
1126.00,0.0541
1125.75,0.0546
1125.50,0.0552
1125.25,0.0556
1125.00,0.0561
1124.75,0.0565
1124.50,0.0570
1124.25,0.0576
1124.00,0.0581
1123.75,0.0586
1123.50,0.0591
1123.25,0.0595
1123.00,0.0600
1122.75,0.0605
1122.50,0.0611
1122.25,0.0616
1122.00,0.0622
1121.75,0.0627
1121.50,0.0632
1121.25,0.0637
1121.00,0.0643
1120.75,0.0649
1120.50,0.0656
1120.25,0.0663
1120.00,0.0670
1119.75,0.0676
1119.50,0.0681
1119.25,0.0686
1119.00,0.0690
1118.75,0.0695
1118.50,0.0701
1118.25,0.0709
1118.00,0.0717
1117.75,0.0727
1117.50,0.0737
1117.25,0.0746
1117.00,0.0755
1116.75,0.0762
1116.50,0.0768
1116.25,0.0775
1116.00,0.0781
1115.75,0.0789
1115.50,0.0797
1115.25,0.0806
1115.00,0.0814
1114.75,0.0823
1114.50,0.0832
1114.25,0.0841
1114.00,0.0850
1113.75,0.0861
1113.50,0.0872
1113.25,0.0884
1113.00,0.0895
1112.75,0.0905
1112.50,0.0912
1112.25,0.0918
1112.00,0.0924
1111.75,0.0931
1111.50,0.0941
1111.25,0.0953
1111.00,0.0967
1110.75,0.0980
1110.50,0.0992
1110.25,0.1003
1110.00,0.1013
1109.75,0.1022
1109.50,0.1030
1109.25,0.1038
1109.00,0.1047
1108.75,0.1058
1108.50,0.1071
1108.25,0.1085
1108.00,0.1098
1107.75,0.1111
1107.50,0.1122
1107.25,0.1132
1107.00,0.1142
1106.75,0.1153
1106.50,0.1166
1106.25,0.1181
1106.00,0.1195
1105.75,0.1208
1105.50,0.1221
1105.25,0.1233
1105.00,0.1244
1104.75,0.1255
1104.50,0.1265
1104.25,0.1277
1104.00,0.1289
1103.75,0.1303
1103.50,0.1318
1103.25,0.1333
1103.00,0.1347
1102.75,0.1360
1102.50,0.1373
1102.25,0.1385
1102.00,0.1398
1101.75,0.1410
1101.50,0.1424
1101.25,0.1438
1101.00,0.1453
1100.75,0.1469
1100.50,0.1484
1100.25,0.1501
1100.00,0.1517
1099.75,0.1531
1099.50,0.1543
1099.25,0.1554
1099.00,0.1564
1098.75,0.1578
1098.50,0.1594
1098.25,0.1611
1098.00,0.1627
1097.75,0.1641
1097.50,0.1653
1097.25,0.1666
1097.00,0.1680
1096.75,0.1695
1096.50,0.1710
1096.25,0.1725
1096.00,0.1739
1095.75,0.1753
1095.50,0.1768
1095.25,0.1784
1095.00,0.1801
1094.75,0.1819
1094.50,0.1836
1094.25,0.1852
1094.00,0.1866
1093.75,0.1879
1093.50,0.1893
1093.25,0.1907
1093.00,0.1921
1092.75,0.1934
1092.50,0.1946
1092.25,0.1958
1092.00,0.1969
1091.75,0.1982
1091.50,0.1996
1091.25,0.2011
1091.00,0.2028
1090.75,0.2044
1090.50,0.2061
1090.25,0.2077
1090.00,0.2094
1089.75,0.2109
1089.50,0.2123
1089.25,0.2135
1089.00,0.2146
1088.75,0.2157
1088.50,0.2167
1088.25,0.2178
1088.00,0.2189
1087.75,0.2203
1087.50,0.2217
1087.25,0.2232
1087.00,0.2247
1086.75,0.2262
1086.50,0.2277
1086.25,0.2290
1086.00,0.2302
1085.75,0.2314
1085.50,0.2324
1085.25,0.2335
1085.00,0.2346
1084.75,0.2356
1084.50,0.2364
1084.25,0.2372
1084.00,0.2380
1083.75,0.2389
1083.50,0.2399
1083.25,0.2412
1083.00,0.2425
1082.75,0.2438
1082.50,0.2450
1082.25,0.2459
1082.00,0.2468
1081.75,0.2477
1081.50,0.2486
1081.25,0.2494
1081.00,0.2501
1080.75,0.2506
1080.50,0.2511
1080.25,0.2517
1080.00,0.2526
1079.75,0.2536
1079.50,0.2546
1079.25,0.2556
1079.00,0.2563
1078.75,0.2570
1078.50,0.2576
1078.25,0.2582
1078.00,0.2588
1077.75,0.2594
1077.50,0.2600
1077.25,0.2606
1077.00,0.2612
1076.75,0.2618
1076.50,0.2625
1076.25,0.2631
1076.00,0.2637
1075.75,0.2643
1075.50,0.2648
1075.25,0.2652
1075.00,0.2657
1074.75,0.2662
1074.50,0.2667
1074.25,0.2672
1074.00,0.2677
1073.75,0.2681
1073.50,0.2685
1073.25,0.2688
1073.00,0.2691
1072.75,0.2693
1072.50,0.2695
1072.25,0.2698
1072.00,0.2701
1071.75,0.2705
1071.50,0.2708
1071.25,0.2710
1071.00,0.2711
1070.75,0.2713
1070.50,0.2716
1070.25,0.2721
1070.00,0.2727
1069.75,0.2732
1069.50,0.2735
1069.25,0.2738
1069.00,0.2740
1068.75,0.2742
1068.50,0.2744
1068.25,0.2747
1068.00,0.2749
1067.75,0.2752
1067.50,0.2754
1067.25,0.2757
1067.00,0.2759
1066.75,0.2761
1066.50,0.2762
1066.25,0.2763
1066.00,0.2764
1065.75,0.2765
1065.50,0.2767
1065.25,0.2769
1065.00,0.2772
1064.75,0.2774
1064.50,0.2774
1064.25,0.2773
1064.00,0.2770
1063.75,0.2768
1063.50,0.2767
1063.25,0.2769
1063.00,0.2772
1062.75,0.2775
1062.50,0.2776
1062.25,0.2776
1062.00,0.2775
1061.75,0.2773
1061.50,0.2773
1061.25,0.2774
1061.00,0.2776
1060.75,0.2779
1060.50,0.2781
1060.25,0.2784
1060.00,0.2785
1059.75,0.2784
1059.50,0.2782
1059.25,0.2778
1059.00,0.2776
1058.75,0.2775
1058.50,0.2776
1058.25,0.2777
1058.00,0.2777
1057.75,0.2774
1057.50,0.2770
1057.25,0.2766
1057.00,0.2761
1056.75,0.2757
1056.50,0.2754
1056.25,0.2753
1056.00,0.2753
1055.75,0.2756
1055.50,0.2759
1055.25,0.2762
1055.00,0.2763
1054.75,0.2762
1054.50,0.2759
1054.25,0.2754
1054.00,0.2749
1053.75,0.2747
1053.50,0.2746
1053.25,0.2744
1053.00,0.2740
1052.75,0.2735
1052.50,0.2730
1052.25,0.2726
1052.00,0.2723
1051.75,0.2720
1051.50,0.2715
1051.25,0.2709
1051.00,0.2704
1050.75,0.2700
1050.50,0.2699
1050.25,0.2699
1050.00,0.2699
1049.75,0.2698
1049.50,0.2695
1049.25,0.2692
1049.00,0.2690
1048.75,0.2689
1048.50,0.2687
1048.25,0.2683
1048.00,0.2678
1047.75,0.2674
1047.50,0.2672
1047.25,0.2671
1047.00,0.2671
1046.75,0.2670
1046.50,0.2669
1046.25,0.2667
1046.00,0.2666
1045.75,0.2664
1045.50,0.2664
1045.25,0.2664
1045.00,0.2665
1044.75,0.2664
1044.50,0.2662
1044.25,0.2657
1044.00,0.2653
1043.75,0.2650
1043.50,0.2647
1043.25,0.2645
1043.00,0.2643
1042.75,0.2643
1042.50,0.2644
1042.25,0.2646
1042.00,0.2648
1041.75,0.2650
1041.50,0.2652
1041.25,0.2654
1041.00,0.2656
1040.75,0.2657
1040.50,0.2657
1040.25,0.2656
1040.00,0.2656
1039.75,0.2657
1039.50,0.2658
1039.25,0.2659
1039.00,0.2660
1038.75,0.2662
1038.50,0.2663
1038.25,0.2664
1038.00,0.2665
1037.75,0.2666
1037.50,0.2667
1037.25,0.2668
1037.00,0.2670
1036.75,0.2673
1036.50,0.2676
1036.25,0.2679
1036.00,0.2683
1035.75,0.2687
1035.50,0.2692
1035.25,0.2698
1035.00,0.2704
1034.75,0.2709
1034.50,0.2711
1034.25,0.2712
1034.00,0.2714
1033.75,0.2718
1033.50,0.2725
1033.25,0.2734
1033.00,0.2743
1032.75,0.2751
1032.50,0.2758
1032.25,0.2762
1032.00,0.2764
1031.75,0.2767
1031.50,0.2772
1031.25,0.2780
1031.00,0.2790
1030.75,0.2800
1030.50,0.2810
1030.25,0.2819
1030.00,0.2828
1029.75,0.2837
1029.50,0.2846
1029.25,0.2854
1029.00,0.2862
1028.75,0.2870
1028.50,0.2878
1028.25,0.2886
1028.00,0.2895
1027.75,0.2905
1027.50,0.2914
1027.25,0.2924
1027.00,0.2934
1026.75,0.2944
1026.50,0.2954
1026.25,0.2963
1026.00,0.2974
1025.75,0.2986
1025.50,0.3000
1025.25,0.3015
1025.00,0.3030
1024.75,0.3042
1024.50,0.3052
1024.25,0.3061
1024.00,0.3070
1023.75,0.3083
1023.50,0.3098
1023.25,0.3115
1023.00,0.3132
1022.75,0.3147
1022.50,0.3160
1022.25,0.3172
1022.00,0.3185
1021.75,0.3200
1021.50,0.3215
1021.25,0.3232
1021.00,0.3249
1020.75,0.3265
1020.50,0.3282
1020.25,0.3298
1020.00,0.3315
1019.75,0.3332
1019.50,0.3348
1019.25,0.3365
1019.00,0.3382
1018.75,0.3400
1018.50,0.3419
1018.25,0.3436
1018.00,0.3452
1017.75,0.3464
1017.50,0.3476
1017.25,0.3487
1017.00,0.3500
1016.75,0.3515
1016.50,0.3530
1016.25,0.3546
1016.00,0.3563
1015.75,0.3580
1015.50,0.3595
1015.25,0.3609
1015.00,0.3619
1014.75,0.3626
1014.50,0.3632
1014.25,0.3636
1014.00,0.3642
1013.75,0.3648
1013.50,0.3654
1013.25,0.3657
1013.00,0.3658
1012.75,0.3655
1012.50,0.3650
1012.25,0.3644
1012.00,0.3637
1011.75,0.3629
1011.50,0.3620
1011.25,0.3607
1011.00,0.3591
1010.75,0.3573
1010.50,0.3552
1010.25,0.3530
1010.00,0.3508
1009.75,0.3483
1009.50,0.3456
1009.25,0.3426
1009.00,0.3394
1008.75,0.3361
1008.50,0.3327
1008.25,0.3291
1008.00,0.3252
1007.75,0.3211
1007.50,0.3166
1007.25,0.3121
1007.00,0.3075
1006.75,0.3030
1006.50,0.2985
1006.25,0.2940
1006.00,0.2894
1005.75,0.2845
1005.50,0.2795
1005.25,0.2744
1005.00,0.2693
1004.75,0.2643
1004.50,0.2593
1004.25,0.2544
1004.00,0.2495
1003.75,0.2447
1003.50,0.2397
1003.25,0.2346
1003.00,0.2294
1002.75,0.2244
1002.50,0.2194
1002.25,0.2146
1002.00,0.2099
1001.75,0.2052
1001.50,0.2006
1001.25,0.1960
1001.00,0.1917
1000.75,0.1875
1000.50,0.1835
1000.25,0.1795
1000.00,0.1754
999.75,0.1711
999.50,0.1669
999.25,0.1627
999.00,0.1588
998.75,0.1553
998.50,0.1519
998.25,0.1487
998.00,0.1455
997.75,0.1423
997.50,0.1391
997.25,0.1361
997.00,0.1331
996.75,0.1303
996.50,0.1276
996.25,0.1250
996.00,0.1223
995.75,0.1195
995.50,0.1167
995.25,0.1140
995.00,0.1114
994.75,0.1090
994.50,0.1067
994.25,0.1046
994.00,0.1026
993.75,0.1007
993.50,0.0988
993.25,0.0970
993.00,0.0952
992.75,0.0935
992.50,0.0916
992.25,0.0897
992.00,0.0878
991.75,0.0858
991.50,0.0840
991.25,0.0823
991.00,0.0808
990.75,0.0794
990.50,0.0781
990.25,0.0768
990.00,0.0755
989.75,0.0742
989.50,0.0728
989.25,0.0714
989.00,0.0701
988.75,0.0688
988.50,0.0675
988.25,0.0664
988.00,0.0654
987.75,0.0644
987.50,0.0634
987.25,0.0623
987.00,0.0612
986.75,0.0601
986.50,0.0590
986.25,0.0580
986.00,0.0570
985.75,0.0561
985.50,0.0552
985.25,0.0543
985.00,0.0535
984.75,0.0527
984.50,0.0521
984.25,0.0514
984.00,0.0508
983.75,0.0501
983.50,0.0494
983.25,0.0487
983.00,0.0479
982.75,0.0472
982.50,0.0463
982.25,0.0455
982.00,0.0447
981.75,0.0441
981.50,0.0436
981.25,0.0432
981.00,0.0428
980.75,0.0425
980.50,0.0421
980.25,0.0417
980.00,0.0411
979.75,0.0404
979.50,0.0397
979.25,0.0389
979.00,0.0383
978.75,0.0378
978.50,0.0374
978.25,0.0371
978.00,0.0367
977.75,0.0363
977.50,0.0358
977.25,0.0352
977.00,0.0346
976.75,0.0340
976.50,0.0336
976.25,0.0333
976.00,0.0331
975.75,0.0327
975.50,0.0323
975.25,0.0319
975.00,0.0316
974.75,0.0314
974.50,0.0313
974.25,0.0312
974.00,0.0311
973.75,0.0308
973.50,0.0304
973.25,0.0299
973.00,0.0294
972.75,0.0291
972.50,0.0287
972.25,0.0285
972.00,0.0283
971.75,0.0282
971.50,0.0282
971.25,0.0283
971.00,0.0283
970.75,0.0281
970.50,0.0278
970.25,0.0274
970.00,0.0270
969.75,0.0268
969.50,0.0266
969.25,0.0264
969.00,0.0261
968.75,0.0257
968.50,0.0253
968.25,0.0251
968.00,0.0249
967.75,0.0249
967.50,0.0251
967.25,0.0252
967.00,0.0251
966.75,0.0248
966.50,0.0244
966.25,0.0240
966.00,0.0237
965.75,0.0236
965.50,0.0236
965.25,0.0237
965.00,0.0237
964.75,0.0235
964.50,0.0234
964.25,0.0232
964.00,0.0230
963.75,0.0229
963.50,0.0228
963.25,0.0226
963.00,0.0225
962.75,0.0223
962.50,0.0223
962.25,0.0222
962.00,0.0222
961.75,0.0221
961.50,0.0221
961.25,0.0220
961.00,0.0219
960.75,0.0218
960.50,0.0218
960.25,0.0218
960.00,0.0218
959.75,0.0219
959.50,0.0218
959.25,0.0217
959.00,0.0215
958.75,0.0214
958.50,0.0213
958.25,0.0212
958.00,0.0211
957.75,0.0210
957.50,0.0208
957.25,0.0206
957.00,0.0206
956.75,0.0206
956.50,0.0208
956.25,0.0210
956.00,0.0211
955.75,0.0210
955.50,0.0208
955.25,0.0206
955.00,0.0206
954.75,0.0205
954.50,0.0204
954.25,0.0201
954.00,0.0197
953.75,0.0194
953.50,0.0193
953.25,0.0192
953.00,0.0192
952.75,0.0191
952.50,0.0190
952.25,0.0189
952.00,0.0187
951.75,0.0185
951.50,0.0182
951.25,0.0178
951.00,0.0174
950.75,0.0170
950.50,0.0168
950.25,0.0168
950.00,0.0169
949.75,0.0170
949.50,0.0171
949.25,0.0170
949.00,0.0169
948.75,0.0168
948.50,0.0167
948.25,0.0166
948.00,0.0165
947.75,0.0164
947.50,0.0162
947.25,0.0161
947.00,0.0160
946.75,0.0161
946.50,0.0161
946.25,0.0162
946.00,0.0161
945.75,0.0160
945.50,0.0158
945.25,0.0156
945.00,0.0153
944.75,0.0151
944.50,0.0149
944.25,0.0147
944.00,0.0146
943.75,0.0145
943.50,0.0145
943.25,0.0146
943.00,0.0148
942.75,0.0151
942.50,0.0153
942.25,0.0155
942.00,0.0155
941.75,0.0153
941.50,0.0152
941.25,0.0151
941.00,0.0150
940.75,0.0149
940.50,0.0149
940.25,0.0148
940.00,0.0146
939.75,0.0145
939.50,0.0144
939.25,0.0144
939.00,0.0146
938.75,0.0147
938.50,0.0148
938.25,0.0147
938.00,0.0146
937.75,0.0145
937.50,0.0146
937.25,0.0148
937.00,0.0149
936.75,0.0150
936.50,0.0149
936.25,0.0148
936.00,0.0147
935.75,0.0147
935.50,0.0147
935.25,0.0148
935.00,0.0148
934.75,0.0148
934.50,0.0149
934.25,0.0151
934.00,0.0153
933.75,0.0154
933.50,0.0154
933.25,0.0154
933.00,0.0154
932.75,0.0154
932.50,0.0154
932.25,0.0155
932.00,0.0156
931.75,0.0157
931.50,0.0159
931.25,0.0161
931.00,0.0162
930.75,0.0163
930.50,0.0164
930.25,0.0164
930.00,0.0164
929.75,0.0165
929.50,0.0167
929.25,0.0168
929.00,0.0169
928.75,0.0168
928.50,0.0167
928.25,0.0167
928.00,0.0168
927.75,0.0171
927.50,0.0174
927.25,0.0177
927.00,0.0179
926.75,0.0179
926.50,0.0178
926.25,0.0177
926.00,0.0178
925.75,0.0180
925.50,0.0183
925.25,0.0187
925.00,0.0189
924.75,0.0191
924.50,0.0192
924.25,0.0191
924.00,0.0190
923.75,0.0187
923.50,0.0185
923.25,0.0184
923.00,0.0185
922.75,0.0186
922.50,0.0189
922.25,0.0191
922.00,0.0193
921.75,0.0195
921.50,0.0198
921.25,0.0203
921.00,0.0207
920.75,0.0211
920.50,0.0213
920.25,0.0215
920.00,0.0216
919.75,0.0218
919.50,0.0220
919.25,0.0222
919.00,0.0223
918.75,0.0224
918.50,0.0226
918.25,0.0229
918.00,0.0233
917.75,0.0237
917.50,0.0242
917.25,0.0246
917.00,0.0250
916.75,0.0253
916.50,0.0256
916.25,0.0258
916.00,0.0260
915.75,0.0260
915.50,0.0260
915.25,0.0259
915.00,0.0258
914.75,0.0258
914.50,0.0259
914.25,0.0261
914.00,0.0264
913.75,0.0268
913.50,0.0271
913.25,0.0275
913.00,0.0277
912.75,0.0278
912.50,0.0278
912.25,0.0279
912.00,0.0280
911.75,0.0280
911.50,0.0279
911.25,0.0276
911.00,0.0273
910.75,0.0270
910.50,0.0269
910.25,0.0269
910.00,0.0269
909.75,0.0270
909.50,0.0270
909.25,0.0269
909.00,0.0266
908.75,0.0263
908.50,0.0261
908.25,0.0259
908.00,0.0258
907.75,0.0257
907.50,0.0255
907.25,0.0254
907.00,0.0254
906.75,0.0254
906.50,0.0254
906.25,0.0253
906.00,0.0251
905.75,0.0248
905.50,0.0246
905.25,0.0245
905.00,0.0244
904.75,0.0244
904.50,0.0244
904.25,0.0243
904.00,0.0243
903.75,0.0242
903.50,0.0243
903.25,0.0244
903.00,0.0246
902.75,0.0247
902.50,0.0248
902.25,0.0248
902.00,0.0247
901.75,0.0247
901.50,0.0247
901.25,0.0248
901.00,0.0249
900.75,0.0250
900.50,0.0251
900.25,0.0252
900.00,0.0252
899.75,0.0253
899.50,0.0254
899.25,0.0256
899.00,0.0257
898.75,0.0258
898.50,0.0260
898.25,0.0262
898.00,0.0265
897.75,0.0269
897.50,0.0273
897.25,0.0275
897.00,0.0276
896.75,0.0276
896.50,0.0277
896.25,0.0278
896.00,0.0279
895.75,0.0280
895.50,0.0281
895.25,0.0283
895.00,0.0288
894.75,0.0293
894.50,0.0298
894.25,0.0302
894.00,0.0304
893.75,0.0306
893.50,0.0308
893.25,0.0310
893.00,0.0311
892.75,0.0310
892.50,0.0310
892.25,0.0310
892.00,0.0312
891.75,0.0316
891.50,0.0320
891.25,0.0324
891.00,0.0327
890.75,0.0330
890.50,0.0331
890.25,0.0332
890.00,0.0330
889.75,0.0329
889.50,0.0329
889.25,0.0332
889.00,0.0339
888.75,0.0349
888.50,0.0358
888.25,0.0364
888.00,0.0366
887.75,0.0366
887.50,0.0366
887.25,0.0369
887.00,0.0374
886.75,0.0380
886.50,0.0385
886.25,0.0390
886.00,0.0395
885.75,0.0399
885.50,0.0403
885.25,0.0407
885.00,0.0411
884.75,0.0415
884.50,0.0420
884.25,0.0426
884.00,0.0433
883.75,0.0440
883.50,0.0446
883.25,0.0452
883.00,0.0456
882.75,0.0459
882.50,0.0463
882.25,0.0469
882.00,0.0478
881.75,0.0485
881.50,0.0491
881.25,0.0495
881.00,0.0498
880.75,0.0503
880.50,0.0511
880.25,0.0520
880.00,0.0530
879.75,0.0539
879.50,0.0546
879.25,0.0552
879.00,0.0559
878.75,0.0565
878.50,0.0572
878.25,0.0579
878.00,0.0587
877.75,0.0595
877.50,0.0604
877.25,0.0612
877.00,0.0620
876.75,0.0629
876.50,0.0638
876.25,0.0646
876.00,0.0654
875.75,0.0662
875.50,0.0671
875.25,0.0681
875.00,0.0691
874.75,0.0701
874.50,0.0711
874.25,0.0721
874.00,0.0732
873.75,0.0745
873.50,0.0759
873.25,0.0773
873.00,0.0787
872.75,0.0799
872.50,0.0810
872.25,0.0820
872.00,0.0830
871.75,0.0841
871.50,0.0854
871.25,0.0869
871.00,0.0885
870.75,0.0901
870.50,0.0916
870.25,0.0930
870.00,0.0942
869.75,0.0953
869.50,0.0963
869.25,0.0973
869.00,0.0983
868.75,0.0992
868.50,0.1001
868.25,0.1011
868.00,0.1022
867.75,0.1033
867.50,0.1042
867.25,0.1049
867.00,0.1054
866.75,0.1058
866.50,0.1062
866.25,0.1066
866.00,0.1071
865.75,0.1076
865.50,0.1082
865.25,0.1087
865.00,0.1090
864.75,0.1091
864.50,0.1092
864.25,0.1091
864.00,0.1091
863.75,0.1091
863.50,0.1089
863.25,0.1089
863.00,0.1089
862.75,0.1089
862.50,0.1090
862.25,0.1089
862.00,0.1085
861.75,0.1079
861.50,0.1071
861.25,0.1063
861.00,0.1056
860.75,0.1051
860.50,0.1047
860.25,0.1044
860.00,0.1039
859.75,0.1033
859.50,0.1025
859.25,0.1017
859.00,0.1011
858.75,0.1008
858.50,0.1008
858.25,0.1009
858.00,0.1009
857.75,0.1007
857.50,0.1003
857.25,0.1000
857.00,0.0997
856.75,0.0994
856.50,0.0992
856.25,0.0989
856.00,0.0988
855.75,0.0990
855.50,0.0995
855.25,0.1002
855.00,0.1007
854.75,0.1010
854.50,0.1012
854.25,0.1013
854.00,0.1014
853.75,0.1016
853.50,0.1020
853.25,0.1025
853.00,0.1033
852.75,0.1041
852.50,0.1049
852.25,0.1056
852.00,0.1064
851.75,0.1075
851.50,0.1088
851.25,0.1101
851.00,0.1113
850.75,0.1122
850.50,0.1130
850.25,0.1137
850.00,0.1148
849.75,0.1161
849.50,0.1176
849.25,0.1191
849.00,0.1205
848.75,0.1218
848.50,0.1229
848.25,0.1238
848.00,0.1247
847.75,0.1259
847.50,0.1273
847.25,0.1288
847.00,0.1303
846.75,0.1313
846.50,0.1320
846.25,0.1325
846.00,0.1331
845.75,0.1339
845.50,0.1350
845.25,0.1362
845.00,0.1371
844.75,0.1377
844.50,0.1381
844.25,0.1384
844.00,0.1390
843.75,0.1396
843.50,0.1401
843.25,0.1404
843.00,0.1402
842.75,0.1397
842.50,0.1391
842.25,0.1386
842.00,0.1382
841.75,0.1379
841.50,0.1377
841.25,0.1372
841.00,0.1365
840.75,0.1356
840.50,0.1346
840.25,0.1335
840.00,0.1326
839.75,0.1317
839.50,0.1308
839.25,0.1298
839.00,0.1287
838.75,0.1275
838.50,0.1263
838.25,0.1251
838.00,0.1239
837.75,0.1226
837.50,0.1212
837.25,0.1196
837.00,0.1181
836.75,0.1170
836.50,0.1163
836.25,0.1160
836.00,0.1158
835.75,0.1151
835.50,0.1139
835.25,0.1123
835.00,0.1108
834.75,0.1098
834.50,0.1093
834.25,0.1090
834.00,0.1086
833.75,0.1079
833.50,0.1072
833.25,0.1064
833.00,0.1059
832.75,0.1057
832.50,0.1056
832.25,0.1054
832.00,0.1051
831.75,0.1048
831.50,0.1046
831.25,0.1045
831.00,0.1046
830.75,0.1047
830.50,0.1049
830.25,0.1052
830.00,0.1056
829.75,0.1061
829.50,0.1065
829.25,0.1069
829.00,0.1073
828.75,0.1078
828.50,0.1084
828.25,0.1091
828.00,0.1099
827.75,0.1109
827.50,0.1123
827.25,0.1138
827.00,0.1152
826.75,0.1165
826.50,0.1178
826.25,0.1192
826.00,0.1208
825.75,0.1225
825.50,0.1240
825.25,0.1254
825.00,0.1267
824.75,0.1282
824.50,0.1300
824.25,0.1321
824.00,0.1346
823.75,0.1372
823.50,0.1398
823.25,0.1422
823.00,0.1443
822.75,0.1463
822.50,0.1483
822.25,0.1505
822.00,0.1529
821.75,0.1552
821.50,0.1575
821.25,0.1595
821.00,0.1614
820.75,0.1634
820.50,0.1653
820.25,0.1672
820.00,0.1688
819.75,0.1701
819.50,0.1715
819.25,0.1730
819.00,0.1748
818.75,0.1767
818.50,0.1783
818.25,0.1795
818.00,0.1805
817.75,0.1814
817.50,0.1826
817.25,0.1840
817.00,0.1855
816.75,0.1869
816.50,0.1882
816.25,0.1893
816.00,0.1905
815.75,0.1917
815.50,0.1930
815.25,0.1942
815.00,0.1954
814.75,0.1963
814.50,0.1972
814.25,0.1982
814.00,0.1993
813.75,0.2006
813.50,0.2018
813.25,0.2031
813.00,0.2043
812.75,0.2058
812.50,0.2076
812.25,0.2097
812.00,0.2120
811.75,0.2141
811.50,0.2159
811.25,0.2175
811.00,0.2191
810.75,0.2211
810.50,0.2233
810.25,0.2257
810.00,0.2283
809.75,0.2310
809.50,0.2337
809.25,0.2365
809.00,0.2392
808.75,0.2418
808.50,0.2443
808.25,0.2471
808.00,0.2501
807.75,0.2535
807.50,0.2570
807.25,0.2603
807.00,0.2634
806.75,0.2664
806.50,0.2694
806.25,0.2728
806.00,0.2763
805.75,0.2800
805.50,0.2835
805.25,0.2871
805.00,0.2906
804.75,0.2943
804.50,0.2982
804.25,0.3022
804.00,0.3066
803.75,0.3111
803.50,0.3158
803.25,0.3204
803.00,0.3248
802.75,0.3288
802.50,0.3324
802.25,0.3361
802.00,0.3404
801.75,0.3454
801.50,0.3509
801.25,0.3563
801.00,0.3613
800.75,0.3656
800.50,0.3696
800.25,0.3736
800.00,0.3779
