Created as New Dataset,Sample 027 By irlear Date Wednesday, December 31 2008
cm-1,A
4000.00,0.0048
3999.75,0.0048
3999.50,0.0047
3999.25,0.0045
3999.00,0.0044
3998.75,0.0042
3998.50,0.0040
3998.25,0.0040
3998.00,0.0040
3997.75,0.0041
3997.50,0.0042
3997.25,0.0044
3997.00,0.0045
3996.75,0.0046
3996.50,0.0048
3996.25,0.0049
3996.00,0.0049
3995.75,0.0049
3995.50,0.0048
3995.25,0.0046
3995.00,0.0044
3994.75,0.0043
3994.50,0.0043
3994.25,0.0044
3994.00,0.0045
3993.75,0.0045
3993.50,0.0045
3993.25,0.0045
3993.00,0.0044
3992.75,0.0044
3992.50,0.0044
3992.25,0.0044
3992.00,0.0045
3991.75,0.0045
3991.50,0.0045
3991.25,0.0045
3991.00,0.0044
3990.75,0.0043
3990.50,0.0042
3990.25,0.0042
3990.00,0.0042
3989.75,0.0043
3989.50,0.0045
3989.25,0.0046
3989.00,0.0046
3988.75,0.0046
3988.50,0.0046
3988.25,0.0045
3988.00,0.0044
3987.75,0.0043
3987.50,0.0044
3987.25,0.0044
3987.00,0.0044
3986.75,0.0044
3986.50,0.0044
3986.25,0.0044
3986.00,0.0044
3985.75,0.0043
3985.50,0.0043
3985.25,0.0044
3985.00,0.0046
3984.75,0.0047
3984.50,0.0049
3984.25,0.0049
3984.00,0.0049
3983.75,0.0049
3983.50,0.0049
3983.25,0.0048
3983.00,0.0047
3982.75,0.0046
3982.50,0.0044
3982.25,0.0044
3982.00,0.0043
3981.75,0.0043
3981.50,0.0043
3981.25,0.0043
3981.00,0.0044
3980.75,0.0044
3980.50,0.0044
3980.25,0.0044
3980.00,0.0044
3979.75,0.0043
3979.50,0.0044
3979.25,0.0044
3979.00,0.0044
3978.75,0.0044
3978.50,0.0044
3978.25,0.0044
3978.00,0.0044
3977.75,0.0044
3977.50,0.0043
3977.25,0.0042
3977.00,0.0041
3976.75,0.0041
3976.50,0.0041
3976.25,0.0043
3976.00,0.0044
3975.75,0.0045
3975.50,0.0045
3975.25,0.0044
3975.00,0.0043
3974.75,0.0042
3974.50,0.0041
3974.25,0.0041
3974.00,0.0041
3973.75,0.0043
3973.50,0.0044
3973.25,0.0045
3973.00,0.0046
3972.75,0.0047
3972.50,0.0048
3972.25,0.0048
3972.00,0.0048
3971.75,0.0047
3971.50,0.0046
3971.25,0.0044
3971.00,0.0044
3970.75,0.0044
3970.50,0.0046
3970.25,0.0048
3970.00,0.0049
3969.75,0.0049
3969.50,0.0048
3969.25,0.0046
3969.00,0.0044
3968.75,0.0042
3968.50,0.0040
3968.25,0.0040
3968.00,0.0040
3967.75,0.0042
3967.50,0.0043
3967.25,0.0045
3967.00,0.0046
3966.75,0.0046
3966.50,0.0046
3966.25,0.0046
3966.00,0.0045
3965.75,0.0044
3965.50,0.0043
3965.25,0.0042
3965.00,0.0041
3964.75,0.0041
3964.50,0.0041
3964.25,0.0042
3964.00,0.0042
3963.75,0.0043
3963.50,0.0043
3963.25,0.0043
3963.00,0.0043
3962.75,0.0043
3962.50,0.0044
3962.25,0.0044
3962.00,0.0043
3961.75,0.0042
3961.50,0.0042
3961.25,0.0041
3961.00,0.0042
3960.75,0.0043
3960.50,0.0044
3960.25,0.0045
3960.00,0.0045
3959.75,0.0044
3959.50,0.0042
3959.25,0.0041
3959.00,0.0040
3958.75,0.0040
3958.50,0.0041
3958.25,0.0043
3958.00,0.0044
3957.75,0.0045
3957.50,0.0045
3957.25,0.0045
3957.00,0.0044
3956.75,0.0044
3956.50,0.0044
3956.25,0.0044
3956.00,0.0045
3955.75,0.0045
3955.50,0.0045
3955.25,0.0045
3955.00,0.0044
3954.75,0.0044
3954.50,0.0044
3954.25,0.0044
3954.00,0.0044
3953.75,0.0044
3953.50,0.0044
3953.25,0.0043
3953.00,0.0042
3952.75,0.0042
3952.50,0.0041
3952.25,0.0042
3952.00,0.0042
3951.75,0.0043
3951.50,0.0044
3951.25,0.0044
3951.00,0.0043
3950.75,0.0042
3950.50,0.0041
3950.25,0.0041
3950.00,0.0040
3949.75,0.0041
3949.50,0.0042
3949.25,0.0043
3949.00,0.0044
3948.75,0.0045
3948.50,0.0046
3948.25,0.0046
3948.00,0.0045
3947.75,0.0044
3947.50,0.0043
3947.25,0.0043
3947.00,0.0043
3946.75,0.0042
3946.50,0.0041
3946.25,0.0040
3946.00,0.0040
3945.75,0.0040
3945.50,0.0041
3945.25,0.0043
3945.00,0.0045
3944.75,0.0046
3944.50,0.0047
3944.25,0.0046
3944.00,0.0045
3943.75,0.0043
3943.50,0.0041
3943.25,0.0039
3943.00,0.0038
3942.75,0.0038
3942.50,0.0038
3942.25,0.0039
3942.00,0.0039
3941.75,0.0041
3941.50,0.0042
3941.25,0.0043
3941.00,0.0044
3940.75,0.0044
3940.50,0.0044
3940.25,0.0044
3940.00,0.0043
3939.75,0.0043
3939.50,0.0043
3939.25,0.0043
3939.00,0.0044
3938.75,0.0045
3938.50,0.0045
3938.25,0.0043
3938.00,0.0041
3937.75,0.0040
3937.50,0.0039
3937.25,0.0040
3937.00,0.0041
3936.75,0.0042
3936.50,0.0042
3936.25,0.0043
3936.00,0.0043
3935.75,0.0043
3935.50,0.0042
3935.25,0.0042
3935.00,0.0042
3934.75,0.0043
3934.50,0.0043
3934.25,0.0043
3934.00,0.0044
3933.75,0.0045
3933.50,0.0045
3933.25,0.0046
3933.00,0.0046
3932.75,0.0045
3932.50,0.0045
3932.25,0.0045
3932.00,0.0045
3931.75,0.0045
3931.50,0.0045
3931.25,0.0045
3931.00,0.0045
3930.75,0.0046
3930.50,0.0046
3930.25,0.0046
3930.00,0.0045
3929.75,0.0044
3929.50,0.0043
3929.25,0.0042
3929.00,0.0043
3928.75,0.0043
3928.50,0.0044
3928.25,0.0045
3928.00,0.0045
3927.75,0.0046
3927.50,0.0047
3927.25,0.0047
3927.00,0.0046
3926.75,0.0045
3926.50,0.0044
3926.25,0.0042
3926.00,0.0041
3925.75,0.0041
3925.50,0.0042
3925.25,0.0043
3925.00,0.0044
3924.75,0.0043
3924.50,0.0042
3924.25,0.0041
3924.00,0.0040
3923.75,0.0039
3923.50,0.0038
3923.25,0.0038
3923.00,0.0040
3922.75,0.0041
3922.50,0.0044
3922.25,0.0046
3922.00,0.0047
3921.75,0.0048
3921.50,0.0047
3921.25,0.0046
3921.00,0.0044
3920.75,0.0043
3920.50,0.0043
3920.25,0.0044
3920.00,0.0045
3919.75,0.0044
3919.50,0.0042
3919.25,0.0040
3919.00,0.0038
3918.75,0.0038
3918.50,0.0040
3918.25,0.0041
3918.00,0.0042
3917.75,0.0043
3917.50,0.0043
3917.25,0.0044
3917.00,0.0044
3916.75,0.0045
3916.50,0.0045
3916.25,0.0044
3916.00,0.0043
3915.75,0.0043
3915.50,0.0043
3915.25,0.0043
3915.00,0.0044
3914.75,0.0045
3914.50,0.0044
3914.25,0.0044
3914.00,0.0044
3913.75,0.0044
3913.50,0.0044
3913.25,0.0045
3913.00,0.0044
3912.75,0.0044
3912.50,0.0044
3912.25,0.0044
3912.00,0.0044
3911.75,0.0044
3911.50,0.0044
3911.25,0.0044
3911.00,0.0044
3910.75,0.0044
3910.50,0.0044
3910.25,0.0043
3910.00,0.0043
3909.75,0.0042
3909.50,0.0041
3909.25,0.0041
3909.00,0.0042
3908.75,0.0043
3908.50,0.0045
3908.25,0.0047
3908.00,0.0048
3907.75,0.0048
3907.50,0.0047
3907.25,0.0045
3907.00,0.0045
3906.75,0.0045
3906.50,0.0046
3906.25,0.0047
3906.00,0.0048
3905.75,0.0049
3905.50,0.0048
3905.25,0.0046
3905.00,0.0043
3904.75,0.0040
3904.50,0.0038
3904.25,0.0039
3904.00,0.0040
3903.75,0.0041
3903.50,0.0041
3903.25,0.0041
3903.00,0.0042
3902.75,0.0042
3902.50,0.0042
3902.25,0.0041
3902.00,0.0041
3901.75,0.0040
3901.50,0.0039
3901.25,0.0038
3901.00,0.0038
3900.75,0.0039
3900.50,0.0041
3900.25,0.0042
3900.00,0.0042
3899.75,0.0041
3899.50,0.0040
3899.25,0.0038
3899.00,0.0036
3898.75,0.0035
3898.50,0.0036
3898.25,0.0038
3898.00,0.0041
3897.75,0.0045
3897.50,0.0047
3897.25,0.0048
3897.00,0.0048
3896.75,0.0047
3896.50,0.0046
3896.25,0.0045
3896.00,0.0044
3895.75,0.0044
3895.50,0.0045
3895.25,0.0045
3895.00,0.0045
3894.75,0.0044
3894.50,0.0042
3894.25,0.0041
3894.00,0.0040
3893.75,0.0040
3893.50,0.0041
3893.25,0.0041
3893.00,0.0041
3892.75,0.0042
3892.50,0.0043
3892.25,0.0044
3892.00,0.0044
3891.75,0.0043
3891.50,0.0044
3891.25,0.0045
3891.00,0.0046
3890.75,0.0044
3890.50,0.0043
3890.25,0.0042
3890.00,0.0042
3889.75,0.0042
3889.50,0.0043
3889.25,0.0044
3889.00,0.0044
3888.75,0.0045
3888.50,0.0045
3888.25,0.0045
3888.00,0.0044
3887.75,0.0044
3887.50,0.0044
3887.25,0.0043
3887.00,0.0043
3886.75,0.0043
3886.50,0.0043
3886.25,0.0042
3886.00,0.0043
3885.75,0.0043
3885.50,0.0042
3885.25,0.0040
3885.00,0.0040
3884.75,0.0042
3884.50,0.0044
3884.25,0.0045
3884.00,0.0047
3883.75,0.0047
3883.50,0.0046
3883.25,0.0045
3883.00,0.0044
3882.75,0.0043
3882.50,0.0043
3882.25,0.0043
3882.00,0.0043
3881.75,0.0043
3881.50,0.0043
3881.25,0.0043
3881.00,0.0042
3880.75,0.0041
3880.50,0.0041
3880.25,0.0041
3880.00,0.0041
3879.75,0.0040
3879.50,0.0040
3879.25,0.0040
3879.00,0.0041
3878.75,0.0042
3878.50,0.0043
3878.25,0.0044
3878.00,0.0044
3877.75,0.0045
3877.50,0.0045
3877.25,0.0045
3877.00,0.0044
3876.75,0.0044
3876.50,0.0044
3876.25,0.0044
3876.00,0.0044
3875.75,0.0044
3875.50,0.0044
3875.25,0.0043
3875.00,0.0041
3874.75,0.0039
3874.50,0.0037
3874.25,0.0037
3874.00,0.0036
3873.75,0.0036
3873.50,0.0036
3873.25,0.0036
3873.00,0.0037
3872.75,0.0038
3872.50,0.0039
3872.25,0.0040
3872.00,0.0041
3871.75,0.0043
3871.50,0.0044
3871.25,0.0045
3871.00,0.0045
3870.75,0.0043
3870.50,0.0041
3870.25,0.0040
3870.00,0.0039
3869.75,0.0037
3869.50,0.0036
3869.25,0.0037
3869.00,0.0040
3868.75,0.0043
3868.50,0.0044
3868.25,0.0043
3868.00,0.0043
3867.75,0.0042
3867.50,0.0042
3867.25,0.0042
3867.00,0.0042
3866.75,0.0042
3866.50,0.0043
3866.25,0.0044
3866.00,0.0044
3865.75,0.0042
3865.50,0.0040
3865.25,0.0039
3865.00,0.0039
3864.75,0.0039
3864.50,0.0038
3864.25,0.0038
3864.00,0.0039
3863.75,0.0039
3863.50,0.0040
3863.25,0.0041
3863.00,0.0042
3862.75,0.0042
3862.50,0.0041
3862.25,0.0040
3862.00,0.0041
3861.75,0.0042
3861.50,0.0043
3861.25,0.0042
3861.00,0.0041
3860.75,0.0039
3860.50,0.0038
3860.25,0.0039
3860.00,0.0039
3859.75,0.0040
3859.50,0.0041
3859.25,0.0042
3859.00,0.0041
3858.75,0.0041
3858.50,0.0041
3858.25,0.0041
3858.00,0.0041
3857.75,0.0040
3857.50,0.0039
3857.25,0.0039
3857.00,0.0040
3856.75,0.0040
3856.50,0.0041
3856.25,0.0041
3856.00,0.0041
3855.75,0.0042
3855.50,0.0042
3855.25,0.0042
3855.00,0.0039
3854.75,0.0034
3854.50,0.0030
3854.25,0.0034
3854.00,0.0038
3853.75,0.0029
3853.50,0.0026
3853.25,0.0030
3853.00,0.0032
3852.75,0.0033
3852.50,0.0032
3852.25,0.0032
3852.00,0.0034
3851.75,0.0036
3851.50,0.0036
3851.25,0.0037
3851.00,0.0038
3850.75,0.0039
3850.50,0.0040
3850.25,0.0041
3850.00,0.0042
3849.75,0.0043
3849.50,0.0043
3849.25,0.0043
3849.00,0.0043
3848.75,0.0043
3848.50,0.0042
3848.25,0.0042
3848.00,0.0043
3847.75,0.0044
3847.50,0.0045
3847.25,0.0045
3847.00,0.0045
3846.75,0.0045
3846.50,0.0044
3846.25,0.0043
3846.00,0.0043
3845.75,0.0044
3845.50,0.0044
3845.25,0.0044
3845.00,0.0044
3844.75,0.0043
3844.50,0.0042
3844.25,0.0041
3844.00,0.0041
3843.75,0.0043
3843.50,0.0044
3843.25,0.0043
3843.00,0.0042
3842.75,0.0042
3842.50,0.0042
3842.25,0.0044
3842.00,0.0045
3841.75,0.0045
3841.50,0.0043
3841.25,0.0041
3841.00,0.0039
3840.75,0.0037
3840.50,0.0037
3840.25,0.0038
3840.00,0.0040
3839.75,0.0042
3839.50,0.0044
3839.25,0.0044
3839.00,0.0043
3838.75,0.0041
3838.50,0.0039
3838.25,0.0039
3838.00,0.0045
3837.75,0.0052
3837.50,0.0052
3837.25,0.0048
3837.00,0.0044
3836.75,0.0042
3836.50,0.0041
3836.25,0.0042
3836.00,0.0042
3835.75,0.0041
3835.50,0.0039
3835.25,0.0038
3835.00,0.0039
3834.75,0.0041
3834.50,0.0041
3834.25,0.0040
3834.00,0.0039
3833.75,0.0038
3833.50,0.0039
3833.25,0.0040
3833.00,0.0041
3832.75,0.0041
3832.50,0.0040
3832.25,0.0039
3832.00,0.0039
3831.75,0.0041
3831.50,0.0043
3831.25,0.0045
3831.00,0.0044
3830.75,0.0044
3830.50,0.0043
3830.25,0.0043
3830.00,0.0044
3829.75,0.0045
3829.50,0.0046
3829.25,0.0047
3829.00,0.0047
3828.75,0.0045
3828.50,0.0044
3828.25,0.0043
3828.00,0.0043
3827.75,0.0044
3827.50,0.0044
3827.25,0.0044
3827.00,0.0045
3826.75,0.0046
3826.50,0.0046
3826.25,0.0044
3826.00,0.0042
3825.75,0.0041
3825.50,0.0041
3825.25,0.0042
3825.00,0.0043
3824.75,0.0044
3824.50,0.0045
3824.25,0.0046
3824.00,0.0046
3823.75,0.0046
3823.50,0.0046
3823.25,0.0045
3823.00,0.0045
3822.75,0.0044
3822.50,0.0042
3822.25,0.0039
3822.00,0.0038
3821.75,0.0038
3821.50,0.0038
3821.25,0.0037
3821.00,0.0035
3820.75,0.0035
3820.50,0.0036
3820.25,0.0038
3820.00,0.0039
3819.75,0.0040
3819.50,0.0040
3819.25,0.0040
3819.00,0.0040
3818.75,0.0041
3818.50,0.0042
3818.25,0.0044
3818.00,0.0046
3817.75,0.0047
3817.50,0.0048
3817.25,0.0048
3817.00,0.0048
3816.75,0.0047
3816.50,0.0045
3816.25,0.0045
3816.00,0.0047
3815.75,0.0045
3815.50,0.0043
3815.25,0.0043
3815.00,0.0043
3814.75,0.0044
3814.50,0.0044
3814.25,0.0045
3814.00,0.0047
3813.75,0.0048
3813.50,0.0049
3813.25,0.0049
3813.00,0.0049
3812.75,0.0049
3812.50,0.0048
3812.25,0.0047
3812.00,0.0046
3811.75,0.0045
3811.50,0.0045
3811.25,0.0045
3811.00,0.0045
3810.75,0.0045
3810.50,0.0045
3810.25,0.0045
3810.00,0.0046
3809.75,0.0046
3809.50,0.0046
3809.25,0.0047
3809.00,0.0047
3808.75,0.0047
3808.50,0.0047
3808.25,0.0047
3808.00,0.0046
3807.75,0.0044
3807.50,0.0042
3807.25,0.0043
3807.00,0.0046
3806.75,0.0047
3806.50,0.0044
3806.25,0.0041
3806.00,0.0040
3805.75,0.0040
3805.50,0.0042
3805.25,0.0045
3805.00,0.0047
3804.75,0.0047
3804.50,0.0047
3804.25,0.0046
3804.00,0.0044
3803.75,0.0043
3803.50,0.0041
3803.25,0.0041
3803.00,0.0042
3802.75,0.0043
3802.50,0.0041
3802.25,0.0038
3802.00,0.0033
3801.75,0.0030
3801.50,0.0032
3801.25,0.0039
3801.00,0.0042
3800.75,0.0043
3800.50,0.0043
3800.25,0.0042
3800.00,0.0042
3799.75,0.0042
3799.50,0.0042
3799.25,0.0042
3799.00,0.0043
3798.75,0.0045
3798.50,0.0046
3798.25,0.0047
3798.00,0.0048
3797.75,0.0047
3797.50,0.0046
3797.25,0.0044
3797.00,0.0041
3796.75,0.0038
3796.50,0.0038
3796.25,0.0040
3796.00,0.0041
3795.75,0.0041
3795.50,0.0042
3795.25,0.0044
3795.00,0.0045
3794.75,0.0047
3794.50,0.0048
3794.25,0.0047
3794.00,0.0047
3793.75,0.0046
3793.50,0.0045
3793.25,0.0045
3793.00,0.0044
3792.75,0.0044
3792.50,0.0044
3792.25,0.0044
3792.00,0.0044
3791.75,0.0044
3791.50,0.0044
3791.25,0.0044
3791.00,0.0044
3790.75,0.0045
3790.50,0.0045
3790.25,0.0045
3790.00,0.0044
3789.75,0.0043
3789.50,0.0042
3789.25,0.0042
3789.00,0.0042
3788.75,0.0043
3788.50,0.0044
3788.25,0.0047
3788.00,0.0049
3787.75,0.0050
3787.50,0.0050
3787.25,0.0050
3787.00,0.0048
3786.75,0.0047
3786.50,0.0047
3786.25,0.0046
3786.00,0.0045
3785.75,0.0044
3785.50,0.0043
3785.25,0.0043
3785.00,0.0043
3784.75,0.0044
3784.50,0.0046
3784.25,0.0047
3784.00,0.0047
3783.75,0.0047
3783.50,0.0047
3783.25,0.0047
3783.00,0.0047
3782.75,0.0047
3782.50,0.0048
3782.25,0.0049
3782.00,0.0049
3781.75,0.0050
3781.50,0.0049
3781.25,0.0048
3781.00,0.0048
3780.75,0.0048
3780.50,0.0047
3780.25,0.0046
3780.00,0.0043
3779.75,0.0040
3779.50,0.0036
3779.25,0.0035
3779.00,0.0036
3778.75,0.0039
3778.50,0.0043
3778.25,0.0045
3778.00,0.0047
3777.75,0.0048
3777.50,0.0047
3777.25,0.0046
3777.00,0.0044
3776.75,0.0043
3776.50,0.0042
3776.25,0.0042
3776.00,0.0042
3775.75,0.0043
3775.50,0.0044
3775.25,0.0044
3775.00,0.0043
3774.75,0.0042
3774.50,0.0041
3774.25,0.0041
3774.00,0.0041
3773.75,0.0042
3773.50,0.0043
3773.25,0.0043
3773.00,0.0044
3772.75,0.0045
3772.50,0.0046
3772.25,0.0047
3772.00,0.0048
3771.75,0.0048
3771.50,0.0049
3771.25,0.0049
3771.00,0.0049
3770.75,0.0047
3770.50,0.0044
3770.25,0.0041
3770.00,0.0039
3769.75,0.0038
3769.50,0.0037
3769.25,0.0037
3769.00,0.0038
3768.75,0.0040
3768.50,0.0042
3768.25,0.0044
3768.00,0.0047
3767.75,0.0048
3767.50,0.0049
3767.25,0.0049
3767.00,0.0048
3766.75,0.0047
3766.50,0.0046
3766.25,0.0045
3766.00,0.0045
3765.75,0.0046
3765.50,0.0045
3765.25,0.0044
3765.00,0.0043
3764.75,0.0043
3764.50,0.0045
3764.25,0.0048
3764.00,0.0050
3763.75,0.0051
3763.50,0.0051
3763.25,0.0051
3763.00,0.0050
3762.75,0.0049
3762.50,0.0048
3762.25,0.0047
3762.00,0.0046
3761.75,0.0046
3761.50,0.0046
3761.25,0.0047
3761.00,0.0048
3760.75,0.0048
3760.50,0.0045
3760.25,0.0042
3760.00,0.0039
3759.75,0.0038
3759.50,0.0038
3759.25,0.0040
3759.00,0.0042
3758.75,0.0044
3758.50,0.0046
3758.25,0.0047
3758.00,0.0048
3757.75,0.0048
3757.50,0.0049
3757.25,0.0049
3757.00,0.0049
3756.75,0.0050
3756.50,0.0050
3756.25,0.0049
3756.00,0.0047
3755.75,0.0046
3755.50,0.0046
3755.25,0.0047
3755.00,0.0048
3754.75,0.0049
3754.50,0.0048
3754.25,0.0047
3754.00,0.0045
3753.75,0.0043
3753.50,0.0041
3753.25,0.0040
3753.00,0.0039
3752.75,0.0038
3752.50,0.0041
3752.25,0.0048
3752.00,0.0052
3751.75,0.0050
3751.50,0.0047
3751.25,0.0046
3751.00,0.0046
3750.75,0.0048
3750.50,0.0050
3750.25,0.0050
3750.00,0.0050
3749.75,0.0049
3749.50,0.0050
3749.25,0.0047
3749.00,0.0040
3748.75,0.0037
3748.50,0.0038
3748.25,0.0039
3748.00,0.0041
3747.75,0.0042
3747.50,0.0043
3747.25,0.0044
3747.00,0.0045
3746.75,0.0046
3746.50,0.0046
3746.25,0.0047
3746.00,0.0048
3745.75,0.0048
3745.50,0.0047
3745.25,0.0043
3745.00,0.0036
3744.75,0.0029
3744.50,0.0022
3744.25,0.0010
3744.00,0.0013
3743.75,0.0023
3743.50,0.0031
3743.25,0.0036
3743.00,0.0040
3742.75,0.0042
3742.50,0.0044
3742.25,0.0045
3742.00,0.0045
3741.75,0.0044
3741.50,0.0045
3741.25,0.0046
3741.00,0.0047
3740.75,0.0047
3740.50,0.0048
3740.25,0.0049
3740.00,0.0050
3739.75,0.0050
3739.50,0.0050
3739.25,0.0048
3739.00,0.0046
3738.75,0.0044
3738.50,0.0045
3738.25,0.0046
3738.00,0.0048
3737.75,0.0050
3737.50,0.0050
3737.25,0.0048
3737.00,0.0047
3736.75,0.0046
3736.50,0.0045
3736.25,0.0043
3736.00,0.0042
3735.75,0.0041
3735.50,0.0041
3735.25,0.0043
3735.00,0.0045
3734.75,0.0046
3734.50,0.0044
3734.25,0.0042
3734.00,0.0041
3733.75,0.0042
3733.50,0.0043
3733.25,0.0045
3733.00,0.0047
3732.75,0.0048
3732.50,0.0051
3732.25,0.0056
3732.00,0.0058
3731.75,0.0053
3731.50,0.0046
3731.25,0.0041
3731.00,0.0039
3730.75,0.0039
3730.50,0.0041
3730.25,0.0042
3730.00,0.0044
3729.75,0.0046
3729.50,0.0047
3729.25,0.0049
3729.00,0.0049
3728.75,0.0048
3728.50,0.0047
3728.25,0.0045
3728.00,0.0045
3727.75,0.0044
3727.50,0.0045
3727.25,0.0045
3727.00,0.0045
3726.75,0.0045
3726.50,0.0046
3726.25,0.0046
3726.00,0.0044
3725.75,0.0043
3725.50,0.0042
3725.25,0.0042
3725.00,0.0044
3724.75,0.0046
3724.50,0.0048
3724.25,0.0048
3724.00,0.0049
3723.75,0.0050
3723.50,0.0051
3723.25,0.0051
3723.00,0.0051
3722.75,0.0049
3722.50,0.0047
3722.25,0.0045
3722.00,0.0044
3721.75,0.0044
3721.50,0.0044
3721.25,0.0045
3721.00,0.0045
3720.75,0.0046
3720.50,0.0047
3720.25,0.0047
3720.00,0.0046
3719.75,0.0045
3719.50,0.0043
3719.25,0.0042
3719.00,0.0041
3718.75,0.0041
3718.50,0.0040
3718.25,0.0039
3718.00,0.0039
3717.75,0.0040
3717.50,0.0042
3717.25,0.0044
3717.00,0.0045
3716.75,0.0046
3716.50,0.0047
3716.25,0.0047
3716.00,0.0048
3715.75,0.0049
3715.50,0.0050
3715.25,0.0051
3715.00,0.0052
3714.75,0.0052
3714.50,0.0050
3714.25,0.0047
3714.00,0.0045
3713.75,0.0044
3713.50,0.0046
3713.25,0.0048
3713.00,0.0048
3712.75,0.0048
3712.50,0.0049
3712.25,0.0055
3712.00,0.0059
3711.75,0.0058
3711.50,0.0052
3711.25,0.0046
3711.00,0.0044
3710.75,0.0043
3710.50,0.0044
3710.25,0.0044
3710.00,0.0044
3709.75,0.0043
3709.50,0.0044
3709.25,0.0044
3709.00,0.0043
3708.75,0.0042
3708.50,0.0042
3708.25,0.0044
3708.00,0.0046
3707.75,0.0049
3707.50,0.0051
3707.25,0.0052
3707.00,0.0052
3706.75,0.0050
3706.50,0.0049
3706.25,0.0049
3706.00,0.0050
3705.75,0.0050
3705.50,0.0050
3705.25,0.0049
3705.00,0.0048
3704.75,0.0047
3704.50,0.0046
3704.25,0.0046
3704.00,0.0046
3703.75,0.0047
3703.50,0.0047
3703.25,0.0047
3703.00,0.0047
3702.75,0.0046
3702.50,0.0045
3702.25,0.0044
3702.00,0.0044
3701.75,0.0045
3701.50,0.0045
3701.25,0.0045
3701.00,0.0045
3700.75,0.0047
3700.50,0.0049
3700.25,0.0051
3700.00,0.0052
3699.75,0.0052
3699.50,0.0051
3699.25,0.0050
3699.00,0.0049
3698.75,0.0048
3698.50,0.0048
3698.25,0.0048
3698.00,0.0047
3697.75,0.0047
3697.50,0.0046
3697.25,0.0046
3697.00,0.0045
3696.75,0.0045
3696.50,0.0045
3696.25,0.0046
3696.00,0.0047
3695.75,0.0047
3695.50,0.0047
3695.25,0.0047
3695.00,0.0046
3694.75,0.0045
3694.50,0.0044
3694.25,0.0045
3694.00,0.0045
3693.75,0.0047
3693.50,0.0047
3693.25,0.0047
3693.00,0.0045
3692.75,0.0043
3692.50,0.0042
3692.25,0.0042
3692.00,0.0042
3691.75,0.0042
3691.50,0.0044
3691.25,0.0046
3691.00,0.0047
3690.75,0.0045
3690.50,0.0042
3690.25,0.0040
3690.00,0.0038
3689.75,0.0037
3689.50,0.0035
3689.25,0.0033
3689.00,0.0030
3688.75,0.0029
3688.50,0.0034
3688.25,0.0040
3688.00,0.0043
3687.75,0.0044
3687.50,0.0044
3687.25,0.0044
3687.00,0.0045
3686.75,0.0045
3686.50,0.0045
3686.25,0.0045
3686.00,0.0045
3685.75,0.0045
3685.50,0.0046
3685.25,0.0047
3685.00,0.0047
3684.75,0.0047
3684.50,0.0047
3684.25,0.0047
3684.00,0.0047
3683.75,0.0048
3683.50,0.0049
3683.25,0.0050
3683.00,0.0050
3682.75,0.0051
3682.50,0.0051
3682.25,0.0051
3682.00,0.0050
3681.75,0.0049
3681.50,0.0047
3681.25,0.0046
3681.00,0.0046
3680.75,0.0046
3680.50,0.0046
3680.25,0.0045
3680.00,0.0043
3679.75,0.0041
3679.50,0.0040
3679.25,0.0038
3679.00,0.0037
3678.75,0.0037
3678.50,0.0037
3678.25,0.0039
3678.00,0.0041
3677.75,0.0044
3677.50,0.0046
3677.25,0.0047
3677.00,0.0046
3676.75,0.0045
3676.50,0.0043
3676.25,0.0043
3676.00,0.0046
3675.75,0.0048
3675.50,0.0044
3675.25,0.0036
3675.00,0.0029
3674.75,0.0027
3674.50,0.0028
3674.25,0.0032
3674.00,0.0036
3673.75,0.0039
3673.50,0.0041
3673.25,0.0042
3673.00,0.0043
3672.75,0.0043
3672.50,0.0043
3672.25,0.0044
3672.00,0.0046
3671.75,0.0047
3671.50,0.0046
3671.25,0.0045
3671.00,0.0044
3670.75,0.0048
3670.50,0.0052
3670.25,0.0052
3670.00,0.0050
3669.75,0.0048
3669.50,0.0046
3669.25,0.0045
3669.00,0.0046
3668.75,0.0047
3668.50,0.0046
3668.25,0.0043
3668.00,0.0041
3667.75,0.0041
3667.50,0.0042
3667.25,0.0044
3667.00,0.0046
3666.75,0.0047
3666.50,0.0047
3666.25,0.0047
3666.00,0.0048
3665.75,0.0048
3665.50,0.0049
3665.25,0.0050
3665.00,0.0050
3664.75,0.0050
3664.50,0.0048
3664.25,0.0047
3664.00,0.0045
3663.75,0.0045
3663.50,0.0045
3663.25,0.0046
3663.00,0.0048
3662.75,0.0050
3662.50,0.0050
3662.25,0.0049
3662.00,0.0047
3661.75,0.0046
3661.50,0.0046
3661.25,0.0047
3661.00,0.0049
3660.75,0.0050
3660.50,0.0050
3660.25,0.0050
3660.00,0.0049
3659.75,0.0048
3659.50,0.0046
3659.25,0.0046
3659.00,0.0047
3658.75,0.0049
3658.50,0.0050
3658.25,0.0050
3658.00,0.0050
3657.75,0.0049
3657.50,0.0049
3657.25,0.0048
3657.00,0.0046
3656.75,0.0043
3656.50,0.0040
3656.25,0.0038
3656.00,0.0038
3655.75,0.0041
3655.50,0.0045
3655.25,0.0049
3655.00,0.0051
3654.75,0.0051
3654.50,0.0050
3654.25,0.0048
3654.00,0.0046
3653.75,0.0045
3653.50,0.0044
3653.25,0.0045
3653.00,0.0046
3652.75,0.0047
3652.50,0.0047
3652.25,0.0047
3652.00,0.0046
3651.75,0.0046
3651.50,0.0047
3651.25,0.0049
3651.00,0.0050
3650.75,0.0050
3650.50,0.0049
3650.25,0.0046
3650.00,0.0043
3649.75,0.0038
3649.50,0.0035
3649.25,0.0035
3649.00,0.0038
3648.75,0.0041
3648.50,0.0042
3648.25,0.0042
3648.00,0.0041
3647.75,0.0040
3647.50,0.0041
3647.25,0.0041
3647.00,0.0040
3646.75,0.0039
3646.50,0.0040
3646.25,0.0042
3646.00,0.0044
3645.75,0.0045
3645.50,0.0047
3645.25,0.0047
3645.00,0.0048
3644.75,0.0049
3644.50,0.0049
3644.25,0.0050
3644.00,0.0050
3643.75,0.0050
3643.50,0.0048
3643.25,0.0047
3643.00,0.0046
3642.75,0.0046
3642.50,0.0046
3642.25,0.0047
3642.00,0.0047
3641.75,0.0048
3641.50,0.0048
3641.25,0.0047
3641.00,0.0047
3640.75,0.0046
3640.50,0.0046
3640.25,0.0047
3640.00,0.0048
3639.75,0.0049
3639.50,0.0049
3639.25,0.0049
3639.00,0.0048
3638.75,0.0047
3638.50,0.0046
3638.25,0.0046
3638.00,0.0046
3637.75,0.0046
3637.50,0.0047
3637.25,0.0046
3637.00,0.0046
3636.75,0.0045
3636.50,0.0044
3636.25,0.0044
3636.00,0.0044
3635.75,0.0046
3635.50,0.0047
3635.25,0.0049
3635.00,0.0050
3634.75,0.0051
3634.50,0.0051
3634.25,0.0053
3634.00,0.0054
3633.75,0.0055
3633.50,0.0054
3633.25,0.0051
3633.00,0.0049
3632.75,0.0048
3632.50,0.0049
3632.25,0.0050
3632.00,0.0050
3631.75,0.0050
3631.50,0.0050
3631.25,0.0049
3631.00,0.0049
3630.75,0.0049
3630.50,0.0048
3630.25,0.0046
3630.00,0.0044
3629.75,0.0044
3629.50,0.0046
3629.25,0.0047
3629.00,0.0042
3628.75,0.0035
3628.50,0.0029
3628.25,0.0029
3628.00,0.0034
3627.75,0.0040
3627.50,0.0045
3627.25,0.0048
3627.00,0.0048
3626.75,0.0048
3626.50,0.0048
3626.25,0.0047
3626.00,0.0047
3625.75,0.0046
3625.50,0.0045
3625.25,0.0044
3625.00,0.0043
3624.75,0.0043
3624.50,0.0043
3624.25,0.0043
3624.00,0.0044
3623.75,0.0045
3623.50,0.0048
3623.25,0.0051
3623.00,0.0053
3622.75,0.0053
3622.50,0.0053
3622.25,0.0051
3622.00,0.0050
3621.75,0.0050
3621.50,0.0052
3621.25,0.0054
3621.00,0.0055
3620.75,0.0055
3620.50,0.0053
3620.25,0.0049
3620.00,0.0045
3619.75,0.0043
3619.50,0.0044
3619.25,0.0048
3619.00,0.0051
3618.75,0.0053
3618.50,0.0053
3618.25,0.0052
3618.00,0.0051
3617.75,0.0051
3617.50,0.0050
3617.25,0.0048
3617.00,0.0047
3616.75,0.0046
3616.50,0.0046
3616.25,0.0047
3616.00,0.0048
3615.75,0.0050
3615.50,0.0052
3615.25,0.0053
3615.00,0.0053
3614.75,0.0051
3614.50,0.0048
3614.25,0.0045
3614.00,0.0044
3613.75,0.0043
3613.50,0.0043
3613.25,0.0042
3613.00,0.0042
3612.75,0.0043
3612.50,0.0044
3612.25,0.0045
3612.00,0.0045
3611.75,0.0044
3611.50,0.0044
3611.25,0.0044
3611.00,0.0044
3610.75,0.0045
3610.50,0.0045
3610.25,0.0045
3610.00,0.0043
3609.75,0.0041
3609.50,0.0040
3609.25,0.0042
3609.00,0.0045
3608.75,0.0047
3608.50,0.0049
3608.25,0.0050
3608.00,0.0050
3607.75,0.0050
3607.50,0.0050
3607.25,0.0051
3607.00,0.0052
3606.75,0.0052
3606.50,0.0050
3606.25,0.0047
3606.00,0.0045
3605.75,0.0044
3605.50,0.0044
3605.25,0.0045
3605.00,0.0046
3604.75,0.0046
3604.50,0.0047
3604.25,0.0048
3604.00,0.0048
3603.75,0.0049
3603.50,0.0050
3603.25,0.0050
3603.00,0.0049
3602.75,0.0048
3602.50,0.0046
3602.25,0.0045
3602.00,0.0045
3601.75,0.0046
3601.50,0.0048
3601.25,0.0050
3601.00,0.0051
3600.75,0.0051
3600.50,0.0051
3600.25,0.0050
3600.00,0.0051
3599.75,0.0051
3599.50,0.0051
3599.25,0.0050
3599.00,0.0049
3598.75,0.0048
3598.50,0.0049
3598.25,0.0049
3598.00,0.0049
3597.75,0.0049
3597.50,0.0048
3597.25,0.0048
3597.00,0.0047
3596.75,0.0048
3596.50,0.0048
3596.25,0.0047
3596.00,0.0046
3595.75,0.0045
3595.50,0.0044
3595.25,0.0044
3595.00,0.0044
3594.75,0.0045
3594.50,0.0045
3594.25,0.0045
3594.00,0.0046
3593.75,0.0046
3593.50,0.0047
3593.25,0.0047
3593.00,0.0047
3592.75,0.0047
3592.50,0.0047
3592.25,0.0048
3592.00,0.0048
3591.75,0.0049
3591.50,0.0050
3591.25,0.0051
3591.00,0.0052
3590.75,0.0052
3590.50,0.0053
3590.25,0.0053
3590.00,0.0053
3589.75,0.0053
3589.50,0.0052
3589.25,0.0051
3589.00,0.0049
3588.75,0.0047
3588.50,0.0046
3588.25,0.0044
3588.00,0.0043
3587.75,0.0041
3587.50,0.0039
3587.25,0.0038
3587.00,0.0037
3586.75,0.0036
3586.50,0.0037
3586.25,0.0039
3586.00,0.0042
3585.75,0.0045
3585.50,0.0048
3585.25,0.0049
3585.00,0.0048
3584.75,0.0046
3584.50,0.0045
3584.25,0.0044
3584.00,0.0046
3583.75,0.0049
3583.50,0.0051
3583.25,0.0052
3583.00,0.0051
3582.75,0.0050
3582.50,0.0050
3582.25,0.0051
3582.00,0.0051
3581.75,0.0051
3581.50,0.0049
3581.25,0.0048
3581.00,0.0047
3580.75,0.0047
3580.50,0.0048
3580.25,0.0048
3580.00,0.0047
3579.75,0.0047
3579.50,0.0046
3579.25,0.0045
3579.00,0.0045
3578.75,0.0046
3578.50,0.0046
3578.25,0.0047
3578.00,0.0048
3577.75,0.0048
3577.50,0.0049
3577.25,0.0049
3577.00,0.0048
3576.75,0.0048
3576.50,0.0049
3576.25,0.0049
3576.00,0.0050
3575.75,0.0049
3575.50,0.0048
3575.25,0.0048
3575.00,0.0048
3574.75,0.0049
3574.50,0.0050
3574.25,0.0051
3574.00,0.0052
3573.75,0.0053
3573.50,0.0053
3573.25,0.0053
3573.00,0.0053
3572.75,0.0052
3572.50,0.0050
3572.25,0.0048
3572.00,0.0046
3571.75,0.0045
3571.50,0.0046
3571.25,0.0047
3571.00,0.0049
3570.75,0.0050
3570.50,0.0050
3570.25,0.0049
3570.00,0.0048
3569.75,0.0048
3569.50,0.0047
3569.25,0.0046
3569.00,0.0045
3568.75,0.0044
3568.50,0.0044
3568.25,0.0044
3568.00,0.0044
3567.75,0.0043
3567.50,0.0042
3567.25,0.0043
3567.00,0.0044
3566.75,0.0045
3566.50,0.0045
3566.25,0.0044
3566.00,0.0042
3565.75,0.0043
3565.50,0.0044
3565.25,0.0047
3565.00,0.0048
3564.75,0.0048
3564.50,0.0049
3564.25,0.0049
3564.00,0.0050
3563.75,0.0050
3563.50,0.0050
3563.25,0.0048
3563.00,0.0048
3562.75,0.0048
3562.50,0.0048
3562.25,0.0049
3562.00,0.0050
3561.75,0.0051
3561.50,0.0051
3561.25,0.0052
3561.00,0.0052
3560.75,0.0052
3560.50,0.0052
3560.25,0.0052
3560.00,0.0051
3559.75,0.0050
3559.50,0.0049
3559.25,0.0048
3559.00,0.0049
3558.75,0.0049
3558.50,0.0049
3558.25,0.0049
3558.00,0.0049
3557.75,0.0049
3557.50,0.0049
3557.25,0.0048
3557.00,0.0047
3556.75,0.0045
3556.50,0.0045
3556.25,0.0045
3556.00,0.0047
3555.75,0.0048
3555.50,0.0049
3555.25,0.0050
3555.00,0.0049
3554.75,0.0047
3554.50,0.0046
3554.25,0.0045
3554.00,0.0046
3553.75,0.0047
3553.50,0.0048
3553.25,0.0049
3553.00,0.0049
3552.75,0.0049
3552.50,0.0049
3552.25,0.0049
3552.00,0.0048
3551.75,0.0047
3551.50,0.0046
3551.25,0.0046
3551.00,0.0046
3550.75,0.0047
3550.50,0.0048
3550.25,0.0049
3550.00,0.0049
3549.75,0.0050
3549.50,0.0050
3549.25,0.0050
3549.00,0.0049
3548.75,0.0048
3548.50,0.0048
3548.25,0.0048
3548.00,0.0048
3547.75,0.0048
3547.50,0.0048
3547.25,0.0046
3547.00,0.0043
3546.75,0.0041
3546.50,0.0041
3546.25,0.0042
3546.00,0.0045
3545.75,0.0049
3545.50,0.0052
3545.25,0.0054
3545.00,0.0053
3544.75,0.0051
3544.50,0.0049
3544.25,0.0048
3544.00,0.0047
3543.75,0.0047
3543.50,0.0048
3543.25,0.0048
3543.00,0.0048
3542.75,0.0049
3542.50,0.0049
3542.25,0.0050
3542.00,0.0050
3541.75,0.0050
3541.50,0.0049
3541.25,0.0048
3541.00,0.0048
3540.75,0.0048
3540.50,0.0048
3540.25,0.0048
3540.00,0.0048
3539.75,0.0047
3539.50,0.0046
3539.25,0.0045
3539.00,0.0046
3538.75,0.0047
3538.50,0.0049
3538.25,0.0051
3538.00,0.0052
3537.75,0.0052
3537.50,0.0052
3537.25,0.0052
3537.00,0.0052
3536.75,0.0052
3536.50,0.0051
3536.25,0.0049
3536.00,0.0048
3535.75,0.0047
3535.50,0.0046
3535.25,0.0046
3535.00,0.0047
3534.75,0.0048
3534.50,0.0050
3534.25,0.0050
3534.00,0.0050
3533.75,0.0050
3533.50,0.0050
3533.25,0.0051
3533.00,0.0052
3532.75,0.0053
3532.50,0.0053
3532.25,0.0053
3532.00,0.0053
3531.75,0.0052
3531.50,0.0052
3531.25,0.0051
3531.00,0.0051
3530.75,0.0051
3530.50,0.0051
3530.25,0.0050
3530.00,0.0050
3529.75,0.0051
3529.50,0.0051
3529.25,0.0052
3529.00,0.0052
3528.75,0.0051
3528.50,0.0049
3528.25,0.0047
3528.00,0.0047
3527.75,0.0047
3527.50,0.0048
3527.25,0.0049
3527.00,0.0049
3526.75,0.0049
3526.50,0.0048
3526.25,0.0048
3526.00,0.0048
3525.75,0.0047
3525.50,0.0047
3525.25,0.0047
3525.00,0.0048
3524.75,0.0049
3524.50,0.0050
3524.25,0.0051
3524.00,0.0052
3523.75,0.0052
3523.50,0.0051
3523.25,0.0050
3523.00,0.0049
3522.75,0.0048
3522.50,0.0047
3522.25,0.0048
3522.00,0.0050
3521.75,0.0052
3521.50,0.0054
3521.25,0.0055
3521.00,0.0055
3520.75,0.0053
3520.50,0.0051
3520.25,0.0049
3520.00,0.0046
3519.75,0.0044
3519.50,0.0044
3519.25,0.0045
3519.00,0.0047
3518.75,0.0049
3518.50,0.0050
3518.25,0.0050
3518.00,0.0050
3517.75,0.0049
3517.50,0.0049
3517.25,0.0048
3517.00,0.0047
3516.75,0.0047
3516.50,0.0047
3516.25,0.0047
3516.00,0.0047
3515.75,0.0047
3515.50,0.0048
3515.25,0.0049
3515.00,0.0051
3514.75,0.0052
3514.50,0.0053
3514.25,0.0053
3514.00,0.0051
3513.75,0.0049
3513.50,0.0047
3513.25,0.0047
3513.00,0.0047
3512.75,0.0047
3512.50,0.0048
3512.25,0.0048
3512.00,0.0049
3511.75,0.0049
3511.50,0.0050
3511.25,0.0051
3511.00,0.0051
3510.75,0.0049
3510.50,0.0047
3510.25,0.0045
3510.00,0.0044
3509.75,0.0044
3509.50,0.0045
3509.25,0.0046
3509.00,0.0047
3508.75,0.0048
3508.50,0.0050
3508.25,0.0051
3508.00,0.0053
3507.75,0.0055
3507.50,0.0056
3507.25,0.0057
3507.00,0.0056
3506.75,0.0053
3506.50,0.0051
3506.25,0.0048
3506.00,0.0047
3505.75,0.0046
3505.50,0.0046
3505.25,0.0047
3505.00,0.0047
3504.75,0.0048
3504.50,0.0048
3504.25,0.0049
3504.00,0.0049
3503.75,0.0050
3503.50,0.0050
3503.25,0.0050
3503.00,0.0051
3502.75,0.0052
3502.50,0.0052
3502.25,0.0051
3502.00,0.0050
3501.75,0.0048
3501.50,0.0046
3501.25,0.0044
3501.00,0.0043
3500.75,0.0043
3500.50,0.0044
3500.25,0.0046
3500.00,0.0049
3499.75,0.0052
3499.50,0.0053
3499.25,0.0055
3499.00,0.0055
3498.75,0.0055
3498.50,0.0054
3498.25,0.0053
3498.00,0.0052
3497.75,0.0051
3497.50,0.0049
3497.25,0.0048
3497.00,0.0046
3496.75,0.0046
3496.50,0.0046
3496.25,0.0047
3496.00,0.0049
3495.75,0.0051
3495.50,0.0051
3495.25,0.0050
3495.00,0.0049
3494.75,0.0048
3494.50,0.0047
3494.25,0.0047
3494.00,0.0046
3493.75,0.0047
3493.50,0.0047
3493.25,0.0049
3493.00,0.0050
3492.75,0.0052
3492.50,0.0053
3492.25,0.0054
3492.00,0.0055
3491.75,0.0054
3491.50,0.0053
3491.25,0.0051
3491.00,0.0050
3490.75,0.0048
3490.50,0.0048
3490.25,0.0047
3490.00,0.0047
3489.75,0.0046
3489.50,0.0045
3489.25,0.0045
3489.00,0.0045
3488.75,0.0046
3488.50,0.0047
3488.25,0.0050
3488.00,0.0051
3487.75,0.0051
3487.50,0.0051
3487.25,0.0050
3487.00,0.0049
3486.75,0.0049
3486.50,0.0049
3486.25,0.0049
3486.00,0.0048
3485.75,0.0048
3485.50,0.0048
3485.25,0.0048
3485.00,0.0048
3484.75,0.0049
3484.50,0.0050
3484.25,0.0051
3484.00,0.0052
3483.75,0.0052
3483.50,0.0051
3483.25,0.0049
3483.00,0.0047
3482.75,0.0045
3482.50,0.0044
3482.25,0.0043
3482.00,0.0043
3481.75,0.0044
3481.50,0.0045
3481.25,0.0046
3481.00,0.0048
3480.75,0.0049
3480.50,0.0049
3480.25,0.0049
3480.00,0.0048
3479.75,0.0047
3479.50,0.0045
3479.25,0.0045
3479.00,0.0045
3478.75,0.0046
3478.50,0.0048
3478.25,0.0048
3478.00,0.0048
3477.75,0.0048
3477.50,0.0048
3477.25,0.0048
3477.00,0.0049
3476.75,0.0050
3476.50,0.0050
3476.25,0.0050
3476.00,0.0050
3475.75,0.0049
3475.50,0.0048
3475.25,0.0047
3475.00,0.0046
3474.75,0.0046
3474.50,0.0046
3474.25,0.0047
3474.00,0.0048
3473.75,0.0049
3473.50,0.0050
3473.25,0.0050
3473.00,0.0050
3472.75,0.0050
3472.50,0.0050
3472.25,0.0051
3472.00,0.0051
3471.75,0.0052
3471.50,0.0052
3471.25,0.0052
3471.00,0.0051
3470.75,0.0052
3470.50,0.0052
3470.25,0.0051
3470.00,0.0051
3469.75,0.0050
3469.50,0.0049
3469.25,0.0049
3469.00,0.0049
3468.75,0.0049
3468.50,0.0050
3468.25,0.0050
3468.00,0.0050
3467.75,0.0051
3467.50,0.0052
3467.25,0.0052
3467.00,0.0051
3466.75,0.0051
3466.50,0.0051
3466.25,0.0051
3466.00,0.0052
3465.75,0.0051
3465.50,0.0050
3465.25,0.0048
3465.00,0.0046
3464.75,0.0045
3464.50,0.0045
3464.25,0.0047
3464.00,0.0049
3463.75,0.0050
3463.50,0.0051
3463.25,0.0051
3463.00,0.0051
3462.75,0.0051
3462.50,0.0050
3462.25,0.0050
3462.00,0.0050
3461.75,0.0050
3461.50,0.0051
3461.25,0.0052
3461.00,0.0052
3460.75,0.0051
3460.50,0.0049
3460.25,0.0047
3460.00,0.0046
3459.75,0.0046
3459.50,0.0047
3459.25,0.0049
3459.00,0.0051
3458.75,0.0052
3458.50,0.0052
3458.25,0.0051
3458.00,0.0049
3457.75,0.0048
3457.50,0.0047
3457.25,0.0047
3457.00,0.0046
3456.75,0.0046
3456.50,0.0047
3456.25,0.0048
3456.00,0.0049
3455.75,0.0049
3455.50,0.0048
3455.25,0.0047
3455.00,0.0046
3454.75,0.0045
3454.50,0.0045
3454.25,0.0045
3454.00,0.0045
3453.75,0.0045
3453.50,0.0047
3453.25,0.0048
3453.00,0.0050
3452.75,0.0050
3452.50,0.0049
3452.25,0.0048
3452.00,0.0048
3451.75,0.0048
3451.50,0.0049
3451.25,0.0050
3451.00,0.0051
3450.75,0.0050
3450.50,0.0050
3450.25,0.0049
3450.00,0.0048
3449.75,0.0048
3449.50,0.0048
3449.25,0.0049
3449.00,0.0049
3448.75,0.0049
3448.50,0.0049
3448.25,0.0049
3448.00,0.0049
3447.75,0.0049
3447.50,0.0050
3447.25,0.0052
3447.00,0.0054
3446.75,0.0056
3446.50,0.0056
3446.25,0.0055
3446.00,0.0053
3445.75,0.0051
3445.50,0.0050
3445.25,0.0050
3445.00,0.0050
3444.75,0.0051
3444.50,0.0052
3444.25,0.0054
3444.00,0.0054
3443.75,0.0054
3443.50,0.0053
3443.25,0.0052
3443.00,0.0051
3442.75,0.0050
3442.50,0.0049
3442.25,0.0048
3442.00,0.0047
3441.75,0.0046
3441.50,0.0045
3441.25,0.0044
3441.00,0.0045
3440.75,0.0046
3440.50,0.0047
3440.25,0.0048
3440.00,0.0049
3439.75,0.0049
3439.50,0.0049
3439.25,0.0049
3439.00,0.0049
3438.75,0.0048
3438.50,0.0048
3438.25,0.0048
3438.00,0.0048
3437.75,0.0049
3437.50,0.0049
3437.25,0.0049
3437.00,0.0048
3436.75,0.0048
3436.50,0.0048
3436.25,0.0049
3436.00,0.0050
3435.75,0.0050
3435.50,0.0051
3435.25,0.0052
3435.00,0.0052
3434.75,0.0052
3434.50,0.0051
3434.25,0.0049
3434.00,0.0048
3433.75,0.0046
3433.50,0.0045
3433.25,0.0045
3433.00,0.0045
3432.75,0.0046
3432.50,0.0047
3432.25,0.0048
3432.00,0.0048
3431.75,0.0048
3431.50,0.0048
3431.25,0.0048
3431.00,0.0048
3430.75,0.0048
3430.50,0.0049
3430.25,0.0050
3430.00,0.0051
3429.75,0.0051
3429.50,0.0052
3429.25,0.0052
3429.00,0.0052
3428.75,0.0051
3428.50,0.0049
3428.25,0.0047
3428.00,0.0045
3427.75,0.0045
3427.50,0.0045
3427.25,0.0046
3427.00,0.0047
3426.75,0.0048
3426.50,0.0049
3426.25,0.0051
3426.00,0.0053
3425.75,0.0055
3425.50,0.0055
3425.25,0.0054
3425.00,0.0052
3424.75,0.0050
3424.50,0.0048
3424.25,0.0047
3424.00,0.0047
3423.75,0.0048
3423.50,0.0049
3423.25,0.0050
3423.00,0.0051
3422.75,0.0051
3422.50,0.0051
3422.25,0.0051
3422.00,0.0050
3421.75,0.0049
3421.50,0.0048
3421.25,0.0048
3421.00,0.0048
3420.75,0.0048
3420.50,0.0048
3420.25,0.0047
3420.00,0.0046
3419.75,0.0045
3419.50,0.0044
3419.25,0.0043
3419.00,0.0043
3418.75,0.0044
3418.50,0.0045
3418.25,0.0045
3418.00,0.0046
3417.75,0.0046
3417.50,0.0047
3417.25,0.0047
3417.00,0.0048
3416.75,0.0050
3416.50,0.0051
3416.25,0.0053
3416.00,0.0052
3415.75,0.0052
3415.50,0.0050
3415.25,0.0049
3415.00,0.0050
3414.75,0.0050
3414.50,0.0051
3414.25,0.0051
3414.00,0.0050
3413.75,0.0048
3413.50,0.0047
3413.25,0.0046
3413.00,0.0046
3412.75,0.0046
3412.50,0.0046
3412.25,0.0046
3412.00,0.0046
3411.75,0.0047
3411.50,0.0048
3411.25,0.0049
3411.00,0.0049
3410.75,0.0049
3410.50,0.0049
3410.25,0.0048
3410.00,0.0047
3409.75,0.0047
3409.50,0.0048
3409.25,0.0049
3409.00,0.0049
3408.75,0.0049
3408.50,0.0048
3408.25,0.0048
3408.00,0.0048
3407.75,0.0047
3407.50,0.0047
3407.25,0.0046
3407.00,0.0046
3406.75,0.0045
3406.50,0.0045
3406.25,0.0045
3406.00,0.0045
3405.75,0.0046
3405.50,0.0047
3405.25,0.0048
3405.00,0.0049
3404.75,0.0050
3404.50,0.0050
3404.25,0.0051
3404.00,0.0051
3403.75,0.0051
3403.50,0.0051
3403.25,0.0052
3403.00,0.0052
3402.75,0.0052
3402.50,0.0050
3402.25,0.0049
3402.00,0.0048
3401.75,0.0049
3401.50,0.0049
3401.25,0.0050
3401.00,0.0051
3400.75,0.0050
3400.50,0.0049
3400.25,0.0048
3400.00,0.0047
3399.75,0.0047
3399.50,0.0047
3399.25,0.0048
3399.00,0.0049
3398.75,0.0050
3398.50,0.0050
3398.25,0.0049
3398.00,0.0050
3397.75,0.0050
3397.50,0.0051
3397.25,0.0051
3397.00,0.0051
3396.75,0.0051
3396.50,0.0051
3396.25,0.0050
3396.00,0.0050
3395.75,0.0049
3395.50,0.0047
3395.25,0.0046
3395.00,0.0046
3394.75,0.0047
3394.50,0.0048
3394.25,0.0049
3394.00,0.0050
3393.75,0.0051
3393.50,0.0051
3393.25,0.0050
3393.00,0.0049
3392.75,0.0048
3392.50,0.0047
3392.25,0.0047
3392.00,0.0049
3391.75,0.0051
3391.50,0.0052
3391.25,0.0052
3391.00,0.0051
3390.75,0.0049
3390.50,0.0048
3390.25,0.0048
3390.00,0.0049
3389.75,0.0051
3389.50,0.0052
3389.25,0.0053
3389.00,0.0053
3388.75,0.0052
3388.50,0.0050
3388.25,0.0050
3388.00,0.0050
3387.75,0.0050
3387.50,0.0051
3387.25,0.0051
3387.00,0.0052
3386.75,0.0052
3386.50,0.0053
3386.25,0.0053
3386.00,0.0053
3385.75,0.0052
3385.50,0.0051
3385.25,0.0050
3385.00,0.0049
3384.75,0.0048
3384.50,0.0047
3384.25,0.0046
3384.00,0.0045
3383.75,0.0044
3383.50,0.0044
3383.25,0.0045
3383.00,0.0046
3382.75,0.0047
3382.50,0.0049
3382.25,0.0049
3382.00,0.0049
3381.75,0.0048
3381.50,0.0048
3381.25,0.0048
3381.00,0.0050
3380.75,0.0051
3380.50,0.0051
3380.25,0.0050
3380.00,0.0048
3379.75,0.0046
3379.50,0.0044
3379.25,0.0044
3379.00,0.0046
3378.75,0.0048
3378.50,0.0050
3378.25,0.0051
3378.00,0.0051
3377.75,0.0051
3377.50,0.0050
3377.25,0.0049
3377.00,0.0049
3376.75,0.0049
3376.50,0.0049
3376.25,0.0049
3376.00,0.0049
3375.75,0.0049
3375.50,0.0047
3375.25,0.0045
3375.00,0.0044
3374.75,0.0043
3374.50,0.0043
3374.25,0.0044
3374.00,0.0044
3373.75,0.0045
3373.50,0.0046
3373.25,0.0046
3373.00,0.0047
3372.75,0.0049
3372.50,0.0050
3372.25,0.0051
3372.00,0.0051
3371.75,0.0050
3371.50,0.0049
3371.25,0.0048
3371.00,0.0047
3370.75,0.0048
3370.50,0.0049
3370.25,0.0050
3370.00,0.0051
3369.75,0.0051
3369.50,0.0051
3369.25,0.0050
3369.00,0.0048
3368.75,0.0046
3368.50,0.0045
3368.25,0.0044
3368.00,0.0045
3367.75,0.0046
3367.50,0.0048
3367.25,0.0050
3367.00,0.0051
3366.75,0.0051
3366.50,0.0052
3366.25,0.0052
3366.00,0.0051
3365.75,0.0051
3365.50,0.0050
3365.25,0.0049
3365.00,0.0048
3364.75,0.0048
3364.50,0.0048
3364.25,0.0048
3364.00,0.0049
3363.75,0.0050
3363.50,0.0050
3363.25,0.0050
3363.00,0.0051
3362.75,0.0051
3362.50,0.0052
3362.25,0.0052
3362.00,0.0052
3361.75,0.0051
3361.50,0.0051
3361.25,0.0050
3361.00,0.0049
3360.75,0.0049
3360.50,0.0049
3360.25,0.0049
3360.00,0.0050
3359.75,0.0051
3359.50,0.0051
3359.25,0.0050
3359.00,0.0048
3358.75,0.0048
3358.50,0.0049
3358.25,0.0050
3358.00,0.0051
3357.75,0.0051
3357.50,0.0049
3357.25,0.0047
3357.00,0.0046
3356.75,0.0046
3356.50,0.0047
3356.25,0.0050
3356.00,0.0052
3355.75,0.0054
3355.50,0.0055
3355.25,0.0053
3355.00,0.0051
3354.75,0.0049
3354.50,0.0048
3354.25,0.0048
3354.00,0.0047
3353.75,0.0046
3353.50,0.0045
3353.25,0.0044
3353.00,0.0044
3352.75,0.0044
3352.50,0.0044
3352.25,0.0044
3352.00,0.0046
3351.75,0.0047
3351.50,0.0048
3351.25,0.0049
3351.00,0.0049
3350.75,0.0049
3350.50,0.0048
3350.25,0.0048
3350.00,0.0049
3349.75,0.0050
3349.50,0.0050
3349.25,0.0051
3349.00,0.0051
3348.75,0.0051
3348.50,0.0050
3348.25,0.0049
3348.00,0.0048
3347.75,0.0047
3347.50,0.0046
3347.25,0.0046
3347.00,0.0046
3346.75,0.0044
3346.50,0.0043
3346.25,0.0043
3346.00,0.0045
3345.75,0.0047
3345.50,0.0050
3345.25,0.0052
3345.00,0.0054
3344.75,0.0055
3344.50,0.0054
3344.25,0.0052
3344.00,0.0050
3343.75,0.0048
3343.50,0.0047
3343.25,0.0047
3343.00,0.0048
3342.75,0.0050
3342.50,0.0052
3342.25,0.0052
3342.00,0.0051
3341.75,0.0049
3341.50,0.0047
3341.25,0.0046
3341.00,0.0047
3340.75,0.0048
3340.50,0.0049
3340.25,0.0050
3340.00,0.0049
3339.75,0.0049
3339.50,0.0049
3339.25,0.0049
3339.00,0.0049
3338.75,0.0049
3338.50,0.0049
3338.25,0.0049
3338.00,0.0049
3337.75,0.0049
3337.50,0.0050
3337.25,0.0050
3337.00,0.0050
3336.75,0.0050
3336.50,0.0049
3336.25,0.0049
3336.00,0.0048
3335.75,0.0047
3335.50,0.0046
3335.25,0.0045
3335.00,0.0045
3334.75,0.0046
3334.50,0.0047
3334.25,0.0048
3334.00,0.0050
3333.75,0.0052
3333.50,0.0053
3333.25,0.0052
3333.00,0.0051
3332.75,0.0050
3332.50,0.0049
3332.25,0.0048
3332.00,0.0047
3331.75,0.0046
3331.50,0.0045
3331.25,0.0044
3331.00,0.0043
3330.75,0.0043
3330.50,0.0044
3330.25,0.0045
3330.00,0.0046
3329.75,0.0048
3329.50,0.0049
3329.25,0.0050
3329.00,0.0050
3328.75,0.0050
3328.50,0.0050
3328.25,0.0049
3328.00,0.0048
3327.75,0.0047
3327.50,0.0047
3327.25,0.0048
3327.00,0.0049
3326.75,0.0049
3326.50,0.0049
3326.25,0.0048
3326.00,0.0047
3325.75,0.0046
3325.50,0.0045
3325.25,0.0044
3325.00,0.0044
3324.75,0.0045
3324.50,0.0047
3324.25,0.0049
3324.00,0.0050
3323.75,0.0051
3323.50,0.0051
3323.25,0.0051
3323.00,0.0050
3322.75,0.0048
3322.50,0.0047
3322.25,0.0046
3322.00,0.0046
3321.75,0.0046
3321.50,0.0047
3321.25,0.0046
3321.00,0.0046
3320.75,0.0046
3320.50,0.0046
3320.25,0.0047
3320.00,0.0047
3319.75,0.0047
3319.50,0.0047
3319.25,0.0047
3319.00,0.0047
3318.75,0.0048
3318.50,0.0048
3318.25,0.0048
3318.00,0.0048
3317.75,0.0049
3317.50,0.0048
3317.25,0.0048
3317.00,0.0047
3316.75,0.0047
3316.50,0.0046
3316.25,0.0046
3316.00,0.0046
3315.75,0.0047
3315.50,0.0047
3315.25,0.0048
3315.00,0.0049
3314.75,0.0049
3314.50,0.0050
3314.25,0.0050
3314.00,0.0049
3313.75,0.0049
3313.50,0.0048
3313.25,0.0047
3313.00,0.0047
3312.75,0.0046
3312.50,0.0046
3312.25,0.0046
3312.00,0.0046
3311.75,0.0046
3311.50,0.0047
3311.25,0.0047
3311.00,0.0048
3310.75,0.0048
3310.50,0.0049
3310.25,0.0049
3310.00,0.0050
3309.75,0.0050
3309.50,0.0050
3309.25,0.0048
3309.00,0.0046
3308.75,0.0045
3308.50,0.0044
3308.25,0.0045
3308.00,0.0046
3307.75,0.0047
3307.50,0.0048
3307.25,0.0048
3307.00,0.0049
3306.75,0.0050
3306.50,0.0051
3306.25,0.0051
3306.00,0.0051
3305.75,0.0051
3305.50,0.0050
3305.25,0.0050
3305.00,0.0050
3304.75,0.0050
3304.50,0.0051
3304.25,0.0051
3304.00,0.0051
3303.75,0.0050
3303.50,0.0049
3303.25,0.0049
3303.00,0.0048
3302.75,0.0049
3302.50,0.0049
3302.25,0.0049
3302.00,0.0048
3301.75,0.0047
3301.50,0.0046
3301.25,0.0044
3301.00,0.0044
3300.75,0.0044
3300.50,0.0045
3300.25,0.0045
3300.00,0.0045
3299.75,0.0045
3299.50,0.0045
3299.25,0.0046
3299.00,0.0047
3298.75,0.0049
3298.50,0.0050
3298.25,0.0051
3298.00,0.0051
3297.75,0.0050
3297.50,0.0050
3297.25,0.0049
3297.00,0.0048
3296.75,0.0047
3296.50,0.0046
3296.25,0.0046
3296.00,0.0046
3295.75,0.0047
3295.50,0.0049
3295.25,0.0050
3295.00,0.0051
3294.75,0.0050
3294.50,0.0049
3294.25,0.0049
3294.00,0.0048
3293.75,0.0049
3293.50,0.0050
3293.25,0.0050
3293.00,0.0049
3292.75,0.0047
3292.50,0.0044
3292.25,0.0042
3292.00,0.0042
3291.75,0.0042
3291.50,0.0044
3291.25,0.0046
3291.00,0.0049
3290.75,0.0051
3290.50,0.0052
3290.25,0.0052
3290.00,0.0052
3289.75,0.0052
3289.50,0.0051
3289.25,0.0050
3289.00,0.0048
3288.75,0.0046
3288.50,0.0045
3288.25,0.0044
3288.00,0.0045
3287.75,0.0046
3287.50,0.0046
3287.25,0.0046
3287.00,0.0045
3286.75,0.0045
3286.50,0.0045
3286.25,0.0046
3286.00,0.0047
3285.75,0.0048
3285.50,0.0048
3285.25,0.0047
3285.00,0.0047
3284.75,0.0046
3284.50,0.0046
3284.25,0.0046
3284.00,0.0046
3283.75,0.0046
3283.50,0.0046
3283.25,0.0046
3283.00,0.0047
3282.75,0.0046
3282.50,0.0045
3282.25,0.0045
3282.00,0.0046
3281.75,0.0047
3281.50,0.0049
3281.25,0.0051
3281.00,0.0052
3280.75,0.0052
3280.50,0.0052
3280.25,0.0051
3280.00,0.0050
3279.75,0.0049
3279.50,0.0048
3279.25,0.0046
3279.00,0.0046
3278.75,0.0046
3278.50,0.0048
3278.25,0.0051
3278.00,0.0052
3277.75,0.0052
3277.50,0.0050
3277.25,0.0048
3277.00,0.0045
3276.75,0.0043
3276.50,0.0042
3276.25,0.0042
3276.00,0.0043
3275.75,0.0044
3275.50,0.0045
3275.25,0.0046
3275.00,0.0046
3274.75,0.0046
3274.50,0.0046
3274.25,0.0046
3274.00,0.0046
3273.75,0.0046
3273.50,0.0046
3273.25,0.0046
3273.00,0.0045
3272.75,0.0045
3272.50,0.0045
3272.25,0.0046
3272.00,0.0048
3271.75,0.0050
3271.50,0.0050
3271.25,0.0049
3271.00,0.0047
3270.75,0.0045
3270.50,0.0045
3270.25,0.0045
3270.00,0.0045
3269.75,0.0046
3269.50,0.0047
3269.25,0.0047
3269.00,0.0048
3268.75,0.0047
3268.50,0.0047
3268.25,0.0047
3268.00,0.0047
3267.75,0.0048
3267.50,0.0048
3267.25,0.0049
3267.00,0.0049
3266.75,0.0050
3266.50,0.0050
3266.25,0.0050
3266.00,0.0050
3265.75,0.0050
3265.50,0.0051
3265.25,0.0050
3265.00,0.0050
3264.75,0.0048
3264.50,0.0047
3264.25,0.0047
3264.00,0.0047
3263.75,0.0048
3263.50,0.0048
3263.25,0.0047
3263.00,0.0045
3262.75,0.0044
3262.50,0.0043
3262.25,0.0043
3262.00,0.0043
3261.75,0.0044
3261.50,0.0044
3261.25,0.0045
3261.00,0.0045
3260.75,0.0046
3260.50,0.0046
3260.25,0.0046
3260.00,0.0045
3259.75,0.0044
3259.50,0.0044
3259.25,0.0045
3259.00,0.0046
3258.75,0.0049
3258.50,0.0051
3258.25,0.0052
3258.00,0.0053
3257.75,0.0052
3257.50,0.0050
3257.25,0.0049
3257.00,0.0047
3256.75,0.0047
3256.50,0.0048
3256.25,0.0049
3256.00,0.0050
3255.75,0.0051
3255.50,0.0051
3255.25,0.0050
3255.00,0.0049
3254.75,0.0049
3254.50,0.0049
3254.25,0.0049
3254.00,0.0049
3253.75,0.0048
3253.50,0.0048
3253.25,0.0048
3253.00,0.0049
3252.75,0.0049
3252.50,0.0050
3252.25,0.0050
3252.00,0.0050
3251.75,0.0050
3251.50,0.0050
3251.25,0.0050
3251.00,0.0049
3250.75,0.0049
3250.50,0.0048
3250.25,0.0047
3250.00,0.0047
3249.75,0.0048
3249.50,0.0049
3249.25,0.0050
3249.00,0.0051
3248.75,0.0051
3248.50,0.0050
3248.25,0.0049
3248.00,0.0048
3247.75,0.0047
3247.50,0.0047
3247.25,0.0047
3247.00,0.0048
3246.75,0.0049
3246.50,0.0049
3246.25,0.0050
3246.00,0.0049
3245.75,0.0048
3245.50,0.0047
3245.25,0.0046
3245.00,0.0046
3244.75,0.0046
3244.50,0.0046
3244.25,0.0046
3244.00,0.0045
3243.75,0.0045
3243.50,0.0045
3243.25,0.0046
3243.00,0.0046
3242.75,0.0046
3242.50,0.0046
3242.25,0.0046
3242.00,0.0045
3241.75,0.0045
3241.50,0.0045
3241.25,0.0046
3241.00,0.0047
3240.75,0.0048
3240.50,0.0049
3240.25,0.0049
3240.00,0.0048
3239.75,0.0048
3239.50,0.0048
3239.25,0.0047
3239.00,0.0046
3238.75,0.0044
3238.50,0.0043
3238.25,0.0043
3238.00,0.0043
3237.75,0.0045
3237.50,0.0046
3237.25,0.0047
3237.00,0.0046
3236.75,0.0045
3236.50,0.0044
3236.25,0.0043
3236.00,0.0043
3235.75,0.0044
3235.50,0.0045
3235.25,0.0046
3235.00,0.0046
3234.75,0.0046
3234.50,0.0047
3234.25,0.0047
3234.00,0.0048
3233.75,0.0047
3233.50,0.0047
3233.25,0.0046
3233.00,0.0046
3232.75,0.0046
3232.50,0.0047
3232.25,0.0048
3232.00,0.0048
3231.75,0.0047
3231.50,0.0045
3231.25,0.0044
3231.00,0.0044
3230.75,0.0044
3230.50,0.0045
3230.25,0.0046
3230.00,0.0048
3229.75,0.0048
3229.50,0.0048
3229.25,0.0048
3229.00,0.0048
3228.75,0.0048
3228.50,0.0049
3228.25,0.0049
3228.00,0.0050
3227.75,0.0050
3227.50,0.0051
3227.25,0.0051
3227.00,0.0052
3226.75,0.0052
3226.50,0.0052
3226.25,0.0052
3226.00,0.0051
3225.75,0.0050
3225.50,0.0050
3225.25,0.0051
3225.00,0.0052
3224.75,0.0052
3224.50,0.0051
3224.25,0.0049
3224.00,0.0047
3223.75,0.0045
3223.50,0.0044
3223.25,0.0045
3223.00,0.0046
3222.75,0.0047
3222.50,0.0048
3222.25,0.0047
3222.00,0.0046
3221.75,0.0046
3221.50,0.0046
3221.25,0.0047
3221.00,0.0048
3220.75,0.0049
3220.50,0.0049
3220.25,0.0049
3220.00,0.0049
3219.75,0.0049
3219.50,0.0049
3219.25,0.0048
3219.00,0.0047
3218.75,0.0046
3218.50,0.0045
3218.25,0.0044
3218.00,0.0043
3217.75,0.0043
3217.50,0.0044
3217.25,0.0045
3217.00,0.0046
3216.75,0.0047
3216.50,0.0047
3216.25,0.0048
3216.00,0.0048
3215.75,0.0048
3215.50,0.0048
3215.25,0.0048
3215.00,0.0049
3214.75,0.0048
3214.50,0.0047
3214.25,0.0046
3214.00,0.0046
3213.75,0.0045
3213.50,0.0045
3213.25,0.0046
3213.00,0.0046
3212.75,0.0046
3212.50,0.0046
3212.25,0.0045
3212.00,0.0045
3211.75,0.0045
3211.50,0.0046
3211.25,0.0046
3211.00,0.0046
3210.75,0.0046
3210.50,0.0046
3210.25,0.0047
3210.00,0.0048
3209.75,0.0050
3209.50,0.0050
3209.25,0.0051
3209.00,0.0050
3208.75,0.0048
3208.50,0.0046
3208.25,0.0045
3208.00,0.0044
3207.75,0.0045
3207.50,0.0047
3207.25,0.0049
3207.00,0.0050
3206.75,0.0050
3206.50,0.0050
3206.25,0.0049
3206.00,0.0049
3205.75,0.0049
3205.50,0.0048
3205.25,0.0048
3205.00,0.0047
3204.75,0.0047
3204.50,0.0047
3204.25,0.0047
3204.00,0.0047
3203.75,0.0046
3203.50,0.0046
3203.25,0.0046
3203.00,0.0047
3202.75,0.0048
3202.50,0.0049
3202.25,0.0049
3202.00,0.0048
3201.75,0.0048
3201.50,0.0048
3201.25,0.0048
3201.00,0.0048
3200.75,0.0049
3200.50,0.0049
3200.25,0.0049
3200.00,0.0047
3199.75,0.0046
3199.50,0.0044
3199.25,0.0043
3199.00,0.0042
3198.75,0.0041
3198.50,0.0042
3198.25,0.0044
3198.00,0.0046
3197.75,0.0047
3197.50,0.0048
3197.25,0.0049
3197.00,0.0049
3196.75,0.0050
3196.50,0.0050
3196.25,0.0049
3196.00,0.0047
3195.75,0.0046
3195.50,0.0045
3195.25,0.0045
3195.00,0.0045
3194.75,0.0046
3194.50,0.0047
3194.25,0.0047
3194.00,0.0048
3193.75,0.0049
3193.50,0.0050
3193.25,0.0050
3193.00,0.0049
3192.75,0.0049
3192.50,0.0048
3192.25,0.0049
3192.00,0.0049
3191.75,0.0049
3191.50,0.0048
3191.25,0.0048
3191.00,0.0048
3190.75,0.0049
3190.50,0.0048
3190.25,0.0048
3190.00,0.0047
3189.75,0.0047
3189.50,0.0047
3189.25,0.0047
3189.00,0.0048
3188.75,0.0048
3188.50,0.0048
3188.25,0.0048
3188.00,0.0048
3187.75,0.0048
3187.50,0.0049
3187.25,0.0049
3187.00,0.0049
3186.75,0.0049
3186.50,0.0048
3186.25,0.0048
3186.00,0.0047
3185.75,0.0047
3185.50,0.0047
3185.25,0.0046
3185.00,0.0046
3184.75,0.0047
3184.50,0.0047
3184.25,0.0048
3184.00,0.0048
3183.75,0.0048
3183.50,0.0048
3183.25,0.0047
3183.00,0.0046
3182.75,0.0046
3182.50,0.0045
3182.25,0.0045
3182.00,0.0045
3181.75,0.0046
3181.50,0.0047
3181.25,0.0047
3181.00,0.0048
3180.75,0.0048
3180.50,0.0048
3180.25,0.0048
3180.00,0.0048
3179.75,0.0048
3179.50,0.0049
3179.25,0.0049
3179.00,0.0048
3178.75,0.0048
3178.50,0.0048
3178.25,0.0048
3178.00,0.0048
3177.75,0.0048
3177.50,0.0047
3177.25,0.0047
3177.00,0.0047
3176.75,0.0047
3176.50,0.0047
3176.25,0.0048
3176.00,0.0050
3175.75,0.0051
3175.50,0.0051
3175.25,0.0051
3175.00,0.0051
3174.75,0.0050
3174.50,0.0050
3174.25,0.0050
3174.00,0.0050
3173.75,0.0050
3173.50,0.0049
3173.25,0.0048
3173.00,0.0048
3172.75,0.0047
3172.50,0.0047
3172.25,0.0047
3172.00,0.0047
3171.75,0.0046
3171.50,0.0045
3171.25,0.0045
3171.00,0.0046
3170.75,0.0046
3170.50,0.0046
3170.25,0.0046
3170.00,0.0045
3169.75,0.0045
3169.50,0.0045
3169.25,0.0045
3169.00,0.0046
3168.75,0.0046
3168.50,0.0047
3168.25,0.0048
3168.00,0.0049
3167.75,0.0050
3167.50,0.0051
3167.25,0.0051
3167.00,0.0051
3166.75,0.0051
3166.50,0.0050
3166.25,0.0049
3166.00,0.0048
3165.75,0.0048
3165.50,0.0048
3165.25,0.0048
3165.00,0.0048
3164.75,0.0048
3164.50,0.0047
3164.25,0.0046
3164.00,0.0045
3163.75,0.0045
3163.50,0.0045
3163.25,0.0045
3163.00,0.0045
3162.75,0.0046
3162.50,0.0047
3162.25,0.0048
3162.00,0.0048
3161.75,0.0048
3161.50,0.0047
3161.25,0.0046
3161.00,0.0046
3160.75,0.0047
3160.50,0.0048
3160.25,0.0049
3160.00,0.0049
3159.75,0.0049
3159.50,0.0048
3159.25,0.0048
3159.00,0.0048
3158.75,0.0048
3158.50,0.0048
3158.25,0.0048
3158.00,0.0047
3157.75,0.0046
3157.50,0.0046
3157.25,0.0046
3157.00,0.0046
3156.75,0.0047
3156.50,0.0049
3156.25,0.0050
3156.00,0.0051
3155.75,0.0052
3155.50,0.0052
3155.25,0.0052
3155.00,0.0052
3154.75,0.0052
3154.50,0.0051
3154.25,0.0049
3154.00,0.0047
3153.75,0.0045
3153.50,0.0044
3153.25,0.0044
3153.00,0.0044
3152.75,0.0046
3152.50,0.0048
3152.25,0.0050
3152.00,0.0052
3151.75,0.0052
3151.50,0.0051
3151.25,0.0049
3151.00,0.0048
3150.75,0.0047
3150.50,0.0046
3150.25,0.0047
3150.00,0.0047
3149.75,0.0048
3149.50,0.0048
3149.25,0.0048
3149.00,0.0048
3148.75,0.0047
3148.50,0.0046
3148.25,0.0046
3148.00,0.0047
3147.75,0.0048
3147.50,0.0049
3147.25,0.0049
3147.00,0.0048
3146.75,0.0047
3146.50,0.0047
3146.25,0.0046
3146.00,0.0046
3145.75,0.0046
3145.50,0.0046
3145.25,0.0047
3145.00,0.0048
3144.75,0.0048
3144.50,0.0048
3144.25,0.0048
3144.00,0.0048
3143.75,0.0048
3143.50,0.0049
3143.25,0.0050
3143.00,0.0051
3142.75,0.0051
3142.50,0.0050
3142.25,0.0048
3142.00,0.0047
3141.75,0.0047
3141.50,0.0048
3141.25,0.0049
3141.00,0.0051
3140.75,0.0052
3140.50,0.0052
3140.25,0.0051
3140.00,0.0050
3139.75,0.0050
3139.50,0.0049
3139.25,0.0050
3139.00,0.0050
3138.75,0.0050
3138.50,0.0049
3138.25,0.0048
3138.00,0.0047
3137.75,0.0045
3137.50,0.0044
3137.25,0.0044
3137.00,0.0045
3136.75,0.0046
3136.50,0.0047
3136.25,0.0048
3136.00,0.0048
3135.75,0.0047
3135.50,0.0046
3135.25,0.0046
3135.00,0.0046
3134.75,0.0047
3134.50,0.0048
3134.25,0.0049
3134.00,0.0050
3133.75,0.0049
3133.50,0.0048
3133.25,0.0047
3133.00,0.0047
3132.75,0.0048
3132.50,0.0049
3132.25,0.0050
3132.00,0.0050
3131.75,0.0049
3131.50,0.0048
3131.25,0.0047
3131.00,0.0047
3130.75,0.0048
3130.50,0.0048
3130.25,0.0049
3130.00,0.0049
3129.75,0.0050
3129.50,0.0050
3129.25,0.0049
3129.00,0.0049
3128.75,0.0048
3128.50,0.0047
3128.25,0.0046
3128.00,0.0046
3127.75,0.0047
3127.50,0.0049
3127.25,0.0051
3127.00,0.0052
3126.75,0.0052
3126.50,0.0053
3126.25,0.0052
3126.00,0.0052
3125.75,0.0050
3125.50,0.0049
3125.25,0.0048
3125.00,0.0048
3124.75,0.0048
3124.50,0.0049
3124.25,0.0050
3124.00,0.0050
3123.75,0.0050
3123.50,0.0050
3123.25,0.0049
3123.00,0.0049
3122.75,0.0048
3122.50,0.0048
3122.25,0.0048
3122.00,0.0049
3121.75,0.0050
3121.50,0.0051
3121.25,0.0052
3121.00,0.0052
3120.75,0.0052
3120.50,0.0052
3120.25,0.0051
3120.00,0.0050
3119.75,0.0049
3119.50,0.0048
3119.25,0.0047
3119.00,0.0047
3118.75,0.0047
3118.50,0.0047
3118.25,0.0047
3118.00,0.0047
3117.75,0.0047
3117.50,0.0047
3117.25,0.0047
3117.00,0.0048
3116.75,0.0049
3116.50,0.0049
3116.25,0.0050
3116.00,0.0050
3115.75,0.0049
3115.50,0.0049
3115.25,0.0048
3115.00,0.0048
3114.75,0.0048
3114.50,0.0048
3114.25,0.0048
3114.00,0.0048
3113.75,0.0049
3113.50,0.0050
3113.25,0.0050
3113.00,0.0050
3112.75,0.0048
3112.50,0.0047
3112.25,0.0046
3112.00,0.0046
3111.75,0.0048
3111.50,0.0049
3111.25,0.0050
3111.00,0.0050
3110.75,0.0051
3110.50,0.0051
3110.25,0.0052
3110.00,0.0053
3109.75,0.0054
3109.50,0.0054
3109.25,0.0052
3109.00,0.0050
3108.75,0.0047
3108.50,0.0045
3108.25,0.0044
3108.00,0.0044
3107.75,0.0045
3107.50,0.0046
3107.25,0.0048
3107.00,0.0049
3106.75,0.0049
3106.50,0.0049
3106.25,0.0049
3106.00,0.0049
3105.75,0.0049
3105.50,0.0050
3105.25,0.0049
3105.00,0.0048
3104.75,0.0046
3104.50,0.0045
3104.25,0.0044
3104.00,0.0044
3103.75,0.0045
3103.50,0.0045
3103.25,0.0046
3103.00,0.0047
3102.75,0.0048
3102.50,0.0049
3102.25,0.0049
3102.00,0.0049
3101.75,0.0048
3101.50,0.0048
3101.25,0.0047
3101.00,0.0047
3100.75,0.0047
3100.50,0.0047
3100.25,0.0048
3100.00,0.0049
3099.75,0.0050
3099.50,0.0050
3099.25,0.0050
3099.00,0.0049
3098.75,0.0048
3098.50,0.0048
3098.25,0.0048
3098.00,0.0047
3097.75,0.0047
3097.50,0.0047
3097.25,0.0047
3097.00,0.0047
3096.75,0.0047
3096.50,0.0048
3096.25,0.0049
3096.00,0.0049
3095.75,0.0049
3095.50,0.0049
3095.25,0.0048
3095.00,0.0048
3094.75,0.0047
3094.50,0.0046
3094.25,0.0045
3094.00,0.0044
3093.75,0.0044
3093.50,0.0044
3093.25,0.0046
3093.00,0.0047
3092.75,0.0048
3092.50,0.0048
3092.25,0.0048
3092.00,0.0047
3091.75,0.0046
3091.50,0.0046
3091.25,0.0046
3091.00,0.0047
3090.75,0.0048
3090.50,0.0048
3090.25,0.0046
3090.00,0.0045
3089.75,0.0043
3089.50,0.0042
3089.25,0.0041
3089.00,0.0042
3088.75,0.0044
3088.50,0.0046
3088.25,0.0049
3088.00,0.0051
3087.75,0.0051
3087.50,0.0050
3087.25,0.0048
3087.00,0.0046
3086.75,0.0045
3086.50,0.0045
3086.25,0.0046
3086.00,0.0047
3085.75,0.0047
3085.50,0.0047
3085.25,0.0047
3085.00,0.0047
3084.75,0.0047
3084.50,0.0047
3084.25,0.0047
3084.00,0.0047
3083.75,0.0046
3083.50,0.0046
3083.25,0.0045
3083.00,0.0044
3082.75,0.0044
3082.50,0.0044
3082.25,0.0044
3082.00,0.0045
3081.75,0.0045
3081.50,0.0045
3081.25,0.0045
3081.00,0.0045
3080.75,0.0045
3080.50,0.0045
3080.25,0.0046
3080.00,0.0046
3079.75,0.0046
3079.50,0.0046
3079.25,0.0046
3079.00,0.0046
3078.75,0.0046
3078.50,0.0046
3078.25,0.0046
3078.00,0.0047
3077.75,0.0049
3077.50,0.0051
3077.25,0.0053
3077.00,0.0054
3076.75,0.0055
3076.50,0.0054
3076.25,0.0052
3076.00,0.0050
3075.75,0.0048
3075.50,0.0047
3075.25,0.0047
3075.00,0.0046
3074.75,0.0045
3074.50,0.0045
3074.25,0.0045
3074.00,0.0045
3073.75,0.0046
3073.50,0.0047
3073.25,0.0047
3073.00,0.0047
3072.75,0.0047
3072.50,0.0047
3072.25,0.0047
3072.00,0.0048
3071.75,0.0048
3071.50,0.0048
3071.25,0.0049
3071.00,0.0049
3070.75,0.0049
3070.50,0.0049
3070.25,0.0050
3070.00,0.0049
3069.75,0.0048
3069.50,0.0047
3069.25,0.0045
3069.00,0.0044
3068.75,0.0043
3068.50,0.0044
3068.25,0.0044
3068.00,0.0045
3067.75,0.0045
3067.50,0.0046
3067.25,0.0047
3067.00,0.0048
3066.75,0.0049
3066.50,0.0049
3066.25,0.0048
3066.00,0.0047
3065.75,0.0046
3065.50,0.0045
3065.25,0.0045
3065.00,0.0045
3064.75,0.0045
3064.50,0.0045
3064.25,0.0046
3064.00,0.0046
3063.75,0.0047
3063.50,0.0048
3063.25,0.0049
3063.00,0.0048
3062.75,0.0047
3062.50,0.0046
3062.25,0.0046
3062.00,0.0045
3061.75,0.0045
3061.50,0.0045
3061.25,0.0045
3061.00,0.0046
3060.75,0.0047
3060.50,0.0048
3060.25,0.0048
3060.00,0.0049
3059.75,0.0049
3059.50,0.0050
3059.25,0.0051
3059.00,0.0051
3058.75,0.0052
3058.50,0.0051
3058.25,0.0051
3058.00,0.0051
3057.75,0.0051
3057.50,0.0052
3057.25,0.0052
3057.00,0.0051
3056.75,0.0050
3056.50,0.0048
3056.25,0.0047
3056.00,0.0047
3055.75,0.0048
3055.50,0.0049
3055.25,0.0051
3055.00,0.0053
3054.75,0.0054
3054.50,0.0054
3054.25,0.0054
3054.00,0.0052
3053.75,0.0051
3053.50,0.0050
3053.25,0.0049
3053.00,0.0049
3052.75,0.0049
3052.50,0.0049
3052.25,0.0049
3052.00,0.0049
3051.75,0.0049
3051.50,0.0048
3051.25,0.0048
3051.00,0.0048
3050.75,0.0048
3050.50,0.0048
3050.25,0.0048
3050.00,0.0048
3049.75,0.0047
3049.50,0.0047
3049.25,0.0047
3049.00,0.0046
3048.75,0.0046
3048.50,0.0045
3048.25,0.0045
3048.00,0.0046
3047.75,0.0046
3047.50,0.0046
3047.25,0.0045
3047.00,0.0044
3046.75,0.0043
3046.50,0.0042
3046.25,0.0041
3046.00,0.0041
3045.75,0.0042
3045.50,0.0042
3045.25,0.0043
3045.00,0.0044
3044.75,0.0046
3044.50,0.0047
3044.25,0.0047
3044.00,0.0045
3043.75,0.0043
3043.50,0.0041
3043.25,0.0039
3043.00,0.0039
3042.75,0.0040
3042.50,0.0041
3042.25,0.0042
3042.00,0.0043
3041.75,0.0044
3041.50,0.0045
3041.25,0.0045
3041.00,0.0044
3040.75,0.0044
3040.50,0.0044
3040.25,0.0044
3040.00,0.0045
3039.75,0.0044
3039.50,0.0043
3039.25,0.0041
3039.00,0.0040
3038.75,0.0040
3038.50,0.0041
3038.25,0.0043
3038.00,0.0044
3037.75,0.0045
3037.50,0.0045
3037.25,0.0044
3037.00,0.0044
3036.75,0.0043
3036.50,0.0044
3036.25,0.0044
3036.00,0.0045
3035.75,0.0046
3035.50,0.0046
3035.25,0.0046
3035.00,0.0044
3034.75,0.0042
3034.50,0.0040
3034.25,0.0040
3034.00,0.0040
3033.75,0.0041
3033.50,0.0042
3033.25,0.0043
3033.00,0.0042
3032.75,0.0041
3032.50,0.0040
3032.25,0.0040
3032.00,0.0041
3031.75,0.0042
3031.50,0.0043
3031.25,0.0044
3031.00,0.0044
3030.75,0.0044
3030.50,0.0045
3030.25,0.0046
3030.00,0.0047
3029.75,0.0047
3029.50,0.0047
3029.25,0.0047
3029.00,0.0046
3028.75,0.0045
3028.50,0.0045
3028.25,0.0045
3028.00,0.0045
3027.75,0.0045
3027.50,0.0045
3027.25,0.0045
3027.00,0.0046
3026.75,0.0046
3026.50,0.0047
3026.25,0.0047
3026.00,0.0047
3025.75,0.0046
3025.50,0.0046
3025.25,0.0045
3025.00,0.0045
3024.75,0.0046
3024.50,0.0046
3024.25,0.0047
3024.00,0.0048
3023.75,0.0047
3023.50,0.0047
3023.25,0.0046
3023.00,0.0045
3022.75,0.0046
3022.50,0.0046
3022.25,0.0047
3022.00,0.0048
3021.75,0.0049
3021.50,0.0049
3021.25,0.0049
3021.00,0.0048
3020.75,0.0048
3020.50,0.0048
3020.25,0.0049
3020.00,0.0049
3019.75,0.0050
3019.50,0.0049
3019.25,0.0049
3019.00,0.0049
3018.75,0.0049
3018.50,0.0049
3018.25,0.0049
3018.00,0.0049
3017.75,0.0050
3017.50,0.0051
3017.25,0.0053
3017.00,0.0054
3016.75,0.0054
3016.50,0.0053
3016.25,0.0051
3016.00,0.0050
3015.75,0.0049
3015.50,0.0049
3015.25,0.0050
3015.00,0.0051
3014.75,0.0052
3014.50,0.0053
3014.25,0.0054
3014.00,0.0055
3013.75,0.0055
3013.50,0.0054
3013.25,0.0053
3013.00,0.0051
3012.75,0.0051
3012.50,0.0051
3012.25,0.0051
3012.00,0.0052
3011.75,0.0052
3011.50,0.0053
3011.25,0.0054
3011.00,0.0055
3010.75,0.0056
3010.50,0.0057
3010.25,0.0057
3010.00,0.0056
3009.75,0.0055
3009.50,0.0055
3009.25,0.0054
3009.00,0.0054
3008.75,0.0054
3008.50,0.0054
3008.25,0.0053
3008.00,0.0053
3007.75,0.0052
3007.50,0.0052
3007.25,0.0051
3007.00,0.0051
3006.75,0.0050
3006.50,0.0050
3006.25,0.0051
3006.00,0.0052
3005.75,0.0053
3005.50,0.0053
3005.25,0.0053
3005.00,0.0053
3004.75,0.0053
3004.50,0.0054
3004.25,0.0056
3004.00,0.0057
3003.75,0.0057
3003.50,0.0057
3003.25,0.0056
3003.00,0.0056
3002.75,0.0055
3002.50,0.0055
3002.25,0.0055
3002.00,0.0056
3001.75,0.0058
3001.50,0.0058
3001.25,0.0058
3001.00,0.0058
3000.75,0.0057
3000.50,0.0056
3000.25,0.0055
3000.00,0.0055
2999.75,0.0054
2999.50,0.0053
2999.25,0.0052
2999.00,0.0052
2998.75,0.0053
2998.50,0.0054
2998.25,0.0056
2998.00,0.0057
2997.75,0.0057
2997.50,0.0058
2997.25,0.0058
2997.00,0.0060
2996.75,0.0061
2996.50,0.0062
2996.25,0.0063
2996.00,0.0064
2995.75,0.0065
2995.50,0.0065
2995.25,0.0065
2995.00,0.0065
2994.75,0.0063
2994.50,0.0062
2994.25,0.0060
2994.00,0.0058
2993.75,0.0059
2993.50,0.0060
2993.25,0.0061
2993.00,0.0063
2992.75,0.0064
2992.50,0.0065
2992.25,0.0065
2992.00,0.0065
2991.75,0.0066
2991.50,0.0065
2991.25,0.0065
2991.00,0.0064
2990.75,0.0063
2990.50,0.0063
2990.25,0.0063
2990.00,0.0063
2989.75,0.0065
2989.50,0.0066
2989.25,0.0068
2989.00,0.0068
2988.75,0.0068
2988.50,0.0068
2988.25,0.0068
2988.00,0.0068
2987.75,0.0068
2987.50,0.0069
2987.25,0.0070
2987.00,0.0071
2986.75,0.0072
2986.50,0.0073
2986.25,0.0073
2986.00,0.0072
2985.75,0.0072
2985.50,0.0072
2985.25,0.0074
2985.00,0.0076
2984.75,0.0079
2984.50,0.0081
2984.25,0.0081
2984.00,0.0081
2983.75,0.0080
2983.50,0.0079
2983.25,0.0080
2983.00,0.0080
2982.75,0.0081
2982.50,0.0083
2982.25,0.0085
2982.00,0.0086
2981.75,0.0088
2981.50,0.0090
2981.25,0.0091
2981.00,0.0091
2980.75,0.0092
2980.50,0.0092
2980.25,0.0094
2980.00,0.0097
2979.75,0.0100
2979.50,0.0103
2979.25,0.0105
2979.00,0.0107
2978.75,0.0109
2978.50,0.0110
2978.25,0.0112
2978.00,0.0113
2977.75,0.0115
2977.50,0.0118
2977.25,0.0119
2977.00,0.0121
2976.75,0.0122
2976.50,0.0123
2976.25,0.0124
2976.00,0.0126
2975.75,0.0128
2975.50,0.0131
2975.25,0.0134
2975.00,0.0138
2974.75,0.0142
2974.50,0.0145
2974.25,0.0149
2974.00,0.0153
2973.75,0.0157
2973.50,0.0161
2973.25,0.0165
2973.00,0.0169
2972.75,0.0172
2972.50,0.0175
2972.25,0.0178
2972.00,0.0181
2971.75,0.0186
2971.50,0.0192
2971.25,0.0197
2971.00,0.0203
2970.75,0.0208
2970.50,0.0213
2970.25,0.0217
2970.00,0.0221
2969.75,0.0226
2969.50,0.0232
2969.25,0.0238
2969.00,0.0243
2968.75,0.0248
2968.50,0.0253
2968.25,0.0257
2968.00,0.0262
2967.75,0.0267
2967.50,0.0273
2967.25,0.0280
2967.00,0.0287
2966.75,0.0294
2966.50,0.0300
2966.25,0.0305
2966.00,0.0310
2965.75,0.0315
2965.50,0.0320
2965.25,0.0325
2965.00,0.0330
2964.75,0.0335
2964.50,0.0339
2964.25,0.0344
2964.00,0.0347
2963.75,0.0350
2963.50,0.0352
2963.25,0.0353
2963.00,0.0355
2962.75,0.0356
2962.50,0.0357
2962.25,0.0357
2962.00,0.0357
2961.75,0.0357
2961.50,0.0356
2961.25,0.0355
2961.00,0.0352
2960.75,0.0349
2960.50,0.0344
2960.25,0.0340
2960.00,0.0335
2959.75,0.0332
2959.50,0.0329
2959.25,0.0327
2959.00,0.0323
2958.75,0.0319
2958.50,0.0313
2958.25,0.0306
2958.00,0.0299
2957.75,0.0292
2957.50,0.0286
2957.25,0.0279
2957.00,0.0273
2956.75,0.0266
2956.50,0.0261
2956.25,0.0255
2956.00,0.0250
2955.75,0.0244
2955.50,0.0237
2955.25,0.0230
2955.00,0.0223
2954.75,0.0216
2954.50,0.0210
2954.25,0.0205
2954.00,0.0200
2953.75,0.0196
2953.50,0.0193
2953.25,0.0189
2953.00,0.0185
2952.75,0.0180
2952.50,0.0175
2952.25,0.0171
2952.00,0.0167
2951.75,0.0164
2951.50,0.0161
2951.25,0.0157
2951.00,0.0154
2950.75,0.0150
2950.50,0.0146
2950.25,0.0142
2950.00,0.0138
2949.75,0.0134
2949.50,0.0131
2949.25,0.0128
2949.00,0.0126
2948.75,0.0123
2948.50,0.0120
2948.25,0.0117
2948.00,0.0114
2947.75,0.0111
2947.50,0.0110
2947.25,0.0109
2947.00,0.0109
2946.75,0.0109
2946.50,0.0108
2946.25,0.0107
2946.00,0.0105
2945.75,0.0104
2945.50,0.0102
2945.25,0.0100
2945.00,0.0097
2944.75,0.0095
2944.50,0.0092
2944.25,0.0091
2944.00,0.0090
2943.75,0.0090
2943.50,0.0090
2943.25,0.0091
2943.00,0.0090
2942.75,0.0090
2942.50,0.0090
2942.25,0.0090
2942.00,0.0089
2941.75,0.0087
2941.50,0.0085
2941.25,0.0083
2941.00,0.0081
2940.75,0.0080
2940.50,0.0079
2940.25,0.0079
2940.00,0.0080
2939.75,0.0080
2939.50,0.0080
2939.25,0.0080
2939.00,0.0078
2938.75,0.0077
2938.50,0.0076
2938.25,0.0076
2938.00,0.0076
2937.75,0.0076
2937.50,0.0076
2937.25,0.0074
2937.00,0.0073
2936.75,0.0071
2936.50,0.0069
2936.25,0.0068
2936.00,0.0067
2935.75,0.0067
2935.50,0.0067
2935.25,0.0068
2935.00,0.0070
2934.75,0.0070
2934.50,0.0070
2934.25,0.0070
2934.00,0.0069
2933.75,0.0068
2933.50,0.0068
2933.25,0.0067
2933.00,0.0067
2932.75,0.0067
2932.50,0.0067
2932.25,0.0067
2932.00,0.0067
2931.75,0.0067
2931.50,0.0066
2931.25,0.0065
2931.00,0.0064
2930.75,0.0063
2930.50,0.0063
2930.25,0.0062
2930.00,0.0060
2929.75,0.0059
2929.50,0.0058
2929.25,0.0058
2929.00,0.0058
2928.75,0.0059
2928.50,0.0060
2928.25,0.0062
2928.00,0.0063
2927.75,0.0063
2927.50,0.0064
2927.25,0.0063
2927.00,0.0063
2926.75,0.0062
2926.50,0.0062
2926.25,0.0062
2926.00,0.0062
2925.75,0.0063
2925.50,0.0063
2925.25,0.0063
2925.00,0.0062
2924.75,0.0062
2924.50,0.0062
2924.25,0.0063
2924.00,0.0063
2923.75,0.0063
2923.50,0.0063
2923.25,0.0063
2923.00,0.0063
2922.75,0.0063
2922.50,0.0064
2922.25,0.0064
2922.00,0.0064
2921.75,0.0063
2921.50,0.0062
2921.25,0.0062
2921.00,0.0061
2920.75,0.0061
2920.50,0.0061
2920.25,0.0061
2920.00,0.0060
2919.75,0.0060
2919.50,0.0060
2919.25,0.0061
2919.00,0.0061
2918.75,0.0061
2918.50,0.0062
2918.25,0.0062
2918.00,0.0063
2917.75,0.0064
2917.50,0.0065
2917.25,0.0067
2917.00,0.0067
2916.75,0.0067
2916.50,0.0067
2916.25,0.0066
2916.00,0.0065
2915.75,0.0064
2915.50,0.0064
2915.25,0.0064
2915.00,0.0065
2914.75,0.0065
2914.50,0.0066
2914.25,0.0067
2914.00,0.0069
2913.75,0.0070
2913.50,0.0070
2913.25,0.0070
2913.00,0.0070
2912.75,0.0070
2912.50,0.0070
2912.25,0.0071
2912.00,0.0072
2911.75,0.0073
2911.50,0.0075
2911.25,0.0077
2911.00,0.0078
2910.75,0.0078
2910.50,0.0079
2910.25,0.0079
2910.00,0.0079
2909.75,0.0080
2909.50,0.0080
2909.25,0.0080
2909.00,0.0080
2908.75,0.0080
2908.50,0.0081
2908.25,0.0082
2908.00,0.0083
2907.75,0.0083
2907.50,0.0084
2907.25,0.0085
2907.00,0.0086
2906.75,0.0087
2906.50,0.0087
2906.25,0.0088
2906.00,0.0088
2905.75,0.0088
2905.50,0.0088
2905.25,0.0088
2905.00,0.0088
2904.75,0.0087
2904.50,0.0086
2904.25,0.0086
2904.00,0.0087
2903.75,0.0088
2903.50,0.0089
2903.25,0.0090
2903.00,0.0090
2902.75,0.0089
2902.50,0.0087
2902.25,0.0086
2902.00,0.0084
2901.75,0.0084
2901.50,0.0084
2901.25,0.0084
2901.00,0.0085
2900.75,0.0085
2900.50,0.0085
2900.25,0.0085
2900.00,0.0084
2899.75,0.0084
2899.50,0.0084
2899.25,0.0083
2899.00,0.0082
2898.75,0.0081
2898.50,0.0080
2898.25,0.0079
2898.00,0.0079
2897.75,0.0079
2897.50,0.0079
2897.25,0.0079
2897.00,0.0079
2896.75,0.0078
2896.50,0.0076
2896.25,0.0075
2896.00,0.0073
2895.75,0.0073
2895.50,0.0073
2895.25,0.0073
2895.00,0.0072
2894.75,0.0071
2894.50,0.0069
2894.25,0.0068
2894.00,0.0068
2893.75,0.0068
2893.50,0.0068
2893.25,0.0068
2893.00,0.0069
2892.75,0.0069
2892.50,0.0069
2892.25,0.0068
2892.00,0.0067
2891.75,0.0066
2891.50,0.0065
2891.25,0.0064
2891.00,0.0064
2890.75,0.0063
2890.50,0.0061
2890.25,0.0059
2890.00,0.0058
2889.75,0.0058
2889.50,0.0058
2889.25,0.0059
2889.00,0.0059
2888.75,0.0059
2888.50,0.0059
2888.25,0.0059
2888.00,0.0059
2887.75,0.0060
2887.50,0.0060
2887.25,0.0061
2887.00,0.0061
2886.75,0.0061
2886.50,0.0061
2886.25,0.0061
2886.00,0.0061
2885.75,0.0060
2885.50,0.0059
2885.25,0.0058
2885.00,0.0058
2884.75,0.0059
2884.50,0.0059
2884.25,0.0059
2884.00,0.0058
2883.75,0.0056
2883.50,0.0055
2883.25,0.0055
2883.00,0.0056
2882.75,0.0057
2882.50,0.0057
2882.25,0.0058
2882.00,0.0058
2881.75,0.0058
2881.50,0.0059
2881.25,0.0059
2881.00,0.0059
2880.75,0.0059
2880.50,0.0058
2880.25,0.0057
2880.00,0.0057
2879.75,0.0056
2879.50,0.0056
2879.25,0.0056
2879.00,0.0056
2878.75,0.0055
2878.50,0.0055
2878.25,0.0055
2878.00,0.0057
2877.75,0.0058
2877.50,0.0058
2877.25,0.0058
2877.00,0.0057
2876.75,0.0056
2876.50,0.0055
2876.25,0.0055
2876.00,0.0056
2875.75,0.0056
2875.50,0.0056
2875.25,0.0055
2875.00,0.0056
2874.75,0.0056
2874.50,0.0056
2874.25,0.0056
2874.00,0.0055
2873.75,0.0054
2873.50,0.0052
2873.25,0.0052
2873.00,0.0052
2872.75,0.0052
2872.50,0.0052
2872.25,0.0051
2872.00,0.0051
2871.75,0.0051
2871.50,0.0051
2871.25,0.0052
2871.00,0.0052
2870.75,0.0053
2870.50,0.0053
2870.25,0.0054
2870.00,0.0054
2869.75,0.0054
2869.50,0.0054
2869.25,0.0055
2869.00,0.0056
2868.75,0.0056
2868.50,0.0057
2868.25,0.0057
2868.00,0.0056
2867.75,0.0056
2867.50,0.0055
2867.25,0.0054
2867.00,0.0053
2866.75,0.0052
2866.50,0.0051
2866.25,0.0051
2866.00,0.0051
2865.75,0.0052
2865.50,0.0052
2865.25,0.0053
2865.00,0.0053
2864.75,0.0053
2864.50,0.0053
2864.25,0.0053
2864.00,0.0052
2863.75,0.0053
2863.50,0.0053
2863.25,0.0054
2863.00,0.0055
2862.75,0.0055
2862.50,0.0055
2862.25,0.0053
2862.00,0.0051
2861.75,0.0050
2861.50,0.0050
2861.25,0.0050
2861.00,0.0050
2860.75,0.0050
2860.50,0.0050
2860.25,0.0049
2860.00,0.0048
2859.75,0.0047
2859.50,0.0047
2859.25,0.0047
2859.00,0.0047
2858.75,0.0048
2858.50,0.0049
2858.25,0.0049
2858.00,0.0051
2857.75,0.0052
2857.50,0.0054
2857.25,0.0055
2857.00,0.0055
2856.75,0.0054
2856.50,0.0053
2856.25,0.0051
2856.00,0.0051
2855.75,0.0051
2855.50,0.0051
2855.25,0.0051
2855.00,0.0050
2854.75,0.0050
2854.50,0.0051
2854.25,0.0051
2854.00,0.0052
2853.75,0.0052
2853.50,0.0052
2853.25,0.0051
2853.00,0.0051
2852.75,0.0051
2852.50,0.0051
2852.25,0.0051
2852.00,0.0051
2851.75,0.0051
2851.50,0.0051
2851.25,0.0051
2851.00,0.0050
2850.75,0.0049
2850.50,0.0049
2850.25,0.0049
2850.00,0.0049
2849.75,0.0049
2849.50,0.0049
2849.25,0.0049
2849.00,0.0050
2848.75,0.0050
2848.50,0.0050
2848.25,0.0050
2848.00,0.0050
2847.75,0.0050
2847.50,0.0051
2847.25,0.0051
2847.00,0.0052
2846.75,0.0052
2846.50,0.0053
2846.25,0.0053
2846.00,0.0053
2845.75,0.0052
2845.50,0.0051
2845.25,0.0050
2845.00,0.0048
2844.75,0.0048
2844.50,0.0048
2844.25,0.0049
2844.00,0.0050
2843.75,0.0051
2843.50,0.0051
2843.25,0.0050
2843.00,0.0050
2842.75,0.0050
2842.50,0.0051
2842.25,0.0051
2842.00,0.0051
2841.75,0.0050
2841.50,0.0049
2841.25,0.0048
2841.00,0.0048
2840.75,0.0049
2840.50,0.0050
2840.25,0.0052
2840.00,0.0053
2839.75,0.0053
2839.50,0.0052
2839.25,0.0051
2839.00,0.0051
2838.75,0.0050
2838.50,0.0050
2838.25,0.0050
2838.00,0.0051
2837.75,0.0052
2837.50,0.0054
2837.25,0.0055
2837.00,0.0054
2836.75,0.0054
2836.50,0.0053
2836.25,0.0053
2836.00,0.0053
2835.75,0.0054
2835.50,0.0054
2835.25,0.0053
2835.00,0.0052
2834.75,0.0051
2834.50,0.0051
2834.25,0.0050
2834.00,0.0050
2833.75,0.0049
2833.50,0.0050
2833.25,0.0050
2833.00,0.0050
2832.75,0.0050
2832.50,0.0051
2832.25,0.0052
2832.00,0.0053
2831.75,0.0054
2831.50,0.0054
2831.25,0.0054
2831.00,0.0053
2830.75,0.0051
2830.50,0.0051
2830.25,0.0051
2830.00,0.0052
2829.75,0.0052
2829.50,0.0052
2829.25,0.0053
2829.00,0.0053
2828.75,0.0053
2828.50,0.0054
2828.25,0.0053
2828.00,0.0053
2827.75,0.0051
2827.50,0.0050
2827.25,0.0050
2827.00,0.0049
2826.75,0.0050
2826.50,0.0050
2826.25,0.0051
2826.00,0.0052
2825.75,0.0052
2825.50,0.0052
2825.25,0.0052
2825.00,0.0053
2824.75,0.0053
2824.50,0.0053
2824.25,0.0052
2824.00,0.0051
2823.75,0.0051
2823.50,0.0051
2823.25,0.0052
2823.00,0.0053
2822.75,0.0053
2822.50,0.0052
2822.25,0.0051
2822.00,0.0051
2821.75,0.0052
2821.50,0.0053
2821.25,0.0053
2821.00,0.0052
2820.75,0.0052
2820.50,0.0051
2820.25,0.0051
2820.00,0.0051
2819.75,0.0051
2819.50,0.0052
2819.25,0.0052
2819.00,0.0052
2818.75,0.0052
2818.50,0.0052
2818.25,0.0052
2818.00,0.0052
2817.75,0.0051
2817.50,0.0051
2817.25,0.0051
2817.00,0.0051
2816.75,0.0051
2816.50,0.0052
2816.25,0.0052
2816.00,0.0052
2815.75,0.0052
2815.50,0.0051
2815.25,0.0051
2815.00,0.0051
2814.75,0.0052
2814.50,0.0053
2814.25,0.0055
2814.00,0.0057
2813.75,0.0057
2813.50,0.0057
2813.25,0.0056
2813.00,0.0054
2812.75,0.0053
2812.50,0.0053
2812.25,0.0053
2812.00,0.0053
2811.75,0.0054
2811.50,0.0054
2811.25,0.0054
2811.00,0.0054
2810.75,0.0053
2810.50,0.0052
2810.25,0.0052
2810.00,0.0052
2809.75,0.0053
2809.50,0.0053
2809.25,0.0053
2809.00,0.0053
2808.75,0.0053
2808.50,0.0053
2808.25,0.0053
2808.00,0.0053
2807.75,0.0053
2807.50,0.0053
2807.25,0.0053
2807.00,0.0053
2806.75,0.0052
2806.50,0.0051
2806.25,0.0051
2806.00,0.0051
2805.75,0.0051
2805.50,0.0052
2805.25,0.0052
2805.00,0.0052
2804.75,0.0052
2804.50,0.0052
2804.25,0.0052
2804.00,0.0052
2803.75,0.0053
2803.50,0.0052
2803.25,0.0051
2803.00,0.0051
2802.75,0.0050
2802.50,0.0051
2802.25,0.0052
2802.00,0.0052
2801.75,0.0053
2801.50,0.0052
2801.25,0.0052
2801.00,0.0052
2800.75,0.0051
2800.50,0.0052
2800.25,0.0052
2800.00,0.0052
2799.75,0.0051
2799.50,0.0051
2799.25,0.0050
2799.00,0.0050
2798.75,0.0050
2798.50,0.0049
2798.25,0.0049
2798.00,0.0049
2797.75,0.0050
2797.50,0.0051
2797.25,0.0052
2797.00,0.0052
2796.75,0.0052
2796.50,0.0052
2796.25,0.0052
2796.00,0.0053
2795.75,0.0053
2795.50,0.0052
2795.25,0.0052
2795.00,0.0052
2794.75,0.0052
2794.50,0.0053
2794.25,0.0053
2794.00,0.0053
2793.75,0.0052
2793.50,0.0051
2793.25,0.0050
2793.00,0.0051
2792.75,0.0052
2792.50,0.0053
2792.25,0.0054
2792.00,0.0055
2791.75,0.0054
2791.50,0.0054
2791.25,0.0054
2791.00,0.0053
2790.75,0.0053
2790.50,0.0053
2790.25,0.0052
2790.00,0.0051
2789.75,0.0050
2789.50,0.0049
2789.25,0.0049
2789.00,0.0050
2788.75,0.0050
2788.50,0.0050
2788.25,0.0051
2788.00,0.0051
2787.75,0.0052
2787.50,0.0052
2787.25,0.0052
2787.00,0.0052
2786.75,0.0052
2786.50,0.0052
2786.25,0.0052
2786.00,0.0051
2785.75,0.0050
2785.50,0.0049
2785.25,0.0048
2785.00,0.0048
2784.75,0.0049
2784.50,0.0051
2784.25,0.0052
2784.00,0.0052
2783.75,0.0051
2783.50,0.0050
2783.25,0.0050
2783.00,0.0049
2782.75,0.0050
2782.50,0.0050
2782.25,0.0050
2782.00,0.0050
2781.75,0.0049
2781.50,0.0048
2781.25,0.0048
2781.00,0.0048
2780.75,0.0049
2780.50,0.0050
2780.25,0.0051
2780.00,0.0051
2779.75,0.0052
2779.50,0.0051
2779.25,0.0050
2779.00,0.0048
2778.75,0.0047
2778.50,0.0046
2778.25,0.0047
2778.00,0.0048
2777.75,0.0049
2777.50,0.0049
2777.25,0.0050
2777.00,0.0049
2776.75,0.0049
2776.50,0.0048
2776.25,0.0047
2776.00,0.0046
2775.75,0.0046
2775.50,0.0047
2775.25,0.0048
2775.00,0.0049
2774.75,0.0050
2774.50,0.0050
2774.25,0.0049
2774.00,0.0047
2773.75,0.0047
2773.50,0.0047
2773.25,0.0048
2773.00,0.0049
2772.75,0.0050
2772.50,0.0049
2772.25,0.0049
2772.00,0.0048
2771.75,0.0048
2771.50,0.0048
2771.25,0.0048
2771.00,0.0047
2770.75,0.0047
2770.50,0.0046
2770.25,0.0046
2770.00,0.0046
2769.75,0.0047
2769.50,0.0047
2769.25,0.0047
2769.00,0.0046
2768.75,0.0046
2768.50,0.0046
2768.25,0.0047
2768.00,0.0047
2767.75,0.0047
2767.50,0.0047
2767.25,0.0047
2767.00,0.0046
2766.75,0.0046
2766.50,0.0046
2766.25,0.0046
2766.00,0.0046
2765.75,0.0047
2765.50,0.0047
2765.25,0.0047
2765.00,0.0047
2764.75,0.0047
2764.50,0.0047
2764.25,0.0048
2764.00,0.0049
2763.75,0.0050
2763.50,0.0050
2763.25,0.0049
2763.00,0.0048
2762.75,0.0047
2762.50,0.0045
2762.25,0.0044
2762.00,0.0044
2761.75,0.0044
2761.50,0.0044
2761.25,0.0045
2761.00,0.0047
2760.75,0.0048
2760.50,0.0049
2760.25,0.0050
2760.00,0.0049
2759.75,0.0048
2759.50,0.0046
2759.25,0.0045
2759.00,0.0045
2758.75,0.0044
2758.50,0.0044
2758.25,0.0043
2758.00,0.0044
2757.75,0.0044
2757.50,0.0046
2757.25,0.0047
2757.00,0.0047
2756.75,0.0047
2756.50,0.0047
2756.25,0.0047
2756.00,0.0047
2755.75,0.0048
2755.50,0.0048
2755.25,0.0049
2755.00,0.0048
2754.75,0.0048
2754.50,0.0047
2754.25,0.0047
2754.00,0.0047
2753.75,0.0046
2753.50,0.0046
2753.25,0.0045
2753.00,0.0044
2752.75,0.0044
2752.50,0.0044
2752.25,0.0045
2752.00,0.0045
2751.75,0.0046
2751.50,0.0046
2751.25,0.0045
2751.00,0.0044
2750.75,0.0043
2750.50,0.0042
2750.25,0.0042
2750.00,0.0042
2749.75,0.0043
2749.50,0.0043
2749.25,0.0042
2749.00,0.0042
2748.75,0.0042
2748.50,0.0043
2748.25,0.0045
2748.00,0.0046
2747.75,0.0047
2747.50,0.0048
2747.25,0.0048
2747.00,0.0048
2746.75,0.0048
2746.50,0.0047
2746.25,0.0047
2746.00,0.0046
2745.75,0.0046
2745.50,0.0046
2745.25,0.0046
2745.00,0.0046
2744.75,0.0045
2744.50,0.0044
2744.25,0.0044
2744.00,0.0043
2743.75,0.0043
2743.50,0.0043
2743.25,0.0044
2743.00,0.0044
2742.75,0.0044
2742.50,0.0044
2742.25,0.0045
2742.00,0.0045
2741.75,0.0045
2741.50,0.0045
2741.25,0.0044
2741.00,0.0044
2740.75,0.0044
2740.50,0.0044
2740.25,0.0045
2740.00,0.0047
2739.75,0.0047
2739.50,0.0048
2739.25,0.0047
2739.00,0.0047
2738.75,0.0046
2738.50,0.0046
2738.25,0.0046
2738.00,0.0046
2737.75,0.0045
2737.50,0.0044
2737.25,0.0044
2737.00,0.0044
2736.75,0.0044
2736.50,0.0044
2736.25,0.0045
2736.00,0.0046
2735.75,0.0047
2735.50,0.0048
2735.25,0.0048
2735.00,0.0047
2734.75,0.0046
2734.50,0.0046
2734.25,0.0045
2734.00,0.0045
2733.75,0.0045
2733.50,0.0045
2733.25,0.0045
2733.00,0.0045
2732.75,0.0045
2732.50,0.0045
2732.25,0.0046
2732.00,0.0045
2731.75,0.0045
2731.50,0.0044
2731.25,0.0044
2731.00,0.0044
2730.75,0.0044
2730.50,0.0044
2730.25,0.0044
2730.00,0.0045
2729.75,0.0046
2729.50,0.0047
2729.25,0.0047
2729.00,0.0046
2728.75,0.0046
2728.50,0.0045
2728.25,0.0045
2728.00,0.0044
2727.75,0.0044
2727.50,0.0043
2727.25,0.0043
2727.00,0.0043
2726.75,0.0044
2726.50,0.0045
2726.25,0.0047
2726.00,0.0047
2725.75,0.0047
2725.50,0.0047
2725.25,0.0047
2725.00,0.0047
2724.75,0.0046
2724.50,0.0046
2724.25,0.0044
2724.00,0.0043
2723.75,0.0042
2723.50,0.0042
2723.25,0.0043
2723.00,0.0045
2722.75,0.0046
2722.50,0.0047
2722.25,0.0048
2722.00,0.0048
2721.75,0.0048
2721.50,0.0048
2721.25,0.0047
2721.00,0.0046
2720.75,0.0045
2720.50,0.0044
2720.25,0.0045
2720.00,0.0045
2719.75,0.0045
2719.50,0.0045
2719.25,0.0046
2719.00,0.0046
2718.75,0.0046
2718.50,0.0046
2718.25,0.0046
2718.00,0.0046
2717.75,0.0045
2717.50,0.0044
2717.25,0.0043
2717.00,0.0042
2716.75,0.0043
2716.50,0.0044
2716.25,0.0045
2716.00,0.0046
2715.75,0.0047
2715.50,0.0047
2715.25,0.0046
2715.00,0.0046
2714.75,0.0045
2714.50,0.0044
2714.25,0.0044
2714.00,0.0045
2713.75,0.0045
2713.50,0.0046
2713.25,0.0047
2713.00,0.0047
2712.75,0.0047
2712.50,0.0046
2712.25,0.0045
2712.00,0.0044
2711.75,0.0043
2711.50,0.0043
2711.25,0.0043
2711.00,0.0043
2710.75,0.0043
2710.50,0.0043
2710.25,0.0044
2710.00,0.0044
2709.75,0.0045
2709.50,0.0046
2709.25,0.0046
2709.00,0.0047
2708.75,0.0047
2708.50,0.0047
2708.25,0.0046
2708.00,0.0045
2707.75,0.0044
2707.50,0.0044
2707.25,0.0043
2707.00,0.0043
2706.75,0.0043
2706.50,0.0044
2706.25,0.0044
2706.00,0.0045
2705.75,0.0045
2705.50,0.0045
2705.25,0.0045
2705.00,0.0045
2704.75,0.0045
2704.50,0.0045
2704.25,0.0045
2704.00,0.0046
2703.75,0.0046
2703.50,0.0047
2703.25,0.0047
2703.00,0.0048
2702.75,0.0048
2702.50,0.0048
2702.25,0.0047
2702.00,0.0046
2701.75,0.0046
2701.50,0.0045
2701.25,0.0046
2701.00,0.0046
2700.75,0.0045
2700.50,0.0045
2700.25,0.0045
2700.00,0.0045
2699.75,0.0045
2699.50,0.0046
2699.25,0.0046
2699.00,0.0046
2698.75,0.0046
2698.50,0.0046
2698.25,0.0047
2698.00,0.0047
2697.75,0.0047
2697.50,0.0046
2697.25,0.0046
2697.00,0.0046
2696.75,0.0047
2696.50,0.0047
2696.25,0.0047
2696.00,0.0046
2695.75,0.0045
2695.50,0.0044
2695.25,0.0045
2695.00,0.0046
2694.75,0.0047
2694.50,0.0048
2694.25,0.0048
2694.00,0.0047
2693.75,0.0047
2693.50,0.0046
2693.25,0.0046
2693.00,0.0046
2692.75,0.0046
2692.50,0.0046
2692.25,0.0047
2692.00,0.0047
2691.75,0.0047
2691.50,0.0046
2691.25,0.0045
2691.00,0.0044
2690.75,0.0043
2690.50,0.0044
2690.25,0.0045
2690.00,0.0046
2689.75,0.0047
2689.50,0.0048
2689.25,0.0049
2689.00,0.0049
2688.75,0.0049
2688.50,0.0048
2688.25,0.0048
2688.00,0.0047
2687.75,0.0047
2687.50,0.0047
2687.25,0.0048
2687.00,0.0048
2686.75,0.0047
2686.50,0.0047
2686.25,0.0047
2686.00,0.0047
2685.75,0.0046
2685.50,0.0046
2685.25,0.0045
2685.00,0.0044
2684.75,0.0042
2684.50,0.0041
2684.25,0.0041
2684.00,0.0042
2683.75,0.0043
2683.50,0.0044
2683.25,0.0045
2683.00,0.0046
2682.75,0.0046
2682.50,0.0046
2682.25,0.0046
2682.00,0.0046
2681.75,0.0046
2681.50,0.0046
2681.25,0.0046
2681.00,0.0046
2680.75,0.0045
2680.50,0.0045
2680.25,0.0044
2680.00,0.0043
2679.75,0.0042
2679.50,0.0042
2679.25,0.0042
2679.00,0.0042
2678.75,0.0043
2678.50,0.0043
2678.25,0.0044
2678.00,0.0045
2677.75,0.0046
2677.50,0.0046
2677.25,0.0047
2677.00,0.0047
2676.75,0.0047
2676.50,0.0046
2676.25,0.0046
2676.00,0.0046
2675.75,0.0045
2675.50,0.0045
2675.25,0.0045
2675.00,0.0045
2674.75,0.0045
2674.50,0.0045
2674.25,0.0046
2674.00,0.0046
2673.75,0.0045
2673.50,0.0045
2673.25,0.0046
2673.00,0.0046
2672.75,0.0047
2672.50,0.0048
2672.25,0.0048
2672.00,0.0048
2671.75,0.0047
2671.50,0.0046
2671.25,0.0046
2671.00,0.0045
2670.75,0.0045
2670.50,0.0045
2670.25,0.0044
2670.00,0.0044
2669.75,0.0045
2669.50,0.0045
2669.25,0.0046
2669.00,0.0046
2668.75,0.0047
2668.50,0.0046
2668.25,0.0046
2668.00,0.0045
2667.75,0.0045
2667.50,0.0045
2667.25,0.0045
2667.00,0.0045
2666.75,0.0045
2666.50,0.0045
2666.25,0.0045
2666.00,0.0045
2665.75,0.0045
2665.50,0.0046
2665.25,0.0047
2665.00,0.0047
2664.75,0.0047
2664.50,0.0047
2664.25,0.0046
2664.00,0.0046
2663.75,0.0046
2663.50,0.0046
2663.25,0.0046
2663.00,0.0046
2662.75,0.0046
2662.50,0.0047
2662.25,0.0048
2662.00,0.0049
2661.75,0.0049
2661.50,0.0048
2661.25,0.0047
2661.00,0.0047
2660.75,0.0046
2660.50,0.0046
2660.25,0.0047
2660.00,0.0047
2659.75,0.0047
2659.50,0.0047
2659.25,0.0046
2659.00,0.0046
2658.75,0.0046
2658.50,0.0047
2658.25,0.0047
2658.00,0.0047
2657.75,0.0047
2657.50,0.0047
2657.25,0.0046
2657.00,0.0046
2656.75,0.0045
2656.50,0.0045
2656.25,0.0044
2656.00,0.0045
2655.75,0.0045
2655.50,0.0046
2655.25,0.0046
2655.00,0.0045
2654.75,0.0045
2654.50,0.0045
2654.25,0.0045
2654.00,0.0046
2653.75,0.0047
2653.50,0.0048
2653.25,0.0048
2653.00,0.0047
2652.75,0.0047
2652.50,0.0046
2652.25,0.0045
2652.00,0.0044
2651.75,0.0044
2651.50,0.0043
2651.25,0.0043
2651.00,0.0044
2650.75,0.0044
2650.50,0.0044
2650.25,0.0045
2650.00,0.0045
2649.75,0.0046
2649.50,0.0047
2649.25,0.0048
2649.00,0.0048
2648.75,0.0047
2648.50,0.0047
2648.25,0.0046
2648.00,0.0046
2647.75,0.0045
2647.50,0.0045
2647.25,0.0044
2647.00,0.0044
2646.75,0.0044
2646.50,0.0044
2646.25,0.0045
2646.00,0.0045
2645.75,0.0045
2645.50,0.0045
2645.25,0.0045
2645.00,0.0044
2644.75,0.0044
2644.50,0.0043
2644.25,0.0043
2644.00,0.0042
2643.75,0.0042
2643.50,0.0041
2643.25,0.0042
2643.00,0.0043
2642.75,0.0044
2642.50,0.0046
2642.25,0.0046
2642.00,0.0046
2641.75,0.0045
2641.50,0.0045
2641.25,0.0045
2641.00,0.0045
2640.75,0.0045
2640.50,0.0045
2640.25,0.0045
2640.00,0.0045
2639.75,0.0045
2639.50,0.0046
2639.25,0.0046
2639.00,0.0045
2638.75,0.0044
2638.50,0.0043
2638.25,0.0043
2638.00,0.0044
2637.75,0.0045
2637.50,0.0046
2637.25,0.0047
2637.00,0.0047
2636.75,0.0045
2636.50,0.0043
2636.25,0.0041
2636.00,0.0040
2635.75,0.0041
2635.50,0.0042
2635.25,0.0044
2635.00,0.0046
2634.75,0.0047
2634.50,0.0046
2634.25,0.0045
2634.00,0.0043
2633.75,0.0042
2633.50,0.0041
2633.25,0.0041
2633.00,0.0043
2632.75,0.0044
2632.50,0.0045
2632.25,0.0045
2632.00,0.0045
2631.75,0.0044
2631.50,0.0044
2631.25,0.0044
2631.00,0.0044
2630.75,0.0043
2630.50,0.0042
2630.25,0.0041
2630.00,0.0040
2629.75,0.0039
2629.50,0.0040
2629.25,0.0041
2629.00,0.0042
2628.75,0.0043
2628.50,0.0044
2628.25,0.0044
2628.00,0.0043
2627.75,0.0043
2627.50,0.0043
2627.25,0.0043
2627.00,0.0045
2626.75,0.0046
2626.50,0.0048
2626.25,0.0048
2626.00,0.0047
2625.75,0.0046
2625.50,0.0044
2625.25,0.0042
2625.00,0.0041
2624.75,0.0041
2624.50,0.0041
2624.25,0.0041
2624.00,0.0042
2623.75,0.0043
2623.50,0.0043
2623.25,0.0043
2623.00,0.0043
2622.75,0.0043
2622.50,0.0044
2622.25,0.0045
2622.00,0.0045
2621.75,0.0044
2621.50,0.0044
2621.25,0.0044
2621.00,0.0044
2620.75,0.0044
2620.50,0.0044
2620.25,0.0043
2620.00,0.0042
2619.75,0.0042
2619.50,0.0042
2619.25,0.0042
2619.00,0.0043
2618.75,0.0043
2618.50,0.0043
2618.25,0.0044
2618.00,0.0044
2617.75,0.0045
2617.50,0.0045
2617.25,0.0045
2617.00,0.0045
2616.75,0.0044
2616.50,0.0043
2616.25,0.0042
2616.00,0.0041
2615.75,0.0042
2615.50,0.0043
2615.25,0.0045
2615.00,0.0047
2614.75,0.0048
2614.50,0.0049
2614.25,0.0049
2614.00,0.0048
2613.75,0.0048
2613.50,0.0047
2613.25,0.0045
2613.00,0.0043
2612.75,0.0041
2612.50,0.0040
2612.25,0.0039
2612.00,0.0040
2611.75,0.0041
2611.50,0.0043
2611.25,0.0045
2611.00,0.0045
2610.75,0.0045
2610.50,0.0044
2610.25,0.0044
2610.00,0.0044
2609.75,0.0044
2609.50,0.0045
2609.25,0.0046
2609.00,0.0047
2608.75,0.0048
2608.50,0.0047
2608.25,0.0045
2608.00,0.0043
2607.75,0.0040
2607.50,0.0039
2607.25,0.0039
2607.00,0.0040
2606.75,0.0041
2606.50,0.0042
2606.25,0.0044
2606.00,0.0045
2605.75,0.0047
2605.50,0.0048
2605.25,0.0049
2605.00,0.0048
2604.75,0.0047
2604.50,0.0046
2604.25,0.0044
2604.00,0.0042
2603.75,0.0040
2603.50,0.0039
2603.25,0.0039
2603.00,0.0040
2602.75,0.0041
2602.50,0.0042
2602.25,0.0042
2602.00,0.0042
2601.75,0.0042
2601.50,0.0042
2601.25,0.0042
2601.00,0.0042
2600.75,0.0041
2600.50,0.0040
2600.25,0.0040
2600.00,0.0040
2599.75,0.0040
2599.50,0.0039
2599.25,0.0038
2599.00,0.0037
2598.75,0.0036
2598.50,0.0037
2598.25,0.0038
2598.00,0.0041
2597.75,0.0043
2597.50,0.0044
2597.25,0.0043
2597.00,0.0041
2596.75,0.0039
2596.50,0.0038
2596.25,0.0037
2596.00,0.0037
2595.75,0.0037
2595.50,0.0037
2595.25,0.0036
2595.00,0.0036
2594.75,0.0036
2594.50,0.0037
2594.25,0.0037
2594.00,0.0037
2593.75,0.0038
2593.50,0.0039
2593.25,0.0040
2593.00,0.0041
2592.75,0.0042
2592.50,0.0043
2592.25,0.0043
2592.00,0.0043
2591.75,0.0042
2591.50,0.0040
2591.25,0.0039
2591.00,0.0039
2590.75,0.0040
2590.50,0.0041
2590.25,0.0042
2590.00,0.0042
2589.75,0.0043
2589.50,0.0043
2589.25,0.0044
2589.00,0.0045
2588.75,0.0045
2588.50,0.0044
2588.25,0.0044
2588.00,0.0044
2587.75,0.0045
2587.50,0.0045
2587.25,0.0044
2587.00,0.0043
2586.75,0.0040
2586.50,0.0039
2586.25,0.0038
2586.00,0.0038
2585.75,0.0039
2585.50,0.0039
2585.25,0.0040
2585.00,0.0040
2584.75,0.0040
2584.50,0.0040
2584.25,0.0039
2584.00,0.0038
2583.75,0.0037
2583.50,0.0036
2583.25,0.0037
2583.00,0.0038
2582.75,0.0040
2582.50,0.0041
2582.25,0.0041
2582.00,0.0040
2581.75,0.0039
2581.50,0.0040
2581.25,0.0042
2581.00,0.0044
2580.75,0.0047
2580.50,0.0048
2580.25,0.0048
2580.00,0.0047
2579.75,0.0045
2579.50,0.0044
2579.25,0.0043
2579.00,0.0043
2578.75,0.0042
2578.50,0.0042
2578.25,0.0041
2578.00,0.0041
2577.75,0.0040
2577.50,0.0039
2577.25,0.0039
2577.00,0.0039
2576.75,0.0040
2576.50,0.0041
2576.25,0.0041
2576.00,0.0042
2575.75,0.0043
2575.50,0.0043
2575.25,0.0043
2575.00,0.0042
2574.75,0.0041
2574.50,0.0040
2574.25,0.0039
2574.00,0.0039
2573.75,0.0039
2573.50,0.0038
2573.25,0.0037
2573.00,0.0035
2572.75,0.0034
2572.50,0.0033
2572.25,0.0035
2572.00,0.0037
2571.75,0.0038
2571.50,0.0039
2571.25,0.0039
2571.00,0.0038
2570.75,0.0038
2570.50,0.0038
2570.25,0.0038
2570.00,0.0038
2569.75,0.0038
2569.50,0.0039
2569.25,0.0039
2569.00,0.0040
2568.75,0.0041
2568.50,0.0042
2568.25,0.0042
2568.00,0.0042
2567.75,0.0042
2567.50,0.0041
2567.25,0.0040
2567.00,0.0039
2566.75,0.0038
2566.50,0.0038
2566.25,0.0039
2566.00,0.0040
2565.75,0.0041
2565.50,0.0041
2565.25,0.0042
2565.00,0.0042
2564.75,0.0043
2564.50,0.0044
2564.25,0.0044
2564.00,0.0044
2563.75,0.0043
2563.50,0.0042
2563.25,0.0041
2563.00,0.0040
2562.75,0.0039
2562.50,0.0038
2562.25,0.0038
2562.00,0.0037
2561.75,0.0037
2561.50,0.0036
2561.25,0.0037
2561.00,0.0039
2560.75,0.0041
2560.50,0.0043
2560.25,0.0043
2560.00,0.0042
2559.75,0.0040
2559.50,0.0038
2559.25,0.0038
2559.00,0.0039
2558.75,0.0040
2558.50,0.0042
2558.25,0.0043
2558.00,0.0044
2557.75,0.0045
2557.50,0.0044
2557.25,0.0044
2557.00,0.0043
2556.75,0.0044
2556.50,0.0046
2556.25,0.0047
2556.00,0.0047
2555.75,0.0046
2555.50,0.0045
2555.25,0.0044
2555.00,0.0042
2554.75,0.0040
2554.50,0.0039
2554.25,0.0039
2554.00,0.0041
2553.75,0.0042
2553.50,0.0042
2553.25,0.0042
2553.00,0.0041
2552.75,0.0039
2552.50,0.0038
2552.25,0.0037
2552.00,0.0037
2551.75,0.0038
2551.50,0.0040
2551.25,0.0041
2551.00,0.0041
2550.75,0.0042
2550.50,0.0042
2550.25,0.0043
2550.00,0.0044
2549.75,0.0043
2549.50,0.0041
2549.25,0.0039
2549.00,0.0037
2548.75,0.0037
2548.50,0.0038
2548.25,0.0039
2548.00,0.0041
2547.75,0.0042
2547.50,0.0042
2547.25,0.0042
2547.00,0.0041
2546.75,0.0042
2546.50,0.0043
2546.25,0.0044
2546.00,0.0044
2545.75,0.0043
2545.50,0.0041
2545.25,0.0038
2545.00,0.0035
2544.75,0.0033
2544.50,0.0032
2544.25,0.0032
2544.00,0.0033
2543.75,0.0033
2543.50,0.0032
2543.25,0.0032
2543.00,0.0032
2542.75,0.0032
2542.50,0.0033
2542.25,0.0034
2542.00,0.0035
2541.75,0.0036
2541.50,0.0038
2541.25,0.0039
2541.00,0.0040
2540.75,0.0041
2540.50,0.0041
2540.25,0.0041
2540.00,0.0039
2539.75,0.0037
2539.50,0.0036
2539.25,0.0036
2539.00,0.0035
2538.75,0.0036
2538.50,0.0035
2538.25,0.0034
2538.00,0.0033
2537.75,0.0033
2537.50,0.0034
2537.25,0.0037
2537.00,0.0041
2536.75,0.0044
2536.50,0.0045
2536.25,0.0044
2536.00,0.0042
2535.75,0.0039
2535.50,0.0038
2535.25,0.0037
2535.00,0.0037
2534.75,0.0038
2534.50,0.0039
2534.25,0.0041
2534.00,0.0041
2533.75,0.0042
2533.50,0.0041
2533.25,0.0041
2533.00,0.0040
2532.75,0.0039
2532.50,0.0038
2532.25,0.0037
2532.00,0.0035
2531.75,0.0033
2531.50,0.0032
2531.25,0.0032
2531.00,0.0033
2530.75,0.0034
2530.50,0.0035
2530.25,0.0036
2530.00,0.0036
2529.75,0.0037
2529.50,0.0038
2529.25,0.0038
2529.00,0.0039
2528.75,0.0038
2528.50,0.0036
2528.25,0.0034
2528.00,0.0032
2527.75,0.0030
2527.50,0.0030
2527.25,0.0029
2527.00,0.0029
2526.75,0.0029
2526.50,0.0030
2526.25,0.0031
2526.00,0.0032
2525.75,0.0032
2525.50,0.0032
2525.25,0.0031
2525.00,0.0030
2524.75,0.0029
2524.50,0.0029
2524.25,0.0029
2524.00,0.0029
2523.75,0.0029
2523.50,0.0028
2523.25,0.0028
2523.00,0.0028
2522.75,0.0027
2522.50,0.0026
2522.25,0.0025
2522.00,0.0025
2521.75,0.0025
2521.50,0.0026
2521.25,0.0027
2521.00,0.0027
2520.75,0.0027
2520.50,0.0027
2520.25,0.0028
2520.00,0.0028
2519.75,0.0029
2519.50,0.0029
2519.25,0.0028
2519.00,0.0027
2518.75,0.0027
2518.50,0.0026
2518.25,0.0027
2518.00,0.0027
2517.75,0.0027
2517.50,0.0026
2517.25,0.0026
2517.00,0.0026
2516.75,0.0027
2516.50,0.0026
2516.25,0.0026
2516.00,0.0026
2515.75,0.0026
2515.50,0.0027
2515.25,0.0029
2515.00,0.0031
2514.75,0.0033
2514.50,0.0033
2514.25,0.0032
2514.00,0.0031
2513.75,0.0029
2513.50,0.0028
2513.25,0.0027
2513.00,0.0027
2512.75,0.0027
2512.50,0.0027
2512.25,0.0026
2512.00,0.0027
2511.75,0.0028
2511.50,0.0030
2511.25,0.0030
2511.00,0.0030
2510.75,0.0028
2510.50,0.0028
2510.25,0.0027
2510.00,0.0028
2509.75,0.0030
2509.50,0.0032
2509.25,0.0034
2509.00,0.0034
2508.75,0.0034
2508.50,0.0033
2508.25,0.0032
2508.00,0.0031
2507.75,0.0031
2507.50,0.0030
2507.25,0.0030
2507.00,0.0030
2506.75,0.0029
2506.50,0.0028
2506.25,0.0028
2506.00,0.0028
2505.75,0.0030
2505.50,0.0033
2505.25,0.0035
2505.00,0.0036
2504.75,0.0035
2504.50,0.0034
2504.25,0.0032
2504.00,0.0031
2503.75,0.0029
2503.50,0.0028
2503.25,0.0028
2503.00,0.0029
2502.75,0.0030
2502.50,0.0032
2502.25,0.0034
2502.00,0.0036
2501.75,0.0037
2501.50,0.0037
2501.25,0.0037
2501.00,0.0036
2500.75,0.0035
2500.50,0.0035
2500.25,0.0035
2500.00,0.0034
2499.75,0.0033
2499.50,0.0032
2499.25,0.0032
2499.00,0.0032
2498.75,0.0032
2498.50,0.0033
2498.25,0.0033
2498.00,0.0033
2497.75,0.0034
2497.50,0.0035
2497.25,0.0035
2497.00,0.0034
2496.75,0.0033
2496.50,0.0032
2496.25,0.0032
2496.00,0.0034
2495.75,0.0038
2495.50,0.0041
2495.25,0.0043
2495.00,0.0043
2494.75,0.0043
2494.50,0.0042
2494.25,0.0040
2494.00,0.0039
2493.75,0.0038
2493.50,0.0037
2493.25,0.0038
2493.00,0.0039
2492.75,0.0040
2492.50,0.0040
2492.25,0.0039
2492.00,0.0038
2491.75,0.0039
2491.50,0.0040
2491.25,0.0040
2491.00,0.0039
2490.75,0.0038
2490.50,0.0037
2490.25,0.0037
2490.00,0.0039
2489.75,0.0041
2489.50,0.0041
2489.25,0.0039
2489.00,0.0036
2488.75,0.0034
2488.50,0.0034
2488.25,0.0034
2488.00,0.0036
2487.75,0.0037
2487.50,0.0039
2487.25,0.0041
2487.00,0.0042
2486.75,0.0042
2486.50,0.0041
2486.25,0.0038
2486.00,0.0034
2485.75,0.0031
2485.50,0.0031
2485.25,0.0033
2485.00,0.0036
2484.75,0.0040
2484.50,0.0043
2484.25,0.0045
2484.00,0.0046
2483.75,0.0045
2483.50,0.0043
2483.25,0.0041
2483.00,0.0039
2482.75,0.0038
2482.50,0.0038
2482.25,0.0039
2482.00,0.0041
2481.75,0.0043
2481.50,0.0044
2481.25,0.0043
2481.00,0.0042
2480.75,0.0041
2480.50,0.0041
2480.25,0.0042
2480.00,0.0043
2479.75,0.0043
2479.50,0.0043
2479.25,0.0042
2479.00,0.0041
2478.75,0.0038
2478.50,0.0036
2478.25,0.0033
2478.00,0.0032
2477.75,0.0032
2477.50,0.0032
2477.25,0.0034
2477.00,0.0035
2476.75,0.0036
2476.50,0.0038
2476.25,0.0040
2476.00,0.0042
2475.75,0.0044
2475.50,0.0045
2475.25,0.0046
2475.00,0.0045
2474.75,0.0043
2474.50,0.0041
2474.25,0.0038
2474.00,0.0036
2473.75,0.0036
2473.50,0.0036
2473.25,0.0037
2473.00,0.0038
2472.75,0.0038
2472.50,0.0039
2472.25,0.0039
2472.00,0.0039
2471.75,0.0039
2471.50,0.0039
2471.25,0.0039
2471.00,0.0039
2470.75,0.0039
2470.50,0.0039
2470.25,0.0040
2470.00,0.0040
2469.75,0.0040
2469.50,0.0040
2469.25,0.0039
2469.00,0.0037
2468.75,0.0037
2468.50,0.0037
2468.25,0.0038
2468.00,0.0040
2467.75,0.0042
2467.50,0.0042
2467.25,0.0041
2467.00,0.0040
2466.75,0.0039
2466.50,0.0038
2466.25,0.0039
2466.00,0.0040
2465.75,0.0042
2465.50,0.0043
2465.25,0.0043
2465.00,0.0043
2464.75,0.0042
2464.50,0.0040
2464.25,0.0040
2464.00,0.0040
2463.75,0.0040
2463.50,0.0040
2463.25,0.0039
2463.00,0.0037
2462.75,0.0036
2462.50,0.0035
2462.25,0.0035
2462.00,0.0036
2461.75,0.0038
2461.50,0.0040
2461.25,0.0043
2461.00,0.0044
2460.75,0.0045
2460.50,0.0044
2460.25,0.0044
2460.00,0.0043
2459.75,0.0042
2459.50,0.0042
2459.25,0.0041
2459.00,0.0040
2458.75,0.0040
2458.50,0.0039
2458.25,0.0039
2458.00,0.0038
2457.75,0.0038
2457.50,0.0038
2457.25,0.0038
2457.00,0.0038
2456.75,0.0038
2456.50,0.0038
2456.25,0.0038
2456.00,0.0038
2455.75,0.0037
2455.50,0.0037
2455.25,0.0038
2455.00,0.0039
2454.75,0.0040
2454.50,0.0040
2454.25,0.0040
2454.00,0.0039
2453.75,0.0038
2453.50,0.0038
2453.25,0.0037
2453.00,0.0037
2452.75,0.0037
2452.50,0.0037
2452.25,0.0037
2452.00,0.0038
2451.75,0.0038
2451.50,0.0039
2451.25,0.0041
2451.00,0.0042
2450.75,0.0044
2450.50,0.0044
2450.25,0.0043
2450.00,0.0041
2449.75,0.0039
2449.50,0.0037
2449.25,0.0036
2449.00,0.0037
2448.75,0.0039
2448.50,0.0041
2448.25,0.0044
2448.00,0.0045
2447.75,0.0044
2447.50,0.0043
2447.25,0.0041
2447.00,0.0041
2446.75,0.0043
2446.50,0.0044
2446.25,0.0045
2446.00,0.0044
2445.75,0.0042
2445.50,0.0040
2445.25,0.0038
2445.00,0.0037
2444.75,0.0036
2444.50,0.0035
2444.25,0.0036
2444.00,0.0036
2443.75,0.0037
2443.50,0.0037
2443.25,0.0037
2443.00,0.0036
2442.75,0.0036
2442.50,0.0037
2442.25,0.0039
2442.00,0.0041
2441.75,0.0043
2441.50,0.0044
2441.25,0.0045
2441.00,0.0045
2440.75,0.0044
2440.50,0.0042
2440.25,0.0039
2440.00,0.0037
2439.75,0.0037
2439.50,0.0039
2439.25,0.0041
2439.00,0.0041
2438.75,0.0040
2438.50,0.0038
2438.25,0.0038
2438.00,0.0038
2437.75,0.0040
2437.50,0.0042
2437.25,0.0043
2437.00,0.0044
2436.75,0.0043
2436.50,0.0041
2436.25,0.0038
2436.00,0.0037
2435.75,0.0036
2435.50,0.0036
2435.25,0.0035
2435.00,0.0034
2434.75,0.0033
2434.50,0.0034
2434.25,0.0034
2434.00,0.0036
2433.75,0.0037
2433.50,0.0038
2433.25,0.0039
2433.00,0.0040
2432.75,0.0040
2432.50,0.0040
2432.25,0.0041
2432.00,0.0042
2431.75,0.0043
2431.50,0.0043
2431.25,0.0041
2431.00,0.0039
2430.75,0.0037
2430.50,0.0037
2430.25,0.0039
2430.00,0.0041
2429.75,0.0043
2429.50,0.0043
2429.25,0.0042
2429.00,0.0041
2428.75,0.0041
2428.50,0.0041
2428.25,0.0041
2428.00,0.0040
2427.75,0.0038
2427.50,0.0037
2427.25,0.0037
2427.00,0.0038
2426.75,0.0039
2426.50,0.0040
2426.25,0.0040
2426.00,0.0039
2425.75,0.0039
2425.50,0.0039
2425.25,0.0039
2425.00,0.0039
2424.75,0.0039
2424.50,0.0038
2424.25,0.0038
2424.00,0.0039
2423.75,0.0039
2423.50,0.0039
2423.25,0.0038
2423.00,0.0038
2422.75,0.0038
2422.50,0.0038
2422.25,0.0039
2422.00,0.0039
2421.75,0.0039
2421.50,0.0039
2421.25,0.0039
2421.00,0.0038
2420.75,0.0038
2420.50,0.0037
2420.25,0.0038
2420.00,0.0038
2419.75,0.0038
2419.50,0.0037
2419.25,0.0035
2419.00,0.0033
2418.75,0.0033
2418.50,0.0033
2418.25,0.0035
2418.00,0.0038
2417.75,0.0041
2417.50,0.0044
2417.25,0.0044
2417.00,0.0044
2416.75,0.0041
2416.50,0.0039
2416.25,0.0037
2416.00,0.0036
2415.75,0.0037
2415.50,0.0038
2415.25,0.0039
2415.00,0.0041
2414.75,0.0042
2414.50,0.0043
2414.25,0.0043
2414.00,0.0042
2413.75,0.0041
2413.50,0.0040
2413.25,0.0039
2413.00,0.0039
2412.75,0.0039
2412.50,0.0039
2412.25,0.0040
2412.00,0.0041
2411.75,0.0042
2411.50,0.0042
2411.25,0.0042
2411.00,0.0041
2410.75,0.0039
2410.50,0.0038
2410.25,0.0037
2410.00,0.0037
2409.75,0.0038
2409.50,0.0039
2409.25,0.0040
2409.00,0.0041
2408.75,0.0040
2408.50,0.0039
2408.25,0.0037
2408.00,0.0036
2407.75,0.0036
2407.50,0.0038
2407.25,0.0040
2407.00,0.0041
2406.75,0.0041
2406.50,0.0041
2406.25,0.0039
2406.00,0.0037
2405.75,0.0036
2405.50,0.0035
2405.25,0.0035
2405.00,0.0036
2404.75,0.0037
2404.50,0.0038
2404.25,0.0040
2404.00,0.0041
2403.75,0.0042
2403.50,0.0042
2403.25,0.0042
2403.00,0.0041
2402.75,0.0040
2402.50,0.0040
2402.25,0.0040
2402.00,0.0040
2401.75,0.0041
2401.50,0.0042
2401.25,0.0043
2401.00,0.0043
2400.75,0.0042
2400.50,0.0041
2400.25,0.0039
2400.00,0.0036
2399.75,0.0034
2399.50,0.0034
2399.25,0.0035
2399.00,0.0037
2398.75,0.0039
2398.50,0.0041
2398.25,0.0042
2398.00,0.0042
2397.75,0.0041
2397.50,0.0040
2397.25,0.0037
2397.00,0.0035
2396.75,0.0035
2396.50,0.0036
2396.25,0.0038
2396.00,0.0040
2395.75,0.0042
2395.50,0.0041
2395.25,0.0039
2395.00,0.0037
2394.75,0.0036
2394.50,0.0036
2394.25,0.0036
2394.00,0.0035
2393.75,0.0035
2393.50,0.0034
2393.25,0.0034
2393.00,0.0034
2392.75,0.0033
2392.50,0.0033
2392.25,0.0034
2392.00,0.0035
2391.75,0.0036
2391.50,0.0037
2391.25,0.0037
2391.00,0.0037
2390.75,0.0036
2390.50,0.0037
2390.25,0.0038
2390.00,0.0039
2389.75,0.0041
2389.50,0.0041
2389.25,0.0041
2389.00,0.0041
2388.75,0.0040
2388.50,0.0040
2388.25,0.0039
2388.00,0.0038
2387.75,0.0037
2387.50,0.0036
2387.25,0.0036
2387.00,0.0036
2386.75,0.0036
2386.50,0.0036
2386.25,0.0036
2386.00,0.0037
2385.75,0.0038
2385.50,0.0038
2385.25,0.0036
2385.00,0.0034
2384.75,0.0032
2384.50,0.0030
2384.25,0.0031
2384.00,0.0031
2383.75,0.0032
2383.50,0.0033
2383.25,0.0034
2383.00,0.0035
2382.75,0.0037
2382.50,0.0038
2382.25,0.0038
2382.00,0.0036
2381.75,0.0034
2381.50,0.0032
2381.25,0.0031
2381.00,0.0029
2380.75,0.0029
2380.50,0.0028
2380.25,0.0027
2380.00,0.0027
2379.75,0.0026
2379.50,0.0026
2379.25,0.0027
2379.00,0.0028
2378.75,0.0028
2378.50,0.0027
2378.25,0.0026
2378.00,0.0026
2377.75,0.0028
2377.50,0.0030
2377.25,0.0032
2377.00,0.0035
2376.75,0.0036
2376.50,0.0036
2376.25,0.0035
2376.00,0.0033
2375.75,0.0032
2375.50,0.0030
2375.25,0.0027
2375.00,0.0024
2374.75,0.0020
2374.50,0.0017
2374.25,0.0016
2374.00,0.0015
2373.75,0.0016
2373.50,0.0016
2373.25,0.0015
2373.00,0.0013
2372.75,0.0012
2372.50,0.0012
2372.25,0.0016
2372.00,0.0022
2371.75,0.0028
2371.50,0.0031
2371.25,0.0031
2371.00,0.0027
2370.75,0.0022
2370.50,0.0019
2370.25,0.0019
2370.00,0.0020
2369.75,0.0021
2369.50,0.0021
2369.25,0.0020
2369.00,0.0018
2368.75,0.0015
2368.50,0.0013
2368.25,0.0013
2368.00,0.0013
2367.75,0.0014
2367.50,0.0014
2367.25,0.0013
2367.00,0.0010
2366.75,0.0008
2366.50,0.0009
2366.25,0.0013
2366.00,0.0021
2365.75,0.0029
2365.50,0.0036
2365.25,0.0041
2365.00,0.0041
2364.75,0.0040
2364.50,0.0038
2364.25,0.0036
2364.00,0.0033
2363.75,0.0028
2363.50,0.0024
2363.25,0.0021
2363.00,0.0021
2362.75,0.0023
2362.50,0.0025
2362.25,0.0027
2362.00,0.0028
2361.75,0.0027
2361.50,0.0027
2361.25,0.0028
2361.00,0.0030
2360.75,0.0032
2360.50,0.0032
2360.25,0.0028
2360.00,0.0020
2359.75,0.0014
2359.50,0.0011
2359.25,0.0012
2359.00,0.0014
2358.75,0.0019
2358.50,0.0027
2358.25,0.0036
2358.00,0.0041
2357.75,0.0042
2357.50,0.0039
2357.25,0.0033
2357.00,0.0027
2356.75,0.0025
2356.50,0.0026
2356.25,0.0028
2356.00,0.0030
2355.75,0.0033
2355.50,0.0035
2355.25,0.0035
2355.00,0.0033
2354.75,0.0029
2354.50,0.0026
2354.25,0.0026
2354.00,0.0030
2353.75,0.0035
2353.50,0.0038
2353.25,0.0038
2353.00,0.0035
2352.75,0.0030
2352.50,0.0029
2352.25,0.0032
2352.00,0.0035
2351.75,0.0036
2351.50,0.0033
2351.25,0.0027
2351.00,0.0025
2350.75,0.0027
2350.50,0.0031
2350.25,0.0034
2350.00,0.0035
2349.75,0.0033
2349.50,0.0031
2349.25,0.0030
2349.00,0.0031
2348.75,0.0034
2348.50,0.0036
2348.25,0.0038
2348.00,0.0038
2347.75,0.0036
2347.50,0.0033
2347.25,0.0030
2347.00,0.0029
2346.75,0.0030
2346.50,0.0031
2346.25,0.0033
2346.00,0.0032
2345.75,0.0031
2345.50,0.0032
2345.25,0.0035
2345.00,0.0036
2344.75,0.0037
2344.50,0.0034
2344.25,0.0027
2344.00,0.0022
2343.75,0.0022
2343.50,0.0024
2343.25,0.0028
2343.00,0.0031
2342.75,0.0032
2342.50,0.0030
2342.25,0.0029
2342.00,0.0031
2341.75,0.0033
2341.50,0.0034
2341.25,0.0035
2341.00,0.0034
2340.75,0.0032
2340.50,0.0033
2340.25,0.0035
2340.00,0.0035
2339.75,0.0034
2339.50,0.0030
2339.25,0.0024
2339.00,0.0021
2338.75,0.0024
2338.50,0.0027
2338.25,0.0028
2338.00,0.0028
2337.75,0.0027
2337.50,0.0027
2337.25,0.0031
2337.00,0.0035
2336.75,0.0036
2336.50,0.0033
2336.25,0.0027
2336.00,0.0021
2335.75,0.0019
2335.50,0.0023
2335.25,0.0030
2335.00,0.0033
2334.75,0.0032
2334.50,0.0026
2334.25,0.0018
2334.00,0.0009
2333.75,0.0009
2333.50,0.0015
2333.25,0.0022
2333.00,0.0025
2332.75,0.0028
2332.50,0.0030
2332.25,0.0030
2332.00,0.0030
2331.75,0.0031
2331.50,0.0032
2331.25,0.0031
2331.00,0.0028
2330.75,0.0023
2330.50,0.0017
2330.25,0.0015
2330.00,0.0019
2329.75,0.0025
2329.50,0.0028
2329.25,0.0028
2329.00,0.0028
2328.75,0.0028
2328.50,0.0030
2328.25,0.0032
2328.00,0.0035
2327.75,0.0035
2327.50,0.0032
2327.25,0.0027
2327.00,0.0020
2326.75,0.0012
2326.50,0.0009
2326.25,0.0013
2326.00,0.0019
2325.75,0.0025
2325.50,0.0030
2325.25,0.0035
2325.00,0.0037
2324.75,0.0032
2324.50,0.0025
2324.25,0.0021
2324.00,0.0019
2323.75,0.0020
2323.50,0.0021
2323.25,0.0023
2323.00,0.0022
2322.75,0.0020
2322.50,0.0022
2322.25,0.0027
2322.00,0.0031
2321.75,0.0033
2321.50,0.0030
2321.25,0.0023
2321.00,0.0012
2320.75,0.0007
2320.50,0.0011
2320.25,0.0019
2320.00,0.0026
2319.75,0.0030
2319.50,0.0032
2319.25,0.0030
2319.00,0.0026
2318.75,0.0024
2318.50,0.0024
2318.25,0.0025
2318.00,0.0025
2317.75,0.0026
2317.50,0.0027
2317.25,0.0029
2317.00,0.0030
2316.75,0.0029
2316.50,0.0028
2316.25,0.0027
2316.00,0.0026
2315.75,0.0026
2315.50,0.0026
2315.25,0.0027
2315.00,0.0028
2314.75,0.0028
2314.50,0.0028
2314.25,0.0027
2314.00,0.0026
2313.75,0.0024
2313.50,0.0022
2313.25,0.0020
2313.00,0.0019
2312.75,0.0019
2312.50,0.0022
2312.25,0.0025
2312.00,0.0027
2311.75,0.0027
2311.50,0.0025
2311.25,0.0021
2311.00,0.0017
2310.75,0.0016
2310.50,0.0017
2310.25,0.0020
2310.00,0.0022
2309.75,0.0023
2309.50,0.0023
2309.25,0.0023
2309.00,0.0022
2308.75,0.0022
2308.50,0.0022
2308.25,0.0024
2308.00,0.0027
2307.75,0.0028
2307.50,0.0029
2307.25,0.0027
2307.00,0.0024
2306.75,0.0022
2306.50,0.0023
2306.25,0.0025
2306.00,0.0028
2305.75,0.0031
2305.50,0.0033
2305.25,0.0034
2305.00,0.0034
2304.75,0.0032
2304.50,0.0031
2304.25,0.0030
2304.00,0.0031
2303.75,0.0032
2303.50,0.0033
2303.25,0.0033
2303.00,0.0032
2302.75,0.0030
2302.50,0.0028
2302.25,0.0027
2302.00,0.0028
2301.75,0.0030
2301.50,0.0031
2301.25,0.0031
2301.00,0.0029
2300.75,0.0026
2300.50,0.0023
2300.25,0.0021
2300.00,0.0021
2299.75,0.0022
2299.50,0.0024
2299.25,0.0026
2299.00,0.0028
2298.75,0.0029
2298.50,0.0030
2298.25,0.0031
2298.00,0.0032
2297.75,0.0033
2297.50,0.0034
2297.25,0.0034
2297.00,0.0033
2296.75,0.0033
2296.50,0.0032
2296.25,0.0032
2296.00,0.0031
2295.75,0.0032
2295.50,0.0032
2295.25,0.0033
2295.00,0.0034
2294.75,0.0035
2294.50,0.0036
2294.25,0.0035
2294.00,0.0035
2293.75,0.0035
2293.50,0.0036
2293.25,0.0037
2293.00,0.0037
2292.75,0.0037
2292.50,0.0037
2292.25,0.0037
2292.00,0.0038
2291.75,0.0040
2291.50,0.0041
2291.25,0.0042
2291.00,0.0041
2290.75,0.0039
2290.50,0.0038
2290.25,0.0037
2290.00,0.0038
2289.75,0.0039
2289.50,0.0039
2289.25,0.0039
2289.00,0.0038
2288.75,0.0035
2288.50,0.0033
2288.25,0.0031
2288.00,0.0030
2287.75,0.0030
2287.50,0.0030
2287.25,0.0031
2287.00,0.0032
2286.75,0.0032
2286.50,0.0031
2286.25,0.0030
2286.00,0.0028
2285.75,0.0029
2285.50,0.0031
2285.25,0.0034
2285.00,0.0037
2284.75,0.0038
2284.50,0.0036
2284.25,0.0033
2284.00,0.0031
2283.75,0.0029
2283.50,0.0029
2283.25,0.0031
2283.00,0.0032
2282.75,0.0034
2282.50,0.0037
2282.25,0.0040
2282.00,0.0043
2281.75,0.0043
2281.50,0.0041
2281.25,0.0037
2281.00,0.0035
2280.75,0.0034
2280.50,0.0036
2280.25,0.0037
2280.00,0.0036
2279.75,0.0034
2279.50,0.0033
2279.25,0.0032
2279.00,0.0034
2278.75,0.0035
2278.50,0.0036
2278.25,0.0036
2278.00,0.0035
2277.75,0.0033
2277.50,0.0032
2277.25,0.0031
2277.00,0.0030
2276.75,0.0031
2276.50,0.0032
2276.25,0.0032
2276.00,0.0031
2275.75,0.0030
2275.50,0.0030
2275.25,0.0029
2275.00,0.0030
2274.75,0.0032
2274.50,0.0035
2274.25,0.0038
2274.00,0.0041
2273.75,0.0042
2273.50,0.0040
2273.25,0.0037
2273.00,0.0033
2272.75,0.0030
2272.50,0.0029
2272.25,0.0030
2272.00,0.0033
2271.75,0.0037
2271.50,0.0041
2271.25,0.0045
2271.00,0.0045
2270.75,0.0042
2270.50,0.0037
2270.25,0.0032
2270.00,0.0028
2269.75,0.0026
2269.50,0.0025
2269.25,0.0025
2269.00,0.0026
2268.75,0.0028
2268.50,0.0032
2268.25,0.0036
2268.00,0.0038
2267.75,0.0038
2267.50,0.0035
2267.25,0.0032
2267.00,0.0029
2266.75,0.0027
2266.50,0.0027
2266.25,0.0029
2266.00,0.0031
2265.75,0.0032
2265.50,0.0033
2265.25,0.0033
2265.00,0.0032
2264.75,0.0031
2264.50,0.0030
2264.25,0.0030
2264.00,0.0030
2263.75,0.0029
2263.50,0.0029
2263.25,0.0027
2263.00,0.0026
2262.75,0.0025
2262.50,0.0026
2262.25,0.0028
2262.00,0.0030
2261.75,0.0031
2261.50,0.0032
2261.25,0.0032
2261.00,0.0033
2260.75,0.0033
2260.50,0.0033
2260.25,0.0033
2260.00,0.0032
2259.75,0.0032
2259.50,0.0033
2259.25,0.0034
2259.00,0.0034
2258.75,0.0034
2258.50,0.0033
2258.25,0.0032
2258.00,0.0033
2257.75,0.0033
2257.50,0.0032
2257.25,0.0029
2257.00,0.0025
2256.75,0.0020
2256.50,0.0017
2256.25,0.0017
2256.00,0.0018
2255.75,0.0021
2255.50,0.0023
2255.25,0.0025
2255.00,0.0028
2254.75,0.0031
2254.50,0.0034
2254.25,0.0036
2254.00,0.0035
2253.75,0.0032
2253.50,0.0028
2253.25,0.0024
2253.00,0.0021
2252.75,0.0020
2252.50,0.0022
2252.25,0.0027
2252.00,0.0032
2251.75,0.0037
2251.50,0.0038
2251.25,0.0036
2251.00,0.0032
2250.75,0.0029
2250.50,0.0028
2250.25,0.0029
2250.00,0.0029
2249.75,0.0028
2249.50,0.0025
2249.25,0.0022
2249.00,0.0020
2248.75,0.0020
2248.50,0.0022
2248.25,0.0026
2248.00,0.0029
2247.75,0.0031
2247.50,0.0032
2247.25,0.0032
2247.00,0.0032
2246.75,0.0032
2246.50,0.0031
2246.25,0.0028
2246.00,0.0024
2245.75,0.0022
2245.50,0.0021
2245.25,0.0022
2245.00,0.0023
2244.75,0.0025
2244.50,0.0027
2244.25,0.0029
2244.00,0.0030
2243.75,0.0030
2243.50,0.0028
2243.25,0.0027
2243.00,0.0027
2242.75,0.0027
2242.50,0.0026
2242.25,0.0024
2242.00,0.0023
2241.75,0.0024
2241.50,0.0026
2241.25,0.0030
2241.00,0.0032
2240.75,0.0034
2240.50,0.0033
2240.25,0.0029
2240.00,0.0023
2239.75,0.0018
2239.50,0.0015
2239.25,0.0016
2239.00,0.0019
2238.75,0.0025
2238.50,0.0030
2238.25,0.0035
2238.00,0.0037
2237.75,0.0037
2237.50,0.0036
2237.25,0.0034
2237.00,0.0033
2236.75,0.0033
2236.50,0.0033
2236.25,0.0031
2236.00,0.0029
2235.75,0.0026
2235.50,0.0022
2235.25,0.0020
2235.00,0.0019
2234.75,0.0019
2234.50,0.0020
2234.25,0.0020
2234.00,0.0020
2233.75,0.0020
2233.50,0.0021
2233.25,0.0022
2233.00,0.0024
2232.75,0.0025
2232.50,0.0025
2232.25,0.0024
2232.00,0.0025
2231.75,0.0028
2231.50,0.0032
2231.25,0.0034
2231.00,0.0035
2230.75,0.0033
2230.50,0.0031
2230.25,0.0031
2230.00,0.0031
2229.75,0.0031
2229.50,0.0029
2229.25,0.0025
2229.00,0.0020
2228.75,0.0017
2228.50,0.0017
2228.25,0.0019
2228.00,0.0023
2227.75,0.0025
2227.50,0.0025
2227.25,0.0023
2227.00,0.0021
2226.75,0.0019
2226.50,0.0017
2226.25,0.0014
2226.00,0.0010
2225.75,0.0009
2225.50,0.0010
2225.25,0.0016
2225.00,0.0022
2224.75,0.0028
2224.50,0.0031
2224.25,0.0032
2224.00,0.0032
2223.75,0.0032
2223.50,0.0033
2223.25,0.0035
2223.00,0.0035
2222.75,0.0034
2222.50,0.0030
2222.25,0.0024
2222.00,0.0017
2221.75,0.0012
2221.50,0.0008
2221.25,0.0007
2221.00,0.0007
2220.75,0.0008
2220.50,0.0010
2220.25,0.0011
2220.00,0.0013
2219.75,0.0017
2219.50,0.0021
2219.25,0.0024
2219.00,0.0026
2218.75,0.0023
2218.50,0.0015
2218.25,0.0007
2218.00,0.0001
2217.75,-0.0001
2217.50,0.0003
2217.25,0.0009
2217.00,0.0015
2216.75,0.0022
2216.50,0.0027
2216.25,0.0030
2216.00,0.0029
2215.75,0.0026
2215.50,0.0024
2215.25,0.0023
2215.00,0.0023
2214.75,0.0024
2214.50,0.0024
2214.25,0.0022
2214.00,0.0020
2213.75,0.0017
2213.50,0.0015
2213.25,0.0014
2213.00,0.0012
2212.75,0.0011
2212.50,0.0011
2212.25,0.0012
2212.00,0.0015
2211.75,0.0018
2211.50,0.0021
2211.25,0.0023
2211.00,0.0024
2210.75,0.0025
2210.50,0.0025
2210.25,0.0024
2210.00,0.0023
2209.75,0.0022
2209.50,0.0019
2209.25,0.0016
2209.00,0.0013
2208.75,0.0013
2208.50,0.0013
2208.25,0.0012
2208.00,0.0010
2207.75,0.0007
2207.50,0.0006
2207.25,0.0008
2207.00,0.0013
2206.75,0.0018
2206.50,0.0022
2206.25,0.0024
2206.00,0.0022
2205.75,0.0020
2205.50,0.0017
2205.25,0.0015
2205.00,0.0014
2204.75,0.0013
2204.50,0.0014
2204.25,0.0015
2204.00,0.0015
2203.75,0.0015
2203.50,0.0016
2203.25,0.0017
2203.00,0.0020
2202.75,0.0023
2202.50,0.0024
2202.25,0.0025
2202.00,0.0025
2201.75,0.0026
2201.50,0.0026
2201.25,0.0025
2201.00,0.0021
2200.75,0.0015
2200.50,0.0010
2200.25,0.0006
2200.00,0.0006
2199.75,0.0009
2199.50,0.0012
2199.25,0.0014
2199.00,0.0015
2198.75,0.0015
2198.50,0.0014
2198.25,0.0013
2198.00,0.0011
2197.75,0.0010
2197.50,0.0009
2197.25,0.0010
2197.00,0.0011
2196.75,0.0012
2196.50,0.0014
2196.25,0.0016
2196.00,0.0018
2195.75,0.0019
2195.50,0.0022
2195.25,0.0024
2195.00,0.0026
2194.75,0.0025
2194.50,0.0022
2194.25,0.0016
2194.00,0.0010
2193.75,0.0006
2193.50,0.0003
2193.25,0.0002
2193.00,0.0002
2192.75,0.0002
2192.50,0.0001
2192.25,0.0001
2192.00,0.0004
2191.75,0.0009
2191.50,0.0014
2191.25,0.0019
2191.00,0.0023
2190.75,0.0026
2190.50,0.0027
2190.25,0.0027
2190.00,0.0025
2189.75,0.0022
2189.50,0.0020
2189.25,0.0022
2189.00,0.0025
2188.75,0.0030
2188.50,0.0033
2188.25,0.0034
2188.00,0.0033
2187.75,0.0032
2187.50,0.0030
2187.25,0.0028
2187.00,0.0027
2186.75,0.0026
2186.50,0.0024
2186.25,0.0020
2186.00,0.0015
2185.75,0.0009
2185.50,0.0003
2185.25,-0.0002
2185.00,-0.0006
2184.75,-0.0006
2184.50,-0.0001
2184.25,0.0006
2184.00,0.0014
2183.75,0.0020
2183.50,0.0021
2183.25,0.0019
2183.00,0.0015
2182.75,0.0012
2182.50,0.0011
2182.25,0.0011
2182.00,0.0009
2181.75,0.0005
2181.50,0.0001
2181.25,-0.0001
2181.00,0.0003
2180.75,0.0013
2180.50,0.0024
2180.25,0.0031
2180.00,0.0032
2179.75,0.0027
2179.50,0.0020
2179.25,0.0014
2179.00,0.0011
2178.75,0.0009
2178.50,0.0008
2178.25,0.0006
2178.00,0.0004
2177.75,0.0005
2177.50,0.0010
2177.25,0.0016
2177.00,0.0022
2176.75,0.0027
2176.50,0.0028
2176.25,0.0028
2176.00,0.0025
2175.75,0.0022
2175.50,0.0019
2175.25,0.0017
2175.00,0.0017
2174.75,0.0020
2174.50,0.0024
2174.25,0.0026
2174.00,0.0024
2173.75,0.0019
2173.50,0.0014
2173.25,0.0011
2173.00,0.0012
2172.75,0.0014
2172.50,0.0016
2172.25,0.0017
2172.00,0.0018
2171.75,0.0020
2171.50,0.0019
2171.25,0.0017
2171.00,0.0013
2170.75,0.0011
2170.50,0.0010
2170.25,0.0010
2170.00,0.0010
2169.75,0.0011
2169.50,0.0012
2169.25,0.0017
2169.00,0.0022
2168.75,0.0027
2168.50,0.0028
2168.25,0.0026
2168.00,0.0024
2167.75,0.0021
2167.50,0.0018
2167.25,0.0015
2167.00,0.0012
2166.75,0.0010
2166.50,0.0009
2166.25,0.0008
2166.00,0.0009
2165.75,0.0011
2165.50,0.0012
2165.25,0.0013
2165.00,0.0014
2164.75,0.0018
2164.50,0.0024
2164.25,0.0029
2164.00,0.0030
2163.75,0.0025
2163.50,0.0015
2163.25,0.0002
2163.00,-0.0008
2162.75,-0.0012
2162.50,-0.0008
2162.25,0.0002
2162.00,0.0012
2161.75,0.0020
2161.50,0.0022
2161.25,0.0018
2161.00,0.0011
2160.75,0.0003
2160.50,-0.0000
2160.25,0.0001
2160.00,0.0004
2159.75,0.0007
2159.50,0.0008
2159.25,0.0008
2159.00,0.0007
2158.75,0.0006
2158.50,0.0006
2158.25,0.0006
2158.00,0.0006
2157.75,0.0006
2157.50,0.0004
2157.25,0.0002
2157.00,0.0000
2156.75,-0.0001
2156.50,-0.0001
2156.25,-0.0003
2156.00,-0.0005
2155.75,-0.0007
2155.50,-0.0007
2155.25,-0.0006
2155.00,-0.0003
2154.75,0.0000
2154.50,0.0004
2154.25,0.0007
2154.00,0.0011
2153.75,0.0013
2153.50,0.0013
2153.25,0.0013
2153.00,0.0012
2152.75,0.0012
2152.50,0.0010
2152.25,0.0008
2152.00,0.0005
2151.75,0.0003
2151.50,0.0004
2151.25,0.0007
2151.00,0.0013
2150.75,0.0019
2150.50,0.0023
2150.25,0.0023
2150.00,0.0018
2149.75,0.0014
2149.50,0.0011
2149.25,0.0012
2149.00,0.0016
2148.75,0.0022
2148.50,0.0026
2148.25,0.0028
2148.00,0.0027
2147.75,0.0024
2147.50,0.0019
2147.25,0.0013
2147.00,0.0008
2146.75,0.0004
2146.50,0.0003
2146.25,0.0005
2146.00,0.0009
2145.75,0.0013
2145.50,0.0017
2145.25,0.0019
2145.00,0.0018
2144.75,0.0014
2144.50,0.0009
2144.25,0.0005
2144.00,0.0005
2143.75,0.0008
2143.50,0.0013
2143.25,0.0017
2143.00,0.0019
2142.75,0.0018
2142.50,0.0015
2142.25,0.0012
2142.00,0.0008
2141.75,0.0007
2141.50,0.0007
2141.25,0.0010
2141.00,0.0012
2140.75,0.0013
2140.50,0.0014
2140.25,0.0014
2140.00,0.0014
2139.75,0.0015
2139.50,0.0017
2139.25,0.0019
2139.00,0.0021
2138.75,0.0022
2138.50,0.0021
2138.25,0.0020
2138.00,0.0019
2137.75,0.0020
2137.50,0.0020
2137.25,0.0021
2137.00,0.0019
2136.75,0.0017
2136.50,0.0014
2136.25,0.0012
2136.00,0.0010
2135.75,0.0010
2135.50,0.0011
2135.25,0.0012
2135.00,0.0014
2134.75,0.0016
2134.50,0.0017
2134.25,0.0018
2134.00,0.0019
2133.75,0.0019
2133.50,0.0019
2133.25,0.0018
2133.00,0.0018
2132.75,0.0018
2132.50,0.0018
2132.25,0.0020
2132.00,0.0021
2131.75,0.0022
2131.50,0.0022
2131.25,0.0020
2131.00,0.0017
2130.75,0.0013
2130.50,0.0009
2130.25,0.0008
2130.00,0.0010
2129.75,0.0014
2129.50,0.0019
2129.25,0.0025
2129.00,0.0031
2128.75,0.0034
2128.50,0.0035
2128.25,0.0032
2128.00,0.0026
2127.75,0.0021
2127.50,0.0016
2127.25,0.0013
2127.00,0.0012
2126.75,0.0013
2126.50,0.0014
2126.25,0.0015
2126.00,0.0017
2125.75,0.0019
2125.50,0.0020
2125.25,0.0020
2125.00,0.0019
2124.75,0.0019
2124.50,0.0020
2124.25,0.0022
2124.00,0.0024
2123.75,0.0024
2123.50,0.0023
2123.25,0.0022
2123.00,0.0021
2122.75,0.0022
2122.50,0.0024
2122.25,0.0027
2122.00,0.0030
2121.75,0.0032
2121.50,0.0033
2121.25,0.0033
2121.00,0.0032
2120.75,0.0029
2120.50,0.0025
2120.25,0.0018
2120.00,0.0012
2119.75,0.0008
2119.50,0.0007
2119.25,0.0010
2119.00,0.0014
2118.75,0.0018
2118.50,0.0019
2118.25,0.0020
2118.00,0.0021
2117.75,0.0020
2117.50,0.0018
2117.25,0.0015
2117.00,0.0013
2116.75,0.0012
2116.50,0.0013
2116.25,0.0016
2116.00,0.0020
2115.75,0.0022
2115.50,0.0021
2115.25,0.0019
2115.00,0.0016
2114.75,0.0014
2114.50,0.0015
2114.25,0.0018
2114.00,0.0020
2113.75,0.0021
2113.50,0.0020
2113.25,0.0018
2113.00,0.0017
2112.75,0.0016
2112.50,0.0014
2112.25,0.0012
2112.00,0.0010
2111.75,0.0009
2111.50,0.0010
2111.25,0.0013
2111.00,0.0015
2110.75,0.0015
2110.50,0.0013
2110.25,0.0011
2110.00,0.0011
2109.75,0.0013
2109.50,0.0016
2109.25,0.0018
2109.00,0.0019
2108.75,0.0019
2108.50,0.0019
2108.25,0.0021
2108.00,0.0022
2107.75,0.0024
2107.50,0.0025
2107.25,0.0025
2107.00,0.0024
2106.75,0.0025
2106.50,0.0026
2106.25,0.0026
2106.00,0.0026
2105.75,0.0024
2105.50,0.0022
2105.25,0.0021
2105.00,0.0022
2104.75,0.0025
2104.50,0.0028
2104.25,0.0029
2104.00,0.0029
2103.75,0.0028
2103.50,0.0026
2103.25,0.0023
2103.00,0.0022
2102.75,0.0023
2102.50,0.0025
2102.25,0.0027
2102.00,0.0026
2101.75,0.0025
2101.50,0.0023
2101.25,0.0024
2101.00,0.0025
2100.75,0.0026
2100.50,0.0026
2100.25,0.0025
2100.00,0.0024
2099.75,0.0024
2099.50,0.0024
2099.25,0.0025
2099.00,0.0025
2098.75,0.0023
2098.50,0.0022
2098.25,0.0021
2098.00,0.0020
2097.75,0.0019
2097.50,0.0018
2097.25,0.0018
2097.00,0.0019
2096.75,0.0022
2096.50,0.0025
2096.25,0.0027
2096.00,0.0027
2095.75,0.0025
2095.50,0.0022
2095.25,0.0020
2095.00,0.0020
2094.75,0.0021
2094.50,0.0024
2094.25,0.0028
2094.00,0.0031
2093.75,0.0033
2093.50,0.0034
2093.25,0.0033
2093.00,0.0030
2092.75,0.0027
2092.50,0.0022
2092.25,0.0018
2092.00,0.0015
2091.75,0.0013
2091.50,0.0013
2091.25,0.0015
2091.00,0.0019
2090.75,0.0023
2090.50,0.0028
2090.25,0.0032
2090.00,0.0034
2089.75,0.0034
2089.50,0.0031
2089.25,0.0027
2089.00,0.0024
2088.75,0.0022
2088.50,0.0021
2088.25,0.0022
2088.00,0.0023
2087.75,0.0021
2087.50,0.0019
2087.25,0.0017
2087.00,0.0017
2086.75,0.0019
2086.50,0.0021
2086.25,0.0022
2086.00,0.0021
2085.75,0.0019
2085.50,0.0016
2085.25,0.0015
2085.00,0.0014
2084.75,0.0013
2084.50,0.0013
2084.25,0.0012
2084.00,0.0013
2083.75,0.0014
2083.50,0.0015
2083.25,0.0018
2083.00,0.0021
2082.75,0.0024
2082.50,0.0026
2082.25,0.0027
2082.00,0.0026
2081.75,0.0024
2081.50,0.0023
2081.25,0.0022
2081.00,0.0021
2080.75,0.0021
2080.50,0.0021
2080.25,0.0022
2080.00,0.0024
2079.75,0.0025
2079.50,0.0023
2079.25,0.0020
2079.00,0.0017
2078.75,0.0015
2078.50,0.0016
2078.25,0.0018
2078.00,0.0019
2077.75,0.0019
2077.50,0.0016
2077.25,0.0014
2077.00,0.0013
2076.75,0.0014
2076.50,0.0016
2076.25,0.0017
2076.00,0.0016
2075.75,0.0014
2075.50,0.0012
2075.25,0.0011
2075.00,0.0009
2074.75,0.0008
2074.50,0.0008
2074.25,0.0009
2074.00,0.0011
2073.75,0.0014
2073.50,0.0016
2073.25,0.0017
2073.00,0.0019
2072.75,0.0023
2072.50,0.0026
2072.25,0.0028
2072.00,0.0028
2071.75,0.0026
2071.50,0.0024
2071.25,0.0024
2071.00,0.0026
2070.75,0.0028
2070.50,0.0029
2070.25,0.0028
2070.00,0.0028
2069.75,0.0027
2069.50,0.0028
2069.25,0.0029
2069.00,0.0029
2068.75,0.0027
2068.50,0.0023
2068.25,0.0019
2068.00,0.0015
2067.75,0.0014
2067.50,0.0015
2067.25,0.0017
2067.00,0.0019
2066.75,0.0021
2066.50,0.0021
2066.25,0.0019
2066.00,0.0016
2065.75,0.0013
2065.50,0.0012
2065.25,0.0014
2065.00,0.0016
2064.75,0.0018
2064.50,0.0019
2064.25,0.0019
2064.00,0.0020
2063.75,0.0021
2063.50,0.0022
2063.25,0.0021
2063.00,0.0018
2062.75,0.0015
2062.50,0.0013
2062.25,0.0011
2062.00,0.0011
2061.75,0.0012
2061.50,0.0011
2061.25,0.0011
2061.00,0.0011
2060.75,0.0013
2060.50,0.0017
2060.25,0.0021
2060.00,0.0024
2059.75,0.0024
2059.50,0.0021
2059.25,0.0018
2059.00,0.0014
2058.75,0.0014
2058.50,0.0016
2058.25,0.0020
2058.00,0.0023
2057.75,0.0025
2057.50,0.0025
2057.25,0.0022
2057.00,0.0019
2056.75,0.0016
2056.50,0.0013
2056.25,0.0012
2056.00,0.0011
2055.75,0.0012
2055.50,0.0012
2055.25,0.0013
2055.00,0.0013
2054.75,0.0014
2054.50,0.0015
2054.25,0.0016
2054.00,0.0014
2053.75,0.0011
2053.50,0.0008
2053.25,0.0008
2053.00,0.0010
2052.75,0.0014
2052.50,0.0017
2052.25,0.0017
2052.00,0.0016
2051.75,0.0016
2051.50,0.0017
2051.25,0.0018
2051.00,0.0018
2050.75,0.0018
2050.50,0.0017
2050.25,0.0018
2050.00,0.0018
2049.75,0.0017
2049.50,0.0015
2049.25,0.0011
2049.00,0.0009
2048.75,0.0007
2048.50,0.0006
2048.25,0.0006
2048.00,0.0006
2047.75,0.0007
2047.50,0.0008
2047.25,0.0008
2047.00,0.0008
2046.75,0.0009
2046.50,0.0010
2046.25,0.0014
2046.00,0.0018
2045.75,0.0019
2045.50,0.0018
2045.25,0.0015
2045.00,0.0014
2044.75,0.0014
2044.50,0.0017
2044.25,0.0019
2044.00,0.0020
2043.75,0.0019
2043.50,0.0017
2043.25,0.0014
2043.00,0.0012
2042.75,0.0010
2042.50,0.0010
2042.25,0.0011
2042.00,0.0013
2041.75,0.0013
2041.50,0.0010
2041.25,0.0006
2041.00,0.0002
2040.75,-0.0000
2040.50,-0.0001
2040.25,0.0002
2040.00,0.0007
2039.75,0.0014
2039.50,0.0020
2039.25,0.0023
2039.00,0.0022
2038.75,0.0017
2038.50,0.0011
2038.25,0.0006
2038.00,0.0003
2037.75,0.0004
2037.50,0.0007
2037.25,0.0011
2037.00,0.0015
2036.75,0.0016
2036.50,0.0014
2036.25,0.0011
2036.00,0.0008
2035.75,0.0007
2035.50,0.0007
2035.25,0.0007
2035.00,0.0004
2034.75,-0.0001
2034.50,-0.0006
2034.25,-0.0009
2034.00,-0.0009
2033.75,-0.0006
2033.50,-0.0002
2033.25,0.0001
2033.00,0.0004
2032.75,0.0005
2032.50,0.0006
2032.25,0.0005
2032.00,0.0002
2031.75,-0.0002
2031.50,-0.0004
2031.25,-0.0002
2031.00,0.0001
2030.75,0.0006
2030.50,0.0009
2030.25,0.0008
2030.00,0.0004
2029.75,-0.0000
2029.50,-0.0003
2029.25,-0.0002
2029.00,0.0000
2028.75,0.0004
2028.50,0.0008
2028.25,0.0010
2028.00,0.0009
2027.75,0.0006
2027.50,0.0004
2027.25,0.0004
2027.00,0.0006
2026.75,0.0008
2026.50,0.0009
2026.25,0.0009
2026.00,0.0008
2025.75,0.0005
2025.50,0.0001
2025.25,-0.0005
2025.00,-0.0008
2024.75,-0.0009
2024.50,-0.0006
2024.25,-0.0000
2024.00,0.0005
2023.75,0.0009
2023.50,0.0011
2023.25,0.0012
2023.00,0.0010
2022.75,0.0007
2022.50,0.0002
2022.25,-0.0002
2022.00,-0.0003
2021.75,-0.0003
2021.50,-0.0001
2021.25,0.0001
2021.00,0.0003
2020.75,0.0005
2020.50,0.0006
2020.25,0.0008
2020.00,0.0010
2019.75,0.0014
2019.50,0.0016
2019.25,0.0015
2019.00,0.0010
2018.75,0.0005
2018.50,0.0002
2018.25,0.0003
2018.00,0.0009
2017.75,0.0018
2017.50,0.0026
2017.25,0.0031
2017.00,0.0029
2016.75,0.0024
2016.50,0.0018
2016.25,0.0015
2016.00,0.0013
2015.75,0.0013
2015.50,0.0012
2015.25,0.0012
2015.00,0.0012
2014.75,0.0013
2014.50,0.0014
2014.25,0.0015
2014.00,0.0016
2013.75,0.0017
2013.50,0.0017
2013.25,0.0016
2013.00,0.0016
2012.75,0.0019
2012.50,0.0023
2012.25,0.0028
2012.00,0.0030
2011.75,0.0028
2011.50,0.0024
2011.25,0.0020
2011.00,0.0017
2010.75,0.0016
2010.50,0.0016
2010.25,0.0015
2010.00,0.0014
2009.75,0.0013
2009.50,0.0015
2009.25,0.0017
2009.00,0.0020
2008.75,0.0020
2008.50,0.0018
2008.25,0.0013
2008.00,0.0010
2007.75,0.0010
2007.50,0.0011
2007.25,0.0012
2007.00,0.0012
2006.75,0.0011
2006.50,0.0010
2006.25,0.0010
2006.00,0.0013
2005.75,0.0017
2005.50,0.0020
2005.25,0.0024
2005.00,0.0026
2004.75,0.0028
2004.50,0.0028
2004.25,0.0027
2004.00,0.0024
2003.75,0.0018
2003.50,0.0013
2003.25,0.0010
2003.00,0.0012
2002.75,0.0017
2002.50,0.0021
2002.25,0.0022
2002.00,0.0020
2001.75,0.0016
2001.50,0.0012
2001.25,0.0012
2001.00,0.0014
2000.75,0.0017
2000.50,0.0017
2000.25,0.0016
2000.00,0.0015
1999.75,0.0015
1999.50,0.0018
1999.25,0.0022
1999.00,0.0026
1998.75,0.0027
1998.50,0.0026
1998.25,0.0024
1998.00,0.0021
1997.75,0.0019
1997.50,0.0018
1997.25,0.0017
1997.00,0.0017
1996.75,0.0016
1996.50,0.0016
1996.25,0.0016
1996.00,0.0016
1995.75,0.0015
1995.50,0.0015
1995.25,0.0014
1995.00,0.0016
1994.75,0.0021
1994.50,0.0026
1994.25,0.0031
1994.00,0.0034
1993.75,0.0034
1993.50,0.0031
1993.25,0.0029
1993.00,0.0028
1992.75,0.0027
1992.50,0.0026
1992.25,0.0023
1992.00,0.0020
1991.75,0.0016
1991.50,0.0016
1991.25,0.0019
1991.00,0.0024
1990.75,0.0029
1990.50,0.0033
1990.25,0.0033
1990.00,0.0031
1989.75,0.0027
1989.50,0.0024
1989.25,0.0022
1989.00,0.0022
1988.75,0.0024
1988.50,0.0025
1988.25,0.0026
1988.00,0.0026
1987.75,0.0025
1987.50,0.0025
1987.25,0.0026
1987.00,0.0028
1986.75,0.0031
1986.50,0.0034
1986.25,0.0036
1986.00,0.0038
1985.75,0.0038
1985.50,0.0036
1985.25,0.0032
1985.00,0.0029
1984.75,0.0028
1984.50,0.0030
1984.25,0.0032
1984.00,0.0035
1983.75,0.0036
1983.50,0.0036
1983.25,0.0035
1983.00,0.0032
1982.75,0.0029
1982.50,0.0026
1982.25,0.0026
1982.00,0.0026
1981.75,0.0026
1981.50,0.0025
1981.25,0.0024
1981.00,0.0023
1980.75,0.0024
1980.50,0.0025
1980.25,0.0027
1980.00,0.0028
1979.75,0.0030
1979.50,0.0033
1979.25,0.0037
1979.00,0.0039
1978.75,0.0039
1978.50,0.0037
1978.25,0.0033
1978.00,0.0027
1977.75,0.0021
1977.50,0.0016
1977.25,0.0015
1977.00,0.0019
1976.75,0.0029
1976.50,0.0042
1976.25,0.0052
1976.00,0.0055
1975.75,0.0050
1975.50,0.0041
1975.25,0.0034
1975.00,0.0031
1974.75,0.0032
1974.50,0.0033
1974.25,0.0032
1974.00,0.0028
1973.75,0.0023
1973.50,0.0020
1973.25,0.0020
1973.00,0.0021
1972.75,0.0023
1972.50,0.0024
1972.25,0.0025
1972.00,0.0025
1971.75,0.0026
1971.50,0.0028
1971.25,0.0031
1971.00,0.0034
1970.75,0.0033
1970.50,0.0030
1970.25,0.0027
1970.00,0.0026
1969.75,0.0028
1969.50,0.0031
1969.25,0.0033
1969.00,0.0033
1968.75,0.0032
1968.50,0.0033
1968.25,0.0036
1968.00,0.0039
1967.75,0.0040
1967.50,0.0039
1967.25,0.0035
1967.00,0.0032
1966.75,0.0031
1966.50,0.0032
1966.25,0.0033
1966.00,0.0032
1965.75,0.0029
1965.50,0.0026
1965.25,0.0024
1965.00,0.0024
1964.75,0.0025
1964.50,0.0027
1964.25,0.0029
1964.00,0.0030
1963.75,0.0031
1963.50,0.0031
1963.25,0.0032
1963.00,0.0034
1962.75,0.0037
1962.50,0.0041
1962.25,0.0044
1962.00,0.0043
1961.75,0.0040
1961.50,0.0034
1961.25,0.0029
1961.00,0.0026
1960.75,0.0025
1960.50,0.0027
1960.25,0.0031
1960.00,0.0035
1959.75,0.0039
1959.50,0.0042
1959.25,0.0043
1959.00,0.0043
1958.75,0.0044
1958.50,0.0045
1958.25,0.0043
1958.00,0.0039
1957.75,0.0034
1957.50,0.0030
1957.25,0.0031
1957.00,0.0036
1956.75,0.0043
1956.50,0.0049
1956.25,0.0050
1956.00,0.0048
1955.75,0.0043
1955.50,0.0038
1955.25,0.0036
1955.00,0.0036
1954.75,0.0037
1954.50,0.0039
1954.25,0.0038
1954.00,0.0035
1953.75,0.0032
1953.50,0.0030
1953.25,0.0032
1953.00,0.0036
1952.75,0.0040
1952.50,0.0042
1952.25,0.0041
1952.00,0.0037
1951.75,0.0034
1951.50,0.0033
1951.25,0.0034
1951.00,0.0037
1950.75,0.0039
1950.50,0.0041
1950.25,0.0043
1950.00,0.0044
1949.75,0.0044
1949.50,0.0043
1949.25,0.0040
1949.00,0.0036
1948.75,0.0032
1948.50,0.0028
1948.25,0.0026
1948.00,0.0027
1947.75,0.0030
1947.50,0.0036
1947.25,0.0041
1947.00,0.0045
1946.75,0.0047
1946.50,0.0047
1946.25,0.0048
1946.00,0.0049
1945.75,0.0050
1945.50,0.0051
1945.25,0.0050
1945.00,0.0048
1944.75,0.0046
1944.50,0.0044
1944.25,0.0043
1944.00,0.0042
1943.75,0.0040
1943.50,0.0037
1943.25,0.0034
1943.00,0.0031
1942.75,0.0027
1942.50,0.0026
1942.25,0.0026
1942.00,0.0030
1941.75,0.0035
1941.50,0.0041
1941.25,0.0046
1941.00,0.0048
1940.75,0.0048
1940.50,0.0045
1940.25,0.0041
1940.00,0.0038
1939.75,0.0035
1939.50,0.0033
1939.25,0.0033
1939.00,0.0035
1938.75,0.0037
1938.50,0.0040
1938.25,0.0043
1938.00,0.0044
1937.75,0.0044
1937.50,0.0043
1937.25,0.0041
1937.00,0.0039
1936.75,0.0036
1936.50,0.0034
1936.25,0.0033
1936.00,0.0033
1935.75,0.0031
1935.50,0.0030
1935.25,0.0029
1935.00,0.0031
1934.75,0.0035
1934.50,0.0039
1934.25,0.0042
1934.00,0.0041
1933.75,0.0039
1933.50,0.0035
1933.25,0.0033
1933.00,0.0033
1932.75,0.0035
1932.50,0.0037
1932.25,0.0039
1932.00,0.0039
1931.75,0.0038
1931.50,0.0036
1931.25,0.0035
1931.00,0.0035
1930.75,0.0036
1930.50,0.0037
1930.25,0.0039
1930.00,0.0040
1929.75,0.0040
1929.50,0.0041
1929.25,0.0042
1929.00,0.0043
1928.75,0.0042
1928.50,0.0040
1928.25,0.0038
1928.00,0.0037
1927.75,0.0037
1927.50,0.0038
1927.25,0.0039
1927.00,0.0038
1926.75,0.0038
1926.50,0.0038
1926.25,0.0038
1926.00,0.0038
1925.75,0.0038
1925.50,0.0038
1925.25,0.0038
1925.00,0.0037
1924.75,0.0037
1924.50,0.0038
1924.25,0.0039
1924.00,0.0042
1923.75,0.0045
1923.50,0.0047
1923.25,0.0047
1923.00,0.0045
1922.75,0.0040
1922.50,0.0037
1922.25,0.0036
1922.00,0.0036
1921.75,0.0036
1921.50,0.0036
1921.25,0.0038
1921.00,0.0040
1920.75,0.0043
1920.50,0.0046
1920.25,0.0048
1920.00,0.0048
1919.75,0.0047
1919.50,0.0045
1919.25,0.0042
1919.00,0.0038
1918.75,0.0034
1918.50,0.0031
1918.25,0.0032
1918.00,0.0036
1917.75,0.0041
1917.50,0.0045
1917.25,0.0046
1917.00,0.0046
1916.75,0.0045
1916.50,0.0042
1916.25,0.0039
1916.00,0.0035
1915.75,0.0033
1915.50,0.0034
1915.25,0.0038
1915.00,0.0041
1914.75,0.0043
1914.50,0.0043
1914.25,0.0041
1914.00,0.0039
1913.75,0.0039
1913.50,0.0041
1913.25,0.0043
1913.00,0.0044
1912.75,0.0044
1912.50,0.0043
1912.25,0.0041
1912.00,0.0039
1911.75,0.0038
1911.50,0.0037
1911.25,0.0037
1911.00,0.0038
1910.75,0.0038
1910.50,0.0039
1910.25,0.0039
1910.00,0.0039
1909.75,0.0038
1909.50,0.0038
1909.25,0.0038
1909.00,0.0038
1908.75,0.0039
1908.50,0.0040
1908.25,0.0040
1908.00,0.0041
1907.75,0.0042
1907.50,0.0043
1907.25,0.0044
1907.00,0.0045
1906.75,0.0045
1906.50,0.0044
1906.25,0.0042
1906.00,0.0041
1905.75,0.0041
1905.50,0.0041
1905.25,0.0042
1905.00,0.0042
1904.75,0.0041
1904.50,0.0040
1904.25,0.0039
1904.00,0.0038
1903.75,0.0037
1903.50,0.0036
1903.25,0.0037
1903.00,0.0039
1902.75,0.0041
1902.50,0.0043
1902.25,0.0043
1902.00,0.0041
1901.75,0.0038
1901.50,0.0036
1901.25,0.0034
1901.00,0.0034
1900.75,0.0035
1900.50,0.0038
1900.25,0.0040
1900.00,0.0042
1899.75,0.0043
1899.50,0.0043
1899.25,0.0041
1899.00,0.0038
1898.75,0.0036
1898.50,0.0035
1898.25,0.0036
1898.00,0.0039
1897.75,0.0042
1897.50,0.0044
1897.25,0.0044
1897.00,0.0042
1896.75,0.0040
1896.50,0.0038
1896.25,0.0038
1896.00,0.0037
1895.75,0.0037
1895.50,0.0037
1895.25,0.0038
1895.00,0.0039
1894.75,0.0040
1894.50,0.0040
1894.25,0.0039
1894.00,0.0039
1893.75,0.0041
1893.50,0.0042
1893.25,0.0044
1893.00,0.0045
1892.75,0.0047
1892.50,0.0048
1892.25,0.0050
1892.00,0.0050
1891.75,0.0050
1891.50,0.0049
1891.25,0.0047
1891.00,0.0045
1890.75,0.0043
1890.50,0.0042
1890.25,0.0042
1890.00,0.0042
1889.75,0.0042
1889.50,0.0041
1889.25,0.0040
1889.00,0.0040
1888.75,0.0041
1888.50,0.0044
1888.25,0.0045
1888.00,0.0045
1887.75,0.0043
1887.50,0.0040
1887.25,0.0037
1887.00,0.0035
1886.75,0.0035
1886.50,0.0036
1886.25,0.0038
1886.00,0.0041
1885.75,0.0042
1885.50,0.0043
1885.25,0.0042
1885.00,0.0042
1884.75,0.0041
1884.50,0.0039
1884.25,0.0038
1884.00,0.0039
1883.75,0.0041
1883.50,0.0042
1883.25,0.0042
1883.00,0.0041
1882.75,0.0039
1882.50,0.0038
1882.25,0.0039
1882.00,0.0041
1881.75,0.0042
1881.50,0.0043
1881.25,0.0043
1881.00,0.0043
1880.75,0.0043
1880.50,0.0043
1880.25,0.0044
1880.00,0.0045
1879.75,0.0045
1879.50,0.0044
1879.25,0.0043
1879.00,0.0042
1878.75,0.0041
1878.50,0.0040
1878.25,0.0040
1878.00,0.0040
1877.75,0.0041
1877.50,0.0041
1877.25,0.0041
1877.00,0.0040
1876.75,0.0039
1876.50,0.0038
1876.25,0.0038
1876.00,0.0037
1875.75,0.0037
1875.50,0.0036
1875.25,0.0036
1875.00,0.0036
1874.75,0.0037
1874.50,0.0037
1874.25,0.0038
1874.00,0.0039
1873.75,0.0039
1873.50,0.0040
1873.25,0.0040
1873.00,0.0041
1872.75,0.0042
1872.50,0.0043
1872.25,0.0043
1872.00,0.0041
1871.75,0.0039
1871.50,0.0037
1871.25,0.0036
1871.00,0.0035
1870.75,0.0035
1870.50,0.0036
1870.25,0.0037
1870.00,0.0039
1869.75,0.0042
1869.50,0.0043
1869.25,0.0043
1869.00,0.0042
1868.75,0.0040
1868.50,0.0038
1868.25,0.0037
1868.00,0.0038
1867.75,0.0040
1867.50,0.0043
1867.25,0.0046
1867.00,0.0048
1866.75,0.0049
1866.50,0.0048
1866.25,0.0047
1866.00,0.0045
1865.75,0.0044
1865.50,0.0043
1865.25,0.0043
1865.00,0.0045
1864.75,0.0045
1864.50,0.0046
1864.25,0.0045
1864.00,0.0045
1863.75,0.0045
1863.50,0.0045
1863.25,0.0046
1863.00,0.0046
1862.75,0.0046
1862.50,0.0045
1862.25,0.0043
1862.00,0.0042
1861.75,0.0041
1861.50,0.0042
1861.25,0.0044
1861.00,0.0046
1860.75,0.0048
1860.50,0.0049
1860.25,0.0050
1860.00,0.0049
1859.75,0.0049
1859.50,0.0049
1859.25,0.0049
1859.00,0.0049
1858.75,0.0049
1858.50,0.0048
1858.25,0.0046
1858.00,0.0043
1857.75,0.0040
1857.50,0.0038
1857.25,0.0036
1857.00,0.0037
1856.75,0.0038
1856.50,0.0039
1856.25,0.0040
1856.00,0.0041
1855.75,0.0042
1855.50,0.0042
1855.25,0.0043
1855.00,0.0042
1854.75,0.0042
1854.50,0.0041
1854.25,0.0041
1854.00,0.0042
1853.75,0.0043
1853.50,0.0044
1853.25,0.0044
1853.00,0.0043
1852.75,0.0042
1852.50,0.0041
1852.25,0.0040
1852.00,0.0039
1851.75,0.0039
1851.50,0.0039
1851.25,0.0040
1851.00,0.0040
1850.75,0.0040
1850.50,0.0040
1850.25,0.0040
1850.00,0.0040
1849.75,0.0040
1849.50,0.0040
1849.25,0.0041
1849.00,0.0041
1848.75,0.0043
1848.50,0.0045
1848.25,0.0047
1848.00,0.0048
1847.75,0.0047
1847.50,0.0043
1847.25,0.0039
1847.00,0.0035
1846.75,0.0034
1846.50,0.0036
1846.25,0.0039
1846.00,0.0043
1845.75,0.0045
1845.50,0.0046
1845.25,0.0046
1845.00,0.0045
1844.75,0.0043
1844.50,0.0044
1844.25,0.0047
1844.00,0.0050
1843.75,0.0052
1843.50,0.0052
1843.25,0.0050
1843.00,0.0047
1842.75,0.0045
1842.50,0.0043
1842.25,0.0042
1842.00,0.0041
1841.75,0.0042
1841.50,0.0043
1841.25,0.0045
1841.00,0.0047
1840.75,0.0048
1840.50,0.0048
1840.25,0.0047
1840.00,0.0047
1839.75,0.0046
1839.50,0.0044
1839.25,0.0043
1839.00,0.0041
1838.75,0.0041
1838.50,0.0041
1838.25,0.0042
1838.00,0.0041
1837.75,0.0040
1837.50,0.0040
1837.25,0.0040
1837.00,0.0042
1836.75,0.0044
1836.50,0.0046
1836.25,0.0046
1836.00,0.0046
1835.75,0.0046
1835.50,0.0045
1835.25,0.0045
1835.00,0.0044
1834.75,0.0042
1834.50,0.0040
1834.25,0.0038
1834.00,0.0036
1833.75,0.0037
1833.50,0.0039
1833.25,0.0043
1833.00,0.0046
1832.75,0.0049
1832.50,0.0049
1832.25,0.0050
1832.00,0.0049
1831.75,0.0049
1831.50,0.0049
1831.25,0.0049
1831.00,0.0048
1830.75,0.0047
1830.50,0.0046
1830.25,0.0046
1830.00,0.0048
1829.75,0.0049
1829.50,0.0049
1829.25,0.0048
1829.00,0.0046
1828.75,0.0044
1828.50,0.0044
1828.25,0.0044
1828.00,0.0044
1827.75,0.0044
1827.50,0.0045
1827.25,0.0046
1827.00,0.0047
1826.75,0.0048
1826.50,0.0048
1826.25,0.0049
1826.00,0.0048
1825.75,0.0047
1825.50,0.0044
1825.25,0.0042
1825.00,0.0041
1824.75,0.0042
1824.50,0.0042
1824.25,0.0043
1824.00,0.0043
1823.75,0.0043
1823.50,0.0043
1823.25,0.0044
1823.00,0.0046
1822.75,0.0047
1822.50,0.0049
1822.25,0.0050
1822.00,0.0050
1821.75,0.0049
1821.50,0.0048
1821.25,0.0047
1821.00,0.0047
1820.75,0.0047
1820.50,0.0047
1820.25,0.0047
1820.00,0.0047
1819.75,0.0047
1819.50,0.0047
1819.25,0.0047
1819.00,0.0047
1818.75,0.0048
1818.50,0.0047
1818.25,0.0047
1818.00,0.0045
1817.75,0.0043
1817.50,0.0042
1817.25,0.0042
1817.00,0.0042
1816.75,0.0044
1816.50,0.0047
1816.25,0.0049
1816.00,0.0050
1815.75,0.0050
1815.50,0.0049
1815.25,0.0049
1815.00,0.0049
1814.75,0.0049
1814.50,0.0049
1814.25,0.0048
1814.00,0.0048
1813.75,0.0048
1813.50,0.0048
1813.25,0.0049
1813.00,0.0049
1812.75,0.0049
1812.50,0.0049
1812.25,0.0049
1812.00,0.0049
1811.75,0.0049
1811.50,0.0050
1811.25,0.0050
1811.00,0.0051
1810.75,0.0051
1810.50,0.0051
1810.25,0.0049
1810.00,0.0047
1809.75,0.0046
1809.50,0.0046
1809.25,0.0046
1809.00,0.0046
1808.75,0.0046
1808.50,0.0045
1808.25,0.0043
1808.00,0.0042
1807.75,0.0041
1807.50,0.0042
1807.25,0.0043
1807.00,0.0044
1806.75,0.0046
1806.50,0.0047
1806.25,0.0048
1806.00,0.0049
1805.75,0.0050
1805.50,0.0050
1805.25,0.0050
1805.00,0.0049
1804.75,0.0049
1804.50,0.0049
1804.25,0.0049
1804.00,0.0049
1803.75,0.0049
1803.50,0.0049
1803.25,0.0048
1803.00,0.0047
1802.75,0.0047
1802.50,0.0047
1802.25,0.0047
1802.00,0.0047
1801.75,0.0047
1801.50,0.0047
1801.25,0.0047
1801.00,0.0047
1800.75,0.0047
1800.50,0.0048
1800.25,0.0049
1800.00,0.0050
1799.75,0.0050
1799.50,0.0050
1799.25,0.0050
1799.00,0.0050
1798.75,0.0051
1798.50,0.0051
1798.25,0.0052
1798.00,0.0052
1797.75,0.0052
1797.50,0.0052
1797.25,0.0051
1797.00,0.0049
1796.75,0.0048
1796.50,0.0046
1796.25,0.0045
1796.00,0.0045
1795.75,0.0046
1795.50,0.0048
1795.25,0.0050
1795.00,0.0051
1794.75,0.0050
1794.50,0.0049
1794.25,0.0048
1794.00,0.0047
1793.75,0.0046
1793.50,0.0045
1793.25,0.0044
1793.00,0.0042
1792.75,0.0042
1792.50,0.0044
1792.25,0.0048
1792.00,0.0052
1791.75,0.0054
1791.50,0.0055
1791.25,0.0054
1791.00,0.0052
1790.75,0.0050
1790.50,0.0049
1790.25,0.0049
1790.00,0.0049
1789.75,0.0051
1789.50,0.0053
1789.25,0.0055
1789.00,0.0056
1788.75,0.0056
1788.50,0.0054
1788.25,0.0052
1788.00,0.0051
1787.75,0.0050
1787.50,0.0050
1787.25,0.0049
1787.00,0.0049
1786.75,0.0048
1786.50,0.0048
1786.25,0.0048
1786.00,0.0049
1785.75,0.0051
1785.50,0.0052
1785.25,0.0054
1785.00,0.0054
1784.75,0.0054
1784.50,0.0052
1784.25,0.0051
1784.00,0.0051
1783.75,0.0052
1783.50,0.0053
1783.25,0.0053
1783.00,0.0053
1782.75,0.0051
1782.50,0.0051
1782.25,0.0051
1782.00,0.0052
1781.75,0.0053
1781.50,0.0053
1781.25,0.0052
1781.00,0.0051
1780.75,0.0051
1780.50,0.0052
1780.25,0.0052
1780.00,0.0052
1779.75,0.0050
1779.50,0.0049
1779.25,0.0047
1779.00,0.0047
1778.75,0.0047
1778.50,0.0048
1778.25,0.0048
1778.00,0.0049
1777.75,0.0051
1777.50,0.0052
1777.25,0.0053
1777.00,0.0053
1776.75,0.0053
1776.50,0.0053
1776.25,0.0053
1776.00,0.0052
1775.75,0.0052
1775.50,0.0051
1775.25,0.0050
1775.00,0.0049
1774.75,0.0048
1774.50,0.0047
1774.25,0.0048
1774.00,0.0049
1773.75,0.0050
1773.50,0.0051
1773.25,0.0051
1773.00,0.0051
1772.75,0.0053
1772.50,0.0055
1772.25,0.0055
1772.00,0.0055
1771.75,0.0053
1771.50,0.0053
1771.25,0.0054
1771.00,0.0055
1770.75,0.0056
1770.50,0.0055
1770.25,0.0055
1770.00,0.0054
1769.75,0.0053
1769.50,0.0052
1769.25,0.0051
1769.00,0.0050
1768.75,0.0049
1768.50,0.0047
1768.25,0.0046
1768.00,0.0046
1767.75,0.0046
1767.50,0.0047
1767.25,0.0048
1767.00,0.0048
1766.75,0.0049
1766.50,0.0050
1766.25,0.0051
1766.00,0.0052
1765.75,0.0052
1765.50,0.0052
1765.25,0.0050
1765.00,0.0050
1764.75,0.0050
1764.50,0.0051
1764.25,0.0052
1764.00,0.0053
1763.75,0.0054
1763.50,0.0053
1763.25,0.0052
1763.00,0.0052
1762.75,0.0050
1762.50,0.0049
1762.25,0.0047
1762.00,0.0044
1761.75,0.0043
1761.50,0.0045
1761.25,0.0048
1761.00,0.0051
1760.75,0.0052
1760.50,0.0053
1760.25,0.0053
1760.00,0.0054
1759.75,0.0054
1759.50,0.0054
1759.25,0.0054
1759.00,0.0054
1758.75,0.0054
1758.50,0.0054
1758.25,0.0054
1758.00,0.0053
1757.75,0.0053
1757.50,0.0053
1757.25,0.0053
1757.00,0.0053
1756.75,0.0054
1756.50,0.0055
1756.25,0.0055
1756.00,0.0054
1755.75,0.0052
1755.50,0.0051
1755.25,0.0050
1755.00,0.0050
1754.75,0.0050
1754.50,0.0051
1754.25,0.0052
1754.00,0.0053
1753.75,0.0055
1753.50,0.0056
1753.25,0.0056
1753.00,0.0056
1752.75,0.0054
1752.50,0.0054
1752.25,0.0053
1752.00,0.0052
1751.75,0.0053
1751.50,0.0053
1751.25,0.0053
1751.00,0.0052
1750.75,0.0050
1750.50,0.0050
1750.25,0.0050
1750.00,0.0050
1749.75,0.0051
1749.50,0.0052
1749.25,0.0053
1749.00,0.0055
1748.75,0.0056
1748.50,0.0055
1748.25,0.0054
1748.00,0.0052
1747.75,0.0052
1747.50,0.0051
1747.25,0.0052
1747.00,0.0052
1746.75,0.0051
1746.50,0.0051
1746.25,0.0051
1746.00,0.0052
1745.75,0.0053
1745.50,0.0054
1745.25,0.0055
1745.00,0.0056
1744.75,0.0055
1744.50,0.0055
1744.25,0.0054
1744.00,0.0053
1743.75,0.0052
1743.50,0.0052
1743.25,0.0051
1743.00,0.0050
1742.75,0.0049
1742.50,0.0048
1742.25,0.0048
1742.00,0.0048
1741.75,0.0049
1741.50,0.0050
1741.25,0.0051
1741.00,0.0052
1740.75,0.0052
1740.50,0.0052
1740.25,0.0052
1740.00,0.0051
1739.75,0.0051
1739.50,0.0052
1739.25,0.0053
1739.00,0.0054
1738.75,0.0054
1738.50,0.0053
1738.25,0.0051
1738.00,0.0050
1737.75,0.0050
1737.50,0.0051
1737.25,0.0052
1737.00,0.0053
1736.75,0.0054
1736.50,0.0055
1736.25,0.0055
1736.00,0.0055
1735.75,0.0055
1735.50,0.0056
1735.25,0.0055
1735.00,0.0055
1734.75,0.0055
1734.50,0.0054
1734.25,0.0053
1734.00,0.0053
1733.75,0.0053
1733.50,0.0051
1733.25,0.0050
1733.00,0.0049
1732.75,0.0050
1732.50,0.0050
1732.25,0.0051
1732.00,0.0052
1731.75,0.0053
1731.50,0.0054
1731.25,0.0055
1731.00,0.0056
1730.75,0.0057
1730.50,0.0059
1730.25,0.0060
1730.00,0.0059
1729.75,0.0057
1729.50,0.0054
1729.25,0.0053
1729.00,0.0053
1728.75,0.0054
1728.50,0.0054
1728.25,0.0054
1728.00,0.0054
1727.75,0.0053
1727.50,0.0054
1727.25,0.0054
1727.00,0.0055
1726.75,0.0056
1726.50,0.0056
1726.25,0.0056
1726.00,0.0055
1725.75,0.0054
1725.50,0.0054
1725.25,0.0054
1725.00,0.0054
1724.75,0.0054
1724.50,0.0054
1724.25,0.0054
1724.00,0.0055
1723.75,0.0055
1723.50,0.0056
1723.25,0.0057
1723.00,0.0058
1722.75,0.0057
1722.50,0.0057
1722.25,0.0056
1722.00,0.0055
1721.75,0.0055
1721.50,0.0056
1721.25,0.0057
1721.00,0.0058
1720.75,0.0058
1720.50,0.0058
1720.25,0.0057
1720.00,0.0056
1719.75,0.0056
1719.50,0.0056
1719.25,0.0056
1719.00,0.0058
1718.75,0.0060
1718.50,0.0061
1718.25,0.0060
1718.00,0.0058
1717.75,0.0054
1717.50,0.0052
1717.25,0.0051
1717.00,0.0052
1716.75,0.0054
1716.50,0.0056
1716.25,0.0056
1716.00,0.0056
1715.75,0.0057
1715.50,0.0058
1715.25,0.0058
1715.00,0.0056
1714.75,0.0053
1714.50,0.0051
1714.25,0.0051
1714.00,0.0052
1713.75,0.0054
1713.50,0.0056
1713.25,0.0057
1713.00,0.0057
1712.75,0.0056
1712.50,0.0055
1712.25,0.0053
1712.00,0.0052
1711.75,0.0052
1711.50,0.0053
1711.25,0.0055
1711.00,0.0056
1710.75,0.0057
1710.50,0.0056
1710.25,0.0054
1710.00,0.0053
1709.75,0.0052
1709.50,0.0052
1709.25,0.0053
1709.00,0.0053
1708.75,0.0053
1708.50,0.0053
1708.25,0.0053
1708.00,0.0053
1707.75,0.0053
1707.50,0.0053
1707.25,0.0054
1707.00,0.0055
1706.75,0.0055
1706.50,0.0055
1706.25,0.0055
1706.00,0.0055
1705.75,0.0056
1705.50,0.0056
1705.25,0.0057
1705.00,0.0057
1704.75,0.0057
1704.50,0.0057
1704.25,0.0057
1704.00,0.0057
1703.75,0.0058
1703.50,0.0058
1703.25,0.0057
1703.00,0.0057
1702.75,0.0055
1702.50,0.0053
1702.25,0.0052
1702.00,0.0051
1701.75,0.0050
1701.50,0.0050
1701.25,0.0051
1701.00,0.0052
1700.75,0.0051
1700.50,0.0044
1700.25,0.0036
1700.00,0.0040
1699.75,0.0050
1699.50,0.0054
1699.25,0.0055
1699.00,0.0055
1698.75,0.0055
1698.50,0.0055
1698.25,0.0055
1698.00,0.0054
1697.75,0.0054
1697.50,0.0053
1697.25,0.0053
1697.00,0.0053
1696.75,0.0052
1696.50,0.0050
1696.25,0.0048
1696.00,0.0049
1695.75,0.0055
1695.50,0.0060
1695.25,0.0062
1695.00,0.0062
1694.75,0.0061
1694.50,0.0060
1694.25,0.0059
1694.00,0.0058
1693.75,0.0056
1693.50,0.0056
1693.25,0.0056
1693.00,0.0057
1692.75,0.0058
1692.50,0.0059
1692.25,0.0058
1692.00,0.0056
1691.75,0.0055
1691.50,0.0054
1691.25,0.0054
1691.00,0.0054
1690.75,0.0054
1690.50,0.0054
1690.25,0.0054
1690.00,0.0055
1689.75,0.0056
1689.50,0.0058
1689.25,0.0059
1689.00,0.0059
1688.75,0.0059
1688.50,0.0059
1688.25,0.0059
1688.00,0.0059
1687.75,0.0060
1687.50,0.0061
1687.25,0.0061
1687.00,0.0061
1686.75,0.0061
1686.50,0.0059
1686.25,0.0058
1686.00,0.0057
1685.75,0.0057
1685.50,0.0057
1685.25,0.0060
1685.00,0.0067
1684.75,0.0077
1684.50,0.0080
1684.25,0.0072
1684.00,0.0065
1683.75,0.0061
1683.50,0.0061
1683.25,0.0062
1683.00,0.0061
1682.75,0.0060
1682.50,0.0058
1682.25,0.0056
1682.00,0.0054
1681.75,0.0054
1681.50,0.0055
1681.25,0.0057
1681.00,0.0058
1680.75,0.0059
1680.50,0.0059
1680.25,0.0059
1680.00,0.0059
1679.75,0.0058
1679.50,0.0058
1679.25,0.0057
1679.00,0.0057
1678.75,0.0056
1678.50,0.0056
1678.25,0.0056
1678.00,0.0056
1677.75,0.0057
1677.50,0.0058
1677.25,0.0059
1677.00,0.0059
1676.75,0.0059
1676.50,0.0058
1676.25,0.0057
1676.00,0.0055
1675.75,0.0053
1675.50,0.0051
1675.25,0.0052
1675.00,0.0054
1674.75,0.0055
1674.50,0.0056
1674.25,0.0055
1674.00,0.0056
1673.75,0.0056
1673.50,0.0058
1673.25,0.0059
1673.00,0.0060
1672.75,0.0061
1672.50,0.0060
1672.25,0.0060
1672.00,0.0060
1671.75,0.0060
1671.50,0.0060
1671.25,0.0060
1671.00,0.0058
1670.75,0.0057
1670.50,0.0055
1670.25,0.0055
1670.00,0.0055
1669.75,0.0055
1669.50,0.0057
1669.25,0.0059
1669.00,0.0060
1668.75,0.0060
1668.50,0.0060
1668.25,0.0060
1668.00,0.0059
1667.75,0.0059
1667.50,0.0059
1667.25,0.0059
1667.00,0.0058
1666.75,0.0058
1666.50,0.0058
1666.25,0.0057
1666.00,0.0057
1665.75,0.0057
1665.50,0.0057
1665.25,0.0057
1665.00,0.0057
1664.75,0.0057
1664.50,0.0057
1664.25,0.0058
1664.00,0.0059
1663.75,0.0059
1663.50,0.0059
1663.25,0.0059
1663.00,0.0059
1662.75,0.0059
1662.50,0.0061
1662.25,0.0062
1662.00,0.0063
1661.75,0.0063
1661.50,0.0062
1661.25,0.0061
1661.00,0.0060
1660.75,0.0059
1660.50,0.0058
1660.25,0.0058
1660.00,0.0058
1659.75,0.0060
1659.50,0.0060
1659.25,0.0061
1659.00,0.0061
1658.75,0.0061
1658.50,0.0060
1658.25,0.0059
1658.00,0.0059
1657.75,0.0058
1657.50,0.0058
1657.25,0.0058
1657.00,0.0057
1656.75,0.0056
1656.50,0.0057
1656.25,0.0057
1656.00,0.0058
1655.75,0.0059
1655.50,0.0059
1655.25,0.0059
1655.00,0.0058
1654.75,0.0058
1654.50,0.0058
1654.25,0.0058
1654.00,0.0057
1653.75,0.0055
1653.50,0.0053
1653.25,0.0053
1653.00,0.0059
1652.75,0.0067
1652.50,0.0068
1652.25,0.0066
1652.00,0.0064
1651.75,0.0062
1651.50,0.0060
1651.25,0.0058
1651.00,0.0057
1650.75,0.0057
1650.50,0.0058
1650.25,0.0059
1650.00,0.0060
1649.75,0.0061
1649.50,0.0062
1649.25,0.0062
1649.00,0.0062
1648.75,0.0061
1648.50,0.0060
1648.25,0.0059
1648.00,0.0058
1647.75,0.0058
1647.50,0.0058
1647.25,0.0059
1647.00,0.0060
1646.75,0.0060
1646.50,0.0060
1646.25,0.0060
1646.00,0.0061
1645.75,0.0062
1645.50,0.0062
1645.25,0.0062
1645.00,0.0061
1644.75,0.0061
1644.50,0.0060
1644.25,0.0060
1644.00,0.0059
1643.75,0.0059
1643.50,0.0059
1643.25,0.0060
1643.00,0.0061
1642.75,0.0062
1642.50,0.0062
1642.25,0.0062
1642.00,0.0061
1641.75,0.0060
1641.50,0.0061
1641.25,0.0061
1641.00,0.0062
1640.75,0.0062
1640.50,0.0061
1640.25,0.0061
1640.00,0.0061
1639.75,0.0061
1639.50,0.0062
1639.25,0.0062
1639.00,0.0062
1638.75,0.0062
1638.50,0.0061
1638.25,0.0060
1638.00,0.0061
1637.75,0.0061
1637.50,0.0061
1637.25,0.0062
1637.00,0.0061
1636.75,0.0062
1636.50,0.0062
1636.25,0.0063
1636.00,0.0066
1635.75,0.0070
1635.50,0.0071
1635.25,0.0065
1635.00,0.0058
1634.75,0.0057
1634.50,0.0058
1634.25,0.0059
1634.00,0.0061
1633.75,0.0062
1633.50,0.0063
1633.25,0.0063
1633.00,0.0064
1632.75,0.0064
1632.50,0.0064
1632.25,0.0063
1632.00,0.0063
1631.75,0.0063
1631.50,0.0062
1631.25,0.0062
1631.00,0.0062
1630.75,0.0061
1630.50,0.0061
1630.25,0.0061
1630.00,0.0062
1629.75,0.0062
1629.50,0.0063
1629.25,0.0064
1629.00,0.0064
1628.75,0.0063
1628.50,0.0063
1628.25,0.0061
1628.00,0.0059
1627.75,0.0057
1627.50,0.0056
1627.25,0.0058
1627.00,0.0059
1626.75,0.0061
1626.50,0.0062
1626.25,0.0063
1626.00,0.0063
1625.75,0.0063
1625.50,0.0063
1625.25,0.0063
1625.00,0.0062
1624.75,0.0062
1624.50,0.0062
1624.25,0.0062
1624.00,0.0063
1623.75,0.0063
1623.50,0.0063
1623.25,0.0061
1623.00,0.0059
1622.75,0.0058
1622.50,0.0058
1622.25,0.0058
1622.00,0.0059
1621.75,0.0060
1621.50,0.0061
1621.25,0.0060
1621.00,0.0060
1620.75,0.0060
1620.50,0.0060
1620.25,0.0061
1620.00,0.0062
1619.75,0.0062
1619.50,0.0062
1619.25,0.0062
1619.00,0.0062
1618.75,0.0062
1618.50,0.0062
1618.25,0.0063
1618.00,0.0063
1617.75,0.0063
1617.50,0.0061
1617.25,0.0060
1617.00,0.0059
1616.75,0.0060
1616.50,0.0059
1616.25,0.0058
1616.00,0.0058
1615.75,0.0058
1615.50,0.0058
1615.25,0.0060
1615.00,0.0062
1614.75,0.0064
1614.50,0.0064
1614.25,0.0064
1614.00,0.0063
1613.75,0.0062
1613.50,0.0062
1613.25,0.0062
1613.00,0.0063
1612.75,0.0063
1612.50,0.0062
1612.25,0.0062
1612.00,0.0063
1611.75,0.0064
1611.50,0.0066
1611.25,0.0067
1611.00,0.0067
1610.75,0.0067
1610.50,0.0066
1610.25,0.0066
1610.00,0.0066
1609.75,0.0067
1609.50,0.0066
1609.25,0.0065
1609.00,0.0064
1608.75,0.0064
1608.50,0.0064
1608.25,0.0064
1608.00,0.0063
1607.75,0.0064
1607.50,0.0064
1607.25,0.0065
1607.00,0.0066
1606.75,0.0066
1606.50,0.0066
1606.25,0.0066
1606.00,0.0066
1605.75,0.0065
1605.50,0.0065
1605.25,0.0064
1605.00,0.0064
1604.75,0.0064
1604.50,0.0064
1604.25,0.0064
1604.00,0.0064
1603.75,0.0063
1603.50,0.0063
1603.25,0.0062
1603.00,0.0062
1602.75,0.0063
1602.50,0.0064
1602.25,0.0065
1602.00,0.0065
1601.75,0.0065
1601.50,0.0064
1601.25,0.0064
1601.00,0.0063
1600.75,0.0063
1600.50,0.0063
1600.25,0.0063
1600.00,0.0064
1599.75,0.0064
1599.50,0.0065
1599.25,0.0067
1599.00,0.0068
1598.75,0.0068
1598.50,0.0068
1598.25,0.0067
1598.00,0.0067
1597.75,0.0067
1597.50,0.0068
1597.25,0.0069
1597.00,0.0070
1596.75,0.0070
1596.50,0.0071
1596.25,0.0070
1596.00,0.0070
1595.75,0.0069
1595.50,0.0068
1595.25,0.0068
1595.00,0.0068
1594.75,0.0068
1594.50,0.0068
1594.25,0.0068
1594.00,0.0067
1593.75,0.0067
1593.50,0.0067
1593.25,0.0067
1593.00,0.0067
1592.75,0.0067
1592.50,0.0066
1592.25,0.0065
1592.00,0.0064
1591.75,0.0064
1591.50,0.0063
1591.25,0.0063
1591.00,0.0064
1590.75,0.0064
1590.50,0.0064
1590.25,0.0065
1590.00,0.0065
1589.75,0.0065
1589.50,0.0065
1589.25,0.0066
1589.00,0.0067
1588.75,0.0067
1588.50,0.0067
1588.25,0.0067
1588.00,0.0066
1587.75,0.0065
1587.50,0.0064
1587.25,0.0063
1587.00,0.0061
1586.75,0.0060
1586.50,0.0061
1586.25,0.0062
1586.00,0.0064
1585.75,0.0065
1585.50,0.0064
1585.25,0.0063
1585.00,0.0062
1584.75,0.0061
1584.50,0.0061
1584.25,0.0061
1584.00,0.0061
1583.75,0.0061
1583.50,0.0061
1583.25,0.0060
1583.00,0.0061
1582.75,0.0062
1582.50,0.0064
1582.25,0.0065
1582.00,0.0066
1581.75,0.0066
1581.50,0.0066
1581.25,0.0065
1581.00,0.0065
1580.75,0.0064
1580.50,0.0064
1580.25,0.0065
1580.00,0.0066
1579.75,0.0066
1579.50,0.0066
1579.25,0.0066
1579.00,0.0065
1578.75,0.0065
1578.50,0.0065
1578.25,0.0065
1578.00,0.0065
1577.75,0.0065
1577.50,0.0065
1577.25,0.0064
1577.00,0.0064
1576.75,0.0063
1576.50,0.0063
1576.25,0.0063
1576.00,0.0060
1575.75,0.0057
1575.50,0.0057
1575.25,0.0058
1575.00,0.0059
1574.75,0.0059
1574.50,0.0060
1574.25,0.0060
1574.00,0.0060
1573.75,0.0060
1573.50,0.0061
1573.25,0.0061
1573.00,0.0062
1572.75,0.0063
1572.50,0.0064
1572.25,0.0064
1572.00,0.0064
1571.75,0.0064
1571.50,0.0064
1571.25,0.0064
1571.00,0.0064
1570.75,0.0064
1570.50,0.0064
1570.25,0.0064
1570.00,0.0062
1569.75,0.0060
1569.50,0.0057
1569.25,0.0054
1569.00,0.0054
1568.75,0.0054
1568.50,0.0056
1568.25,0.0058
1568.00,0.0060
1567.75,0.0062
1567.50,0.0063
1567.25,0.0063
1567.00,0.0062
1566.75,0.0062
1566.50,0.0062
1566.25,0.0062
1566.00,0.0063
1565.75,0.0064
1565.50,0.0064
1565.25,0.0064
1565.00,0.0063
1564.75,0.0062
1564.50,0.0060
1564.25,0.0059
1564.00,0.0058
1563.75,0.0058
1563.50,0.0058
1563.25,0.0058
1563.00,0.0059
1562.75,0.0059
1562.50,0.0059
1562.25,0.0060
1562.00,0.0061
1561.75,0.0062
1561.50,0.0063
1561.25,0.0063
1561.00,0.0063
1560.75,0.0061
1560.50,0.0059
1560.25,0.0057
1560.00,0.0054
1559.75,0.0053
1559.50,0.0058
1559.25,0.0063
1559.00,0.0068
1558.75,0.0075
1558.50,0.0081
1558.25,0.0081
1558.00,0.0074
1557.75,0.0065
1557.50,0.0061
1557.25,0.0060
1557.00,0.0060
1556.75,0.0059
1556.50,0.0059
1556.25,0.0059
1556.00,0.0060
1555.75,0.0061
1555.50,0.0062
1555.25,0.0063
1555.00,0.0064
1554.75,0.0065
1554.50,0.0065
1554.25,0.0064
1554.00,0.0062
1553.75,0.0061
1553.50,0.0060
1553.25,0.0059
1553.00,0.0058
1552.75,0.0057
1552.50,0.0057
1552.25,0.0058
1552.00,0.0059
1551.75,0.0060
1551.50,0.0060
1551.25,0.0061
1551.00,0.0062
1550.75,0.0062
1550.50,0.0062
1550.25,0.0062
1550.00,0.0060
1549.75,0.0059
1549.50,0.0059
1549.25,0.0060
1549.00,0.0060
1548.75,0.0060
1548.50,0.0060
1548.25,0.0059
1548.00,0.0059
1547.75,0.0059
1547.50,0.0059
1547.25,0.0059
1547.00,0.0058
1546.75,0.0058
1546.50,0.0059
1546.25,0.0059
1546.00,0.0060
1545.75,0.0061
1545.50,0.0062
1545.25,0.0062
1545.00,0.0060
1544.75,0.0059
1544.50,0.0058
1544.25,0.0058
1544.00,0.0057
1543.75,0.0055
1543.50,0.0053
1543.25,0.0052
1543.00,0.0053
1542.75,0.0055
1542.50,0.0059
1542.25,0.0064
1542.00,0.0067
1541.75,0.0066
1541.50,0.0064
1541.25,0.0062
1541.00,0.0062
1540.75,0.0062
1540.50,0.0064
1540.25,0.0066
1540.00,0.0066
1539.75,0.0063
1539.50,0.0060
1539.25,0.0060
1539.00,0.0060
1538.75,0.0060
1538.50,0.0059
1538.25,0.0057
1538.00,0.0056
1537.75,0.0056
1537.50,0.0056
1537.25,0.0057
1537.00,0.0057
1536.75,0.0058
1536.50,0.0058
1536.25,0.0059
1536.00,0.0060
1535.75,0.0060
1535.50,0.0061
1535.25,0.0061
1535.00,0.0061
1534.75,0.0061
1534.50,0.0060
1534.25,0.0059
1534.00,0.0057
1533.75,0.0056
1533.50,0.0056
1533.25,0.0057
1533.00,0.0060
1532.75,0.0062
1532.50,0.0063
1532.25,0.0063
1532.00,0.0063
1531.75,0.0061
1531.50,0.0060
1531.25,0.0059
1531.00,0.0059
1530.75,0.0059
1530.50,0.0059
1530.25,0.0059
1530.00,0.0060
1529.75,0.0060
1529.50,0.0060
1529.25,0.0060
1529.00,0.0060
1528.75,0.0061
1528.50,0.0061
1528.25,0.0062
1528.00,0.0062
1527.75,0.0061
1527.50,0.0060
1527.25,0.0059
1527.00,0.0058
1526.75,0.0058
1526.50,0.0058
1526.25,0.0060
1526.00,0.0062
1525.75,0.0063
1525.50,0.0063
1525.25,0.0062
1525.00,0.0060
1524.75,0.0060
1524.50,0.0059
1524.25,0.0059
1524.00,0.0058
1523.75,0.0058
1523.50,0.0058
1523.25,0.0059
1523.00,0.0061
1522.75,0.0063
1522.50,0.0065
1522.25,0.0065
1522.00,0.0063
1521.75,0.0060
1521.50,0.0057
1521.25,0.0055
1521.00,0.0056
1520.75,0.0059
1520.50,0.0062
1520.25,0.0063
1520.00,0.0063
1519.75,0.0062
1519.50,0.0062
1519.25,0.0061
1519.00,0.0060
1518.75,0.0059
1518.50,0.0059
1518.25,0.0059
1518.00,0.0059
1517.75,0.0060
1517.50,0.0061
1517.25,0.0061
1517.00,0.0060
1516.75,0.0058
1516.50,0.0057
1516.25,0.0057
1516.00,0.0057
1515.75,0.0058
1515.50,0.0059
1515.25,0.0060
1515.00,0.0061
1514.75,0.0062
1514.50,0.0062
1514.25,0.0061
1514.00,0.0061
1513.75,0.0061
1513.50,0.0061
1513.25,0.0061
1513.00,0.0060
1512.75,0.0060
1512.50,0.0060
1512.25,0.0059
1512.00,0.0059
1511.75,0.0058
1511.50,0.0058
1511.25,0.0058
1511.00,0.0058
1510.75,0.0059
1510.50,0.0059
1510.25,0.0058
1510.00,0.0057
1509.75,0.0056
1509.50,0.0056
1509.25,0.0056
1509.00,0.0056
1508.75,0.0056
1508.50,0.0054
1508.25,0.0052
1508.00,0.0050
1507.75,0.0049
1507.50,0.0048
1507.25,0.0048
1507.00,0.0048
1506.75,0.0048
1506.50,0.0047
1506.25,0.0045
1506.00,0.0044
1505.75,0.0044
1505.50,0.0047
1505.25,0.0052
1505.00,0.0054
1504.75,0.0055
1504.50,0.0055
1504.25,0.0055
1504.00,0.0055
1503.75,0.0055
1503.50,0.0056
1503.25,0.0057
1503.00,0.0059
1502.75,0.0059
1502.50,0.0059
1502.25,0.0058
1502.00,0.0056
1501.75,0.0055
1501.50,0.0055
1501.25,0.0055
1501.00,0.0055
1500.75,0.0055
1500.50,0.0056
1500.25,0.0057
1500.00,0.0058
1499.75,0.0060
1499.50,0.0061
1499.25,0.0062
1499.00,0.0063
1498.75,0.0062
1498.50,0.0060
1498.25,0.0058
1498.00,0.0056
1497.75,0.0055
1497.50,0.0054
1497.25,0.0054
1497.00,0.0056
1496.75,0.0058
1496.50,0.0061
1496.25,0.0064
1496.00,0.0063
1495.75,0.0061
1495.50,0.0060
1495.25,0.0059
1495.00,0.0059
1494.75,0.0059
1494.50,0.0058
1494.25,0.0057
1494.00,0.0057
1493.75,0.0057
1493.50,0.0058
1493.25,0.0060
1493.00,0.0061
1492.75,0.0061
1492.50,0.0061
1492.25,0.0060
1492.00,0.0060
1491.75,0.0060
1491.50,0.0061
1491.25,0.0063
1491.00,0.0064
1490.75,0.0063
1490.50,0.0061
1490.25,0.0059
1490.00,0.0057
1489.75,0.0057
1489.50,0.0056
1489.25,0.0056
1489.00,0.0055
1488.75,0.0056
1488.50,0.0057
1488.25,0.0059
1488.00,0.0062
1487.75,0.0065
1487.50,0.0067
1487.25,0.0068
1487.00,0.0066
1486.75,0.0064
1486.50,0.0061
1486.25,0.0059
1486.00,0.0058
1485.75,0.0058
1485.50,0.0059
1485.25,0.0060
1485.00,0.0061
1484.75,0.0061
1484.50,0.0061
1484.25,0.0061
1484.00,0.0061
1483.75,0.0061
1483.50,0.0062
1483.25,0.0063
1483.00,0.0064
1482.75,0.0065
1482.50,0.0065
1482.25,0.0065
1482.00,0.0064
1481.75,0.0064
1481.50,0.0064
1481.25,0.0063
1481.00,0.0063
1480.75,0.0063
1480.50,0.0063
1480.25,0.0063
1480.00,0.0064
1479.75,0.0064
1479.50,0.0064
1479.25,0.0065
1479.00,0.0065
1478.75,0.0065
1478.50,0.0065
1478.25,0.0066
1478.00,0.0067
1477.75,0.0066
1477.50,0.0066
1477.25,0.0065
1477.00,0.0065
1476.75,0.0065
1476.50,0.0065
1476.25,0.0065
1476.00,0.0064
1475.75,0.0063
1475.50,0.0063
1475.25,0.0063
1475.00,0.0064
1474.75,0.0065
1474.50,0.0065
1474.25,0.0065
1474.00,0.0064
1473.75,0.0064
1473.50,0.0064
1473.25,0.0064
1473.00,0.0064
1472.75,0.0064
1472.50,0.0063
1472.25,0.0062
1472.00,0.0060
1471.75,0.0059
1471.50,0.0059
1471.25,0.0061
1471.00,0.0062
1470.75,0.0063
1470.50,0.0063
1470.25,0.0063
1470.00,0.0064
1469.75,0.0065
1469.50,0.0066
1469.25,0.0067
1469.00,0.0067
1468.75,0.0066
1468.50,0.0065
1468.25,0.0065
1468.00,0.0066
1467.75,0.0066
1467.50,0.0067
1467.25,0.0068
1467.00,0.0068
1466.75,0.0068
1466.50,0.0067
1466.25,0.0066
1466.00,0.0065
1465.75,0.0065
1465.50,0.0066
1465.25,0.0069
1465.00,0.0073
1464.75,0.0076
1464.50,0.0077
1464.25,0.0076
1464.00,0.0075
1463.75,0.0074
1463.50,0.0073
1463.25,0.0072
1463.00,0.0072
1462.75,0.0072
1462.50,0.0072
1462.25,0.0072
1462.00,0.0072
1461.75,0.0072
1461.50,0.0072
1461.25,0.0072
1461.00,0.0073
1460.75,0.0073
1460.50,0.0074
1460.25,0.0073
1460.00,0.0072
1459.75,0.0071
1459.50,0.0071
1459.25,0.0071
1459.00,0.0072
1458.75,0.0072
1458.50,0.0073
1458.25,0.0074
1458.00,0.0076
1457.75,0.0077
1457.50,0.0076
1457.25,0.0075
1457.00,0.0073
1456.75,0.0071
1456.50,0.0070
1456.25,0.0074
1456.00,0.0077
1455.75,0.0079
1455.50,0.0080
1455.25,0.0080
1455.00,0.0080
1454.75,0.0080
1454.50,0.0080
1454.25,0.0081
1454.00,0.0081
1453.75,0.0082
1453.50,0.0082
1453.25,0.0082
1453.00,0.0083
1452.75,0.0085
1452.50,0.0087
1452.25,0.0087
1452.00,0.0088
1451.75,0.0087
1451.50,0.0088
1451.25,0.0088
1451.00,0.0089
1450.75,0.0088
1450.50,0.0088
1450.25,0.0087
1450.00,0.0086
1449.75,0.0085
1449.50,0.0086
1449.25,0.0087
1449.00,0.0089
1448.75,0.0090
1448.50,0.0091
1448.25,0.0091
1448.00,0.0089
1447.75,0.0087
1447.50,0.0086
1447.25,0.0087
1447.00,0.0088
1446.75,0.0090
1446.50,0.0091
1446.25,0.0093
1446.00,0.0094
1445.75,0.0094
1445.50,0.0095
1445.25,0.0095
1445.00,0.0095
1444.75,0.0095
1444.50,0.0094
1444.25,0.0094
1444.00,0.0094
1443.75,0.0094
1443.50,0.0094
1443.25,0.0094
1443.00,0.0093
1442.75,0.0093
1442.50,0.0093
1442.25,0.0093
1442.00,0.0093
1441.75,0.0092
1441.50,0.0091
1441.25,0.0089
1441.00,0.0088
1440.75,0.0088
1440.50,0.0088
1440.25,0.0088
1440.00,0.0088
1439.75,0.0089
1439.50,0.0089
1439.25,0.0089
1439.00,0.0089
1438.75,0.0089
1438.50,0.0088
1438.25,0.0088
1438.00,0.0087
1437.75,0.0087
1437.50,0.0088
1437.25,0.0090
1437.00,0.0094
1436.75,0.0096
1436.50,0.0096
1436.25,0.0093
1436.00,0.0091
1435.75,0.0089
1435.50,0.0087
1435.25,0.0086
1435.00,0.0084
1434.75,0.0082
1434.50,0.0081
1434.25,0.0081
1434.00,0.0082
1433.75,0.0083
1433.50,0.0083
1433.25,0.0083
1433.00,0.0082
1432.75,0.0082
1432.50,0.0081
1432.25,0.0081
1432.00,0.0081
1431.75,0.0082
1431.50,0.0084
1431.25,0.0085
1431.00,0.0085
1430.75,0.0085
1430.50,0.0083
1430.25,0.0082
1430.00,0.0081
1429.75,0.0082
1429.50,0.0084
1429.25,0.0085
1429.00,0.0086
1428.75,0.0087
1428.50,0.0088
1428.25,0.0088
1428.00,0.0089
1427.75,0.0091
1427.50,0.0092
1427.25,0.0093
1427.00,0.0093
1426.75,0.0092
1426.50,0.0092
1426.25,0.0092
1426.00,0.0094
1425.75,0.0095
1425.50,0.0095
1425.25,0.0094
1425.00,0.0093
1424.75,0.0092
1424.50,0.0092
1424.25,0.0093
1424.00,0.0094
1423.75,0.0096
1423.50,0.0098
1423.25,0.0100
1423.00,0.0101
1422.75,0.0102
1422.50,0.0102
1422.25,0.0102
1422.00,0.0103
1421.75,0.0105
1421.50,0.0107
1421.25,0.0110
1421.00,0.0113
1420.75,0.0115
1420.50,0.0117
1420.25,0.0117
1420.00,0.0117
1419.75,0.0116
1419.50,0.0117
1419.25,0.0120
1419.00,0.0126
1418.75,0.0129
1418.50,0.0131
1418.25,0.0131
1418.00,0.0131
1417.75,0.0131
1417.50,0.0131
1417.25,0.0132
1417.00,0.0134
1416.75,0.0136
1416.50,0.0138
1416.25,0.0140
1416.00,0.0142
1415.75,0.0142
1415.50,0.0143
1415.25,0.0143
1415.00,0.0143
1414.75,0.0143
1414.50,0.0145
1414.25,0.0146
1414.00,0.0147
1413.75,0.0148
1413.50,0.0149
1413.25,0.0150
1413.00,0.0151
1412.75,0.0152
1412.50,0.0152
1412.25,0.0152
1412.00,0.0152
1411.75,0.0152
1411.50,0.0152
1411.25,0.0152
1411.00,0.0152
1410.75,0.0152
1410.50,0.0152
1410.25,0.0151
1410.00,0.0150
1409.75,0.0149
1409.50,0.0148
1409.25,0.0146
1409.00,0.0146
1408.75,0.0146
1408.50,0.0146
1408.25,0.0147
1408.00,0.0148
1407.75,0.0148
1407.50,0.0147
1407.25,0.0147
1407.00,0.0146
1406.75,0.0146
1406.50,0.0146
1406.25,0.0146
1406.00,0.0145
1405.75,0.0143
1405.50,0.0141
1405.25,0.0140
1405.00,0.0139
1404.75,0.0139
1404.50,0.0140
1404.25,0.0141
1404.00,0.0141
1403.75,0.0141
1403.50,0.0140
1403.25,0.0139
1403.00,0.0138
1402.75,0.0137
1402.50,0.0135
1402.25,0.0134
1402.00,0.0133
1401.75,0.0133
1401.50,0.0133
1401.25,0.0133
1401.00,0.0134
1400.75,0.0133
1400.50,0.0133
1400.25,0.0132
1400.00,0.0132
1399.75,0.0131
1399.50,0.0131
1399.25,0.0131
1399.00,0.0130
1398.75,0.0130
1398.50,0.0128
1398.25,0.0127
1398.00,0.0125
1397.75,0.0124
1397.50,0.0123
1397.25,0.0121
1397.00,0.0120
1396.75,0.0119
1396.50,0.0118
1396.25,0.0117
1396.00,0.0117
1395.75,0.0116
1395.50,0.0114
1395.25,0.0113
1395.00,0.0112
1394.75,0.0111
1394.50,0.0111
1394.25,0.0110
1394.00,0.0109
1393.75,0.0106
1393.50,0.0104
1393.25,0.0103
1393.00,0.0102
1392.75,0.0102
1392.50,0.0101
1392.25,0.0100
1392.00,0.0098
1391.75,0.0096
1391.50,0.0096
1391.25,0.0095
1391.00,0.0095
1390.75,0.0095
1390.50,0.0095
1390.25,0.0094
1390.00,0.0094
1389.75,0.0094
1389.50,0.0093
1389.25,0.0092
1389.00,0.0090
1388.75,0.0090
1388.50,0.0089
1388.25,0.0087
1388.00,0.0086
1387.75,0.0086
1387.50,0.0086
1387.25,0.0086
1387.00,0.0087
1386.75,0.0086
1386.50,0.0085
1386.25,0.0084
1386.00,0.0084
1385.75,0.0085
1385.50,0.0086
1385.25,0.0087
1385.00,0.0087
1384.75,0.0085
1384.50,0.0082
1384.25,0.0080
1384.00,0.0078
1383.75,0.0078
1383.50,0.0079
1383.25,0.0081
1383.00,0.0083
1382.75,0.0084
1382.50,0.0084
1382.25,0.0085
1382.00,0.0085
1381.75,0.0084
1381.50,0.0083
1381.25,0.0083
1381.00,0.0082
1380.75,0.0082
1380.50,0.0082
1380.25,0.0081
1380.00,0.0081
1379.75,0.0080
1379.50,0.0079
1379.25,0.0079
1379.00,0.0080
1378.75,0.0080
1378.50,0.0080
1378.25,0.0079
1378.00,0.0078
1377.75,0.0078
1377.50,0.0078
1377.25,0.0079
1377.00,0.0079
1376.75,0.0079
1376.50,0.0079
1376.25,0.0079
1376.00,0.0078
1375.75,0.0078
1375.50,0.0077
1375.25,0.0076
1375.00,0.0075
1374.75,0.0076
1374.50,0.0077
1374.25,0.0077
1374.00,0.0077
1373.75,0.0077
1373.50,0.0076
1373.25,0.0076
1373.00,0.0076
1372.75,0.0078
1372.50,0.0078
1372.25,0.0078
1372.00,0.0078
1371.75,0.0078
1371.50,0.0079
1371.25,0.0079
1371.00,0.0080
1370.75,0.0080
1370.50,0.0080
1370.25,0.0079
1370.00,0.0078
1369.75,0.0078
1369.50,0.0078
1369.25,0.0078
1369.00,0.0077
1368.75,0.0076
1368.50,0.0076
1368.25,0.0076
1368.00,0.0076
1367.75,0.0076
1367.50,0.0076
1367.25,0.0076
1367.00,0.0076
1366.75,0.0076
1366.50,0.0075
1366.25,0.0075
1366.00,0.0076
1365.75,0.0076
1365.50,0.0075
1365.25,0.0074
1365.00,0.0072
1364.75,0.0072
1364.50,0.0072
1364.25,0.0072
1364.00,0.0072
1363.75,0.0072
1363.50,0.0072
1363.25,0.0072
1363.00,0.0072
1362.75,0.0072
1362.50,0.0072
1362.25,0.0072
1362.00,0.0073
1361.75,0.0074
1361.50,0.0074
1361.25,0.0074
1361.00,0.0073
1360.75,0.0073
1360.50,0.0074
1360.25,0.0075
1360.00,0.0076
1359.75,0.0077
1359.50,0.0077
1359.25,0.0078
1359.00,0.0077
1358.75,0.0077
1358.50,0.0076
1358.25,0.0075
1358.00,0.0074
1357.75,0.0073
1357.50,0.0073
1357.25,0.0074
1357.00,0.0074
1356.75,0.0074
1356.50,0.0074
1356.25,0.0074
1356.00,0.0073
1355.75,0.0072
1355.50,0.0072
1355.25,0.0073
1355.00,0.0073
1354.75,0.0074
1354.50,0.0075
1354.25,0.0075
1354.00,0.0076
1353.75,0.0076
1353.50,0.0076
1353.25,0.0076
1353.00,0.0076
1352.75,0.0076
1352.50,0.0077
1352.25,0.0077
1352.00,0.0077
1351.75,0.0077
1351.50,0.0076
1351.25,0.0074
1351.00,0.0073
1350.75,0.0072
1350.50,0.0072
1350.25,0.0072
1350.00,0.0073
1349.75,0.0073
1349.50,0.0073
1349.25,0.0073
1349.00,0.0072
1348.75,0.0072
1348.50,0.0071
1348.25,0.0072
1348.00,0.0072
1347.75,0.0073
1347.50,0.0073
1347.25,0.0073
1347.00,0.0073
1346.75,0.0072
1346.50,0.0072
1346.25,0.0072
1346.00,0.0073
1345.75,0.0074
1345.50,0.0075
1345.25,0.0076
1345.00,0.0076
1344.75,0.0075
1344.50,0.0074
1344.25,0.0075
1344.00,0.0075
1343.75,0.0076
1343.50,0.0076
1343.25,0.0076
1343.00,0.0076
1342.75,0.0076
1342.50,0.0076
1342.25,0.0077
1342.00,0.0077
1341.75,0.0077
1341.50,0.0076
1341.25,0.0076
1341.00,0.0076
1340.75,0.0076
1340.50,0.0076
1340.25,0.0075
1340.00,0.0074
1339.75,0.0073
1339.50,0.0073
1339.25,0.0074
1339.00,0.0075
1338.75,0.0075
1338.50,0.0074
1338.25,0.0073
1338.00,0.0072
1337.75,0.0072
1337.50,0.0072
1337.25,0.0073
1337.00,0.0075
1336.75,0.0075
1336.50,0.0075
1336.25,0.0074
1336.00,0.0073
1335.75,0.0072
1335.50,0.0072
1335.25,0.0072
1335.00,0.0072
1334.75,0.0073
1334.50,0.0075
1334.25,0.0076
1334.00,0.0076
1333.75,0.0076
1333.50,0.0075
1333.25,0.0075
1333.00,0.0075
1332.75,0.0075
1332.50,0.0075
1332.25,0.0075
1332.00,0.0074
1331.75,0.0074
1331.50,0.0073
1331.25,0.0073
1331.00,0.0073
1330.75,0.0074
1330.50,0.0075
1330.25,0.0076
1330.00,0.0077
1329.75,0.0077
1329.50,0.0076
1329.25,0.0076
1329.00,0.0075
1328.75,0.0075
1328.50,0.0074
1328.25,0.0075
1328.00,0.0075
1327.75,0.0076
1327.50,0.0076
1327.25,0.0076
1327.00,0.0076
1326.75,0.0076
1326.50,0.0077
1326.25,0.0077
1326.00,0.0077
1325.75,0.0076
1325.50,0.0075
1325.25,0.0075
1325.00,0.0074
1324.75,0.0075
1324.50,0.0075
1324.25,0.0075
1324.00,0.0075
1323.75,0.0075
1323.50,0.0075
1323.25,0.0075
1323.00,0.0076
1322.75,0.0076
1322.50,0.0077
1322.25,0.0077
1322.00,0.0078
1321.75,0.0078
1321.50,0.0078
1321.25,0.0078
1321.00,0.0079
1320.75,0.0079
1320.50,0.0080
1320.25,0.0080
1320.00,0.0081
1319.75,0.0081
1319.50,0.0082
1319.25,0.0082
1319.00,0.0082
1318.75,0.0082
1318.50,0.0082
1318.25,0.0082
1318.00,0.0083
1317.75,0.0083
1317.50,0.0083
1317.25,0.0082
1317.00,0.0081
1316.75,0.0080
1316.50,0.0080
1316.25,0.0081
1316.00,0.0081
1315.75,0.0082
1315.50,0.0083
1315.25,0.0084
1315.00,0.0084
1314.75,0.0083
1314.50,0.0082
1314.25,0.0081
1314.00,0.0081
1313.75,0.0081
1313.50,0.0083
1313.25,0.0084
1313.00,0.0086
1312.75,0.0087
1312.50,0.0087
1312.25,0.0085
1312.00,0.0084
1311.75,0.0082
1311.50,0.0082
1311.25,0.0083
1311.00,0.0084
1310.75,0.0086
1310.50,0.0087
1310.25,0.0087
1310.00,0.0088
1309.75,0.0088
1309.50,0.0088
1309.25,0.0088
1309.00,0.0087
1308.75,0.0087
1308.50,0.0087
1308.25,0.0087
1308.00,0.0087
1307.75,0.0087
1307.50,0.0087
1307.25,0.0086
1307.00,0.0087
1306.75,0.0088
1306.50,0.0089
1306.25,0.0090
1306.00,0.0090
1305.75,0.0090
1305.50,0.0090
1305.25,0.0090
1305.00,0.0090
1304.75,0.0090
1304.50,0.0090
1304.25,0.0090
1304.00,0.0090
1303.75,0.0090
1303.50,0.0091
1303.25,0.0091
1303.00,0.0092
1302.75,0.0093
1302.50,0.0093
1302.25,0.0093
1302.00,0.0093
1301.75,0.0093
1301.50,0.0094
1301.25,0.0095
1301.00,0.0096
1300.75,0.0096
1300.50,0.0096
1300.25,0.0096
1300.00,0.0097
1299.75,0.0097
1299.50,0.0097
1299.25,0.0097
1299.00,0.0097
1298.75,0.0097
1298.50,0.0098
1298.25,0.0100
1298.00,0.0101
1297.75,0.0102
1297.50,0.0102
1297.25,0.0101
1297.00,0.0101
1296.75,0.0100
1296.50,0.0101
1296.25,0.0102
1296.00,0.0103
1295.75,0.0104
1295.50,0.0103
1295.25,0.0102
1295.00,0.0102
1294.75,0.0102
1294.50,0.0103
1294.25,0.0104
1294.00,0.0105
1293.75,0.0106
1293.50,0.0106
1293.25,0.0105
1293.00,0.0106
1292.75,0.0106
1292.50,0.0108
1292.25,0.0109
1292.00,0.0111
1291.75,0.0111
1291.50,0.0112
1291.25,0.0112
1291.00,0.0113
1290.75,0.0113
1290.50,0.0113
1290.25,0.0112
1290.00,0.0111
1289.75,0.0111
1289.50,0.0111
1289.25,0.0112
1289.00,0.0114
1288.75,0.0115
1288.50,0.0116
1288.25,0.0117
1288.00,0.0117
1287.75,0.0117
1287.50,0.0118
1287.25,0.0118
1287.00,0.0118
1286.75,0.0118
1286.50,0.0120
1286.25,0.0121
1286.00,0.0123
1285.75,0.0125
1285.50,0.0126
1285.25,0.0127
1285.00,0.0128
1284.75,0.0130
1284.50,0.0131
1284.25,0.0132
1284.00,0.0133
1283.75,0.0132
1283.50,0.0132
1283.25,0.0132
1283.00,0.0132
1282.75,0.0132
1282.50,0.0133
1282.25,0.0134
1282.00,0.0136
1281.75,0.0139
1281.50,0.0141
1281.25,0.0143
1281.00,0.0144
1280.75,0.0146
1280.50,0.0147
1280.25,0.0149
1280.00,0.0150
1279.75,0.0151
1279.50,0.0152
1279.25,0.0154
1279.00,0.0157
1278.75,0.0160
1278.50,0.0163
1278.25,0.0165
1278.00,0.0167
1277.75,0.0168
1277.50,0.0169
1277.25,0.0171
1277.00,0.0173
1276.75,0.0175
1276.50,0.0179
1276.25,0.0182
1276.00,0.0185
1275.75,0.0189
1275.50,0.0193
1275.25,0.0197
1275.00,0.0202
1274.75,0.0207
1274.50,0.0211
1274.25,0.0215
1274.00,0.0220
1273.75,0.0225
1273.50,0.0230
1273.25,0.0235
1273.00,0.0239
1272.75,0.0244
1272.50,0.0250
1272.25,0.0256
1272.00,0.0263
1271.75,0.0272
1271.50,0.0282
1271.25,0.0293
1271.00,0.0304
1270.75,0.0315
1270.50,0.0326
1270.25,0.0337
1270.00,0.0348
1269.75,0.0360
1269.50,0.0373
1269.25,0.0388
1269.00,0.0404
1268.75,0.0422
1268.50,0.0441
1268.25,0.0462
1268.00,0.0484
1267.75,0.0507
1267.50,0.0532
1267.25,0.0558
1267.00,0.0586
1266.75,0.0616
1266.50,0.0648
1266.25,0.0681
1266.00,0.0716
1265.75,0.0752
1265.50,0.0790
1265.25,0.0829
1265.00,0.0870
1264.75,0.0912
1264.50,0.0955
1264.25,0.0998
1264.00,0.1042
1263.75,0.1085
1263.50,0.1128
1263.25,0.1173
1263.00,0.1218
1262.75,0.1263
1262.50,0.1307
1262.25,0.1350
1262.00,0.1391
1261.75,0.1430
1261.50,0.1467
1261.25,0.1501
1261.00,0.1534
1260.75,0.1564
1260.50,0.1593
1260.25,0.1618
1260.00,0.1640
1259.75,0.1658
1259.50,0.1672
1259.25,0.1683
1259.00,0.1690
1258.75,0.1694
1258.50,0.1696
1258.25,0.1695
1258.00,0.1690
1257.75,0.1682
1257.50,0.1671
1257.25,0.1656
1257.00,0.1638
1256.75,0.1617
1256.50,0.1593
1256.25,0.1568
1256.00,0.1543
1255.75,0.1518
1255.50,0.1493
1255.25,0.1468
1255.00,0.1443
1254.75,0.1416
1254.50,0.1390
1254.25,0.1363
1254.00,0.1337
1253.75,0.1309
1253.50,0.1282
1253.25,0.1254
1253.00,0.1225
1252.75,0.1194
1252.50,0.1161
1252.25,0.1127
1252.00,0.1091
1251.75,0.1055
1251.50,0.1018
1251.25,0.0981
1251.00,0.0943
1250.75,0.0905
1250.50,0.0868
1250.25,0.0831
1250.00,0.0795
1249.75,0.0760
1249.50,0.0725
1249.25,0.0691
1249.00,0.0658
1248.75,0.0626
1248.50,0.0597
1248.25,0.0570
1248.00,0.0546
1247.75,0.0523
1247.50,0.0501
1247.25,0.0481
1247.00,0.0462
1246.75,0.0445
1246.50,0.0428
1246.25,0.0412
1246.00,0.0396
1245.75,0.0380
1245.50,0.0366
1245.25,0.0353
1245.00,0.0342
1244.75,0.0332
1244.50,0.0323
1244.25,0.0315
1244.00,0.0308
1243.75,0.0300
1243.50,0.0293
1243.25,0.0285
1243.00,0.0278
1242.75,0.0272
1242.50,0.0266
1242.25,0.0261
1242.00,0.0257
1241.75,0.0252
1241.50,0.0248
1241.25,0.0243
1241.00,0.0239
1240.75,0.0235
1240.50,0.0231
1240.25,0.0228
1240.00,0.0224
1239.75,0.0221
1239.50,0.0219
1239.25,0.0217
1239.00,0.0215
1238.75,0.0213
1238.50,0.0211
1238.25,0.0208
1238.00,0.0205
1237.75,0.0202
1237.50,0.0200
1237.25,0.0198
1237.00,0.0197
1236.75,0.0195
1236.50,0.0193
1236.25,0.0191
1236.00,0.0190
1235.75,0.0190
1235.50,0.0190
1235.25,0.0190
1235.00,0.0189
1234.75,0.0187
1234.50,0.0185
1234.25,0.0182
1234.00,0.0180
1233.75,0.0178
1233.50,0.0177
1233.25,0.0177
1233.00,0.0178
1232.75,0.0178
1232.50,0.0179
1232.25,0.0179
1232.00,0.0180
1231.75,0.0180
1231.50,0.0180
1231.25,0.0180
1231.00,0.0180
1230.75,0.0178
1230.50,0.0176
1230.25,0.0174
1230.00,0.0174
1229.75,0.0175
1229.50,0.0176
1229.25,0.0177
1229.00,0.0177
1228.75,0.0177
1228.50,0.0176
1228.25,0.0175
1228.00,0.0175
1227.75,0.0175
1227.50,0.0175
1227.25,0.0174
1227.00,0.0173
1226.75,0.0172
1226.50,0.0173
1226.25,0.0174
1226.00,0.0175
1225.75,0.0177
1225.50,0.0178
1225.25,0.0178
1225.00,0.0179
1224.75,0.0179
1224.50,0.0180
1224.25,0.0181
1224.00,0.0182
1223.75,0.0183
1223.50,0.0185
1223.25,0.0185
1223.00,0.0186
1222.75,0.0186
1222.50,0.0186
1222.25,0.0187
1222.00,0.0188
1221.75,0.0189
1221.50,0.0191
1221.25,0.0192
1221.00,0.0194
1220.75,0.0195
1220.50,0.0195
1220.25,0.0194
1220.00,0.0193
1219.75,0.0193
1219.50,0.0194
1219.25,0.0196
1219.00,0.0199
1218.75,0.0202
1218.50,0.0205
1218.25,0.0208
1218.00,0.0209
1217.75,0.0209
1217.50,0.0208
1217.25,0.0206
1217.00,0.0204
1216.75,0.0203
1216.50,0.0203
1216.25,0.0204
1216.00,0.0207
1215.75,0.0211
1215.50,0.0214
1215.25,0.0216
1215.00,0.0217
1214.75,0.0218
1214.50,0.0219
1214.25,0.0219
1214.00,0.0220
1213.75,0.0221
1213.50,0.0222
1213.25,0.0223
1213.00,0.0224
1212.75,0.0225
1212.50,0.0225
1212.25,0.0226
1212.00,0.0227
1211.75,0.0229
1211.50,0.0232
1211.25,0.0235
1211.00,0.0237
1210.75,0.0239
1210.50,0.0239
1210.25,0.0239
1210.00,0.0239
1209.75,0.0240
1209.50,0.0241
1209.25,0.0242
1209.00,0.0244
1208.75,0.0245
1208.50,0.0246
1208.25,0.0247
1208.00,0.0248
1207.75,0.0248
1207.50,0.0249
1207.25,0.0250
1207.00,0.0252
1206.75,0.0255
1206.50,0.0257
1206.25,0.0259
1206.00,0.0259
1205.75,0.0259
1205.50,0.0258
1205.25,0.0258
1205.00,0.0259
1204.75,0.0260
1204.50,0.0262
1204.25,0.0264
1204.00,0.0267
1203.75,0.0269
1203.50,0.0271
1203.25,0.0273
1203.00,0.0274
1202.75,0.0275
1202.50,0.0275
1202.25,0.0276
1202.00,0.0276
1201.75,0.0277
1201.50,0.0277
1201.25,0.0279
1201.00,0.0280
1200.75,0.0281
1200.50,0.0282
1200.25,0.0282
1200.00,0.0282
1199.75,0.0282
1199.50,0.0283
1199.25,0.0285
1199.00,0.0287
1198.75,0.0290
1198.50,0.0292
1198.25,0.0294
1198.00,0.0295
1197.75,0.0296
1197.50,0.0296
1197.25,0.0295
1197.00,0.0295
1196.75,0.0296
1196.50,0.0297
1196.25,0.0298
1196.00,0.0298
1195.75,0.0299
1195.50,0.0299
1195.25,0.0299
1195.00,0.0300
1194.75,0.0300
1194.50,0.0301
1194.25,0.0302
1194.00,0.0302
1193.75,0.0302
1193.50,0.0302
1193.25,0.0302
1193.00,0.0302
1192.75,0.0304
1192.50,0.0307
1192.25,0.0309
1192.00,0.0311
1191.75,0.0312
1191.50,0.0312
1191.25,0.0312
1191.00,0.0311
1190.75,0.0311
1190.50,0.0310
1190.25,0.0310
1190.00,0.0311
1189.75,0.0311
1189.50,0.0311
1189.25,0.0311
1189.00,0.0311
1188.75,0.0312
1188.50,0.0313
1188.25,0.0313
1188.00,0.0314
1187.75,0.0314
1187.50,0.0315
1187.25,0.0317
1187.00,0.0319
1186.75,0.0321
1186.50,0.0321
1186.25,0.0321
1186.00,0.0319
1185.75,0.0318
1185.50,0.0317
1185.25,0.0316
1185.00,0.0317
1184.75,0.0318
1184.50,0.0321
1184.25,0.0323
1184.00,0.0325
1183.75,0.0326
1183.50,0.0326
1183.25,0.0326
1183.00,0.0325
1182.75,0.0323
1182.50,0.0321
1182.25,0.0320
1182.00,0.0319
1181.75,0.0319
1181.50,0.0319
1181.25,0.0320
1181.00,0.0321
1180.75,0.0322
1180.50,0.0322
1180.25,0.0322
1180.00,0.0322
1179.75,0.0322
1179.50,0.0322
1179.25,0.0323
1179.00,0.0324
1178.75,0.0325
1178.50,0.0325
1178.25,0.0326
1178.00,0.0326
1177.75,0.0326
1177.50,0.0326
1177.25,0.0326
1177.00,0.0327
1176.75,0.0327
1176.50,0.0328
1176.25,0.0328
1176.00,0.0330
1175.75,0.0330
1175.50,0.0330
1175.25,0.0329
1175.00,0.0328
1174.75,0.0328
1174.50,0.0329
1174.25,0.0331
1174.00,0.0332
1173.75,0.0332
1173.50,0.0332
1173.25,0.0333
1173.00,0.0334
1172.75,0.0335
1172.50,0.0337
1172.25,0.0337
1172.00,0.0337
1171.75,0.0336
1171.50,0.0336
1171.25,0.0335
1171.00,0.0335
1170.75,0.0335
1170.50,0.0336
1170.25,0.0336
1170.00,0.0337
1169.75,0.0338
1169.50,0.0338
1169.25,0.0338
1169.00,0.0338
1168.75,0.0338
1168.50,0.0338
1168.25,0.0338
1168.00,0.0337
1167.75,0.0335
1167.50,0.0335
1167.25,0.0334
1167.00,0.0336
1166.75,0.0338
1166.50,0.0342
1166.25,0.0344
1166.00,0.0347
1165.75,0.0348
1165.50,0.0349
1165.25,0.0348
1165.00,0.0347
1164.75,0.0345
1164.50,0.0343
1164.25,0.0342
1164.00,0.0342
1163.75,0.0343
1163.50,0.0344
1163.25,0.0346
1163.00,0.0348
1162.75,0.0348
1162.50,0.0348
1162.25,0.0347
1162.00,0.0345
1161.75,0.0344
1161.50,0.0343
1161.25,0.0343
1161.00,0.0344
1160.75,0.0346
1160.50,0.0347
1160.25,0.0347
1160.00,0.0347
1159.75,0.0346
1159.50,0.0347
1159.25,0.0348
1159.00,0.0349
1158.75,0.0351
1158.50,0.0353
1158.25,0.0355
1158.00,0.0356
1157.75,0.0356
1157.50,0.0355
1157.25,0.0354
1157.00,0.0355
1156.75,0.0356
1156.50,0.0358
1156.25,0.0359
1156.00,0.0359
1155.75,0.0359
1155.50,0.0360
1155.25,0.0361
1155.00,0.0362
1154.75,0.0363
1154.50,0.0365
1154.25,0.0366
1154.00,0.0367
1153.75,0.0367
1153.50,0.0368
1153.25,0.0368
1153.00,0.0369
1152.75,0.0368
1152.50,0.0367
1152.25,0.0366
1152.00,0.0366
1151.75,0.0367
1151.50,0.0369
1151.25,0.0372
1151.00,0.0374
1150.75,0.0376
1150.50,0.0378
1150.25,0.0380
1150.00,0.0382
1149.75,0.0383
1149.50,0.0384
1149.25,0.0384
1149.00,0.0383
1148.75,0.0383
1148.50,0.0383
1148.25,0.0384
1148.00,0.0385
1147.75,0.0387
1147.50,0.0388
1147.25,0.0390
1147.00,0.0391
1146.75,0.0392
1146.50,0.0393
1146.25,0.0394
1146.00,0.0394
1145.75,0.0395
1145.50,0.0395
1145.25,0.0396
1145.00,0.0397
1144.75,0.0399
1144.50,0.0400
1144.25,0.0402
1144.00,0.0404
1143.75,0.0405
1143.50,0.0407
1143.25,0.0410
1143.00,0.0412
1142.75,0.0414
1142.50,0.0417
1142.25,0.0419
1142.00,0.0422
1141.75,0.0424
1141.50,0.0426
1141.25,0.0427
1141.00,0.0427
1140.75,0.0426
1140.50,0.0426
1140.25,0.0426
1140.00,0.0427
1139.75,0.0430
1139.50,0.0433
1139.25,0.0437
1139.00,0.0440
1138.75,0.0443
1138.50,0.0444
1138.25,0.0445
1138.00,0.0446
1137.75,0.0448
1137.50,0.0451
1137.25,0.0455
1137.00,0.0459
1136.75,0.0462
1136.50,0.0464
1136.25,0.0465
1136.00,0.0465
1135.75,0.0465
1135.50,0.0465
1135.25,0.0468
1135.00,0.0471
1134.75,0.0474
1134.50,0.0476
1134.25,0.0478
1134.00,0.0479
1133.75,0.0481
1133.50,0.0484
1133.25,0.0487
1133.00,0.0491
1132.75,0.0493
1132.50,0.0494
1132.25,0.0495
1132.00,0.0498
1131.75,0.0502
1131.50,0.0508
1131.25,0.0513
1131.00,0.0517
1130.75,0.0521
1130.50,0.0525
1130.25,0.0527
1130.00,0.0529
1129.75,0.0530
1129.50,0.0531
1129.25,0.0532
1129.00,0.0534
1128.75,0.0538
1128.50,0.0543
1128.25,0.0548
1128.00,0.0554
1127.75,0.0558
1127.50,0.0561
1127.25,0.0563
1127.00,0.0566
1126.75,0.0570
1126.50,0.0575
1126.25,0.0580
1126.00,0.0586
1125.75,0.0591
1125.50,0.0595
1125.25,0.0599
1125.00,0.0603
1124.75,0.0607
1124.50,0.0611
1124.25,0.0615
1124.00,0.0621
1123.75,0.0627
1123.50,0.0634
1123.25,0.0640
1123.00,0.0646
1122.75,0.0651
1122.50,0.0656
1122.25,0.0660
1122.00,0.0666
1121.75,0.0672
1121.50,0.0678
1121.25,0.0683
1121.00,0.0688
1120.75,0.0693
1120.50,0.0699
1120.25,0.0707
1120.00,0.0714
1119.75,0.0722
1119.50,0.0727
1119.25,0.0732
1119.00,0.0737
1118.75,0.0742
1118.50,0.0749
1118.25,0.0757
1118.00,0.0766
1117.75,0.0774
1117.50,0.0782
1117.25,0.0789
1117.00,0.0796
1116.75,0.0803
1116.50,0.0811
1116.25,0.0819
1116.00,0.0829
1115.75,0.0839
1115.50,0.0850
1115.25,0.0859
1115.00,0.0868
1114.75,0.0875
1114.50,0.0882
1114.25,0.0888
1114.00,0.0895
1113.75,0.0904
1113.50,0.0913
1113.25,0.0924
1113.00,0.0934
1112.75,0.0943
1112.50,0.0952
1112.25,0.0960
1112.00,0.0968
1111.75,0.0977
1111.50,0.0986
1111.25,0.0997
1111.00,0.1010
1110.75,0.1022
1110.50,0.1034
1110.25,0.1045
1110.00,0.1055
1109.75,0.1064
1109.50,0.1073
1109.25,0.1082
1109.00,0.1092
1108.75,0.1102
1108.50,0.1114
1108.25,0.1127
1108.00,0.1140
1107.75,0.1153
1107.50,0.1166
1107.25,0.1177
1107.00,0.1189
1106.75,0.1200
1106.50,0.1212
1106.25,0.1224
1106.00,0.1237
1105.75,0.1251
1105.50,0.1264
1105.25,0.1276
1105.00,0.1288
1104.75,0.1299
1104.50,0.1311
1104.25,0.1323
1104.00,0.1335
1103.75,0.1349
1103.50,0.1364
1103.25,0.1379
1103.00,0.1396
1102.75,0.1411
1102.50,0.1426
1102.25,0.1438
1102.00,0.1449
1101.75,0.1461
1101.50,0.1473
1101.25,0.1485
1101.00,0.1497
1100.75,0.1510
1100.50,0.1524
1100.25,0.1539
1100.00,0.1556
1099.75,0.1572
1099.50,0.1587
1099.25,0.1602
1099.00,0.1617
1098.75,0.1632
1098.50,0.1649
1098.25,0.1665
1098.00,0.1680
1097.75,0.1694
1097.50,0.1707
1097.25,0.1719
1097.00,0.1732
1096.75,0.1745
1096.50,0.1759
1096.25,0.1774
1096.00,0.1789
1095.75,0.1805
1095.50,0.1821
1095.25,0.1836
1095.00,0.1851
1094.75,0.1866
1094.50,0.1881
1094.25,0.1897
1094.00,0.1913
1093.75,0.1928
1093.50,0.1942
1093.25,0.1955
1093.00,0.1967
1092.75,0.1980
1092.50,0.1993
1092.25,0.2006
1092.00,0.2021
1091.75,0.2036
1091.50,0.2052
1091.25,0.2067
1091.00,0.2082
1090.75,0.2096
1090.50,0.2109
1090.25,0.2123
1090.00,0.2136
1089.75,0.2150
1089.50,0.2164
1089.25,0.2180
1089.00,0.2197
1088.75,0.2213
1088.50,0.2227
1088.25,0.2240
1088.00,0.2251
1087.75,0.2262
1087.50,0.2274
1087.25,0.2287
1087.00,0.2303
1086.75,0.2319
1086.50,0.2333
1086.25,0.2344
1086.00,0.2354
1085.75,0.2363
1085.50,0.2373
1085.25,0.2383
1085.00,0.2394
1084.75,0.2405
1084.50,0.2416
1084.25,0.2426
1084.00,0.2437
1083.75,0.2447
1083.50,0.2456
1083.25,0.2464
1083.00,0.2473
1082.75,0.2484
1082.50,0.2497
1082.25,0.2510
1082.00,0.2522
1081.75,0.2533
1081.50,0.2543
1081.25,0.2552
1081.00,0.2561
1080.75,0.2571
1080.50,0.2581
1080.25,0.2590
1080.00,0.2597
1079.75,0.2603
1079.50,0.2608
1079.25,0.2612
1079.00,0.2616
1078.75,0.2622
1078.50,0.2629
1078.25,0.2636
1078.00,0.2645
1077.75,0.2652
1077.50,0.2657
1077.25,0.2660
1077.00,0.2663
1076.75,0.2668
1076.50,0.2675
1076.25,0.2683
1076.00,0.2691
1075.75,0.2697
1075.50,0.2703
1075.25,0.2711
1075.00,0.2720
1074.75,0.2727
1074.50,0.2732
1074.25,0.2732
1074.00,0.2731
1073.75,0.2732
1073.50,0.2736
1073.25,0.2742
1073.00,0.2748
1072.75,0.2752
1072.50,0.2753
1072.25,0.2754
1072.00,0.2757
1071.75,0.2761
1071.50,0.2765
1071.25,0.2770
1071.00,0.2775
1070.75,0.2780
1070.50,0.2785
1070.25,0.2788
1070.00,0.2787
1069.75,0.2786
1069.50,0.2785
1069.25,0.2786
1069.00,0.2790
1068.75,0.2796
1068.50,0.2801
1068.25,0.2806
1068.00,0.2809
1067.75,0.2810
1067.50,0.2811
1067.25,0.2813
1067.00,0.2815
1066.75,0.2819
1066.50,0.2821
1066.25,0.2821
1066.00,0.2820
1065.75,0.2819
1065.50,0.2819
1065.25,0.2821
1065.00,0.2823
1064.75,0.2824
1064.50,0.2824
1064.25,0.2824
1064.00,0.2825
1063.75,0.2826
1063.50,0.2829
1063.25,0.2833
1063.00,0.2836
1062.75,0.2838
1062.50,0.2838
1062.25,0.2838
1062.00,0.2837
1061.75,0.2835
1061.50,0.2834
1061.25,0.2834
1061.00,0.2836
1060.75,0.2840
1060.50,0.2843
1060.25,0.2843
1060.00,0.2841
1059.75,0.2837
1059.50,0.2834
1059.25,0.2832
1059.00,0.2832
1058.75,0.2832
1058.50,0.2832
1058.25,0.2831
1058.00,0.2831
1057.75,0.2830
1057.50,0.2830
1057.25,0.2829
1057.00,0.2828
1056.75,0.2827
1056.50,0.2827
1056.25,0.2827
1056.00,0.2828
1055.75,0.2827
1055.50,0.2824
1055.25,0.2819
1055.00,0.2813
1054.75,0.2808
1054.50,0.2804
1054.25,0.2802
1054.00,0.2800
1053.75,0.2799
1053.50,0.2799
1053.25,0.2798
1053.00,0.2797
1052.75,0.2796
1052.50,0.2795
1052.25,0.2793
1052.00,0.2790
1051.75,0.2785
1051.50,0.2779
1051.25,0.2772
1051.00,0.2767
1050.75,0.2764
1050.50,0.2763
1050.25,0.2763
1050.00,0.2763
1049.75,0.2761
1049.50,0.2756
1049.25,0.2752
1049.00,0.2749
1048.75,0.2749
1048.50,0.2748
1048.25,0.2746
1048.00,0.2741
1047.75,0.2736
1047.50,0.2732
1047.25,0.2731
1047.00,0.2733
1046.75,0.2737
1046.50,0.2739
1046.25,0.2739
1046.00,0.2737
1045.75,0.2734
1045.50,0.2732
1045.25,0.2731
1045.00,0.2731
1044.75,0.2730
1044.50,0.2727
1044.25,0.2723
1044.00,0.2720
1043.75,0.2717
1043.50,0.2715
1043.25,0.2715
1043.00,0.2716
1042.75,0.2718
1042.50,0.2718
1042.25,0.2718
1042.00,0.2716
1041.75,0.2715
1041.50,0.2716
1041.25,0.2718
1041.00,0.2721
1040.75,0.2724
1040.50,0.2726
1040.25,0.2726
1040.00,0.2725
1039.75,0.2722
1039.50,0.2721
1039.25,0.2723
1039.00,0.2726
1038.75,0.2730
1038.50,0.2732
1038.25,0.2734
1038.00,0.2734
1037.75,0.2735
1037.50,0.2736
1037.25,0.2736
1037.00,0.2737
1036.75,0.2738
1036.50,0.2742
1036.25,0.2750
1036.00,0.2759
1035.75,0.2769
1035.50,0.2777
1035.25,0.2782
1035.00,0.2783
1034.75,0.2784
1034.50,0.2785
1034.25,0.2789
1034.00,0.2794
1033.75,0.2800
1033.50,0.2804
1033.25,0.2808
1033.00,0.2812
1032.75,0.2817
1032.50,0.2822
1032.25,0.2828
1032.00,0.2834
1031.75,0.2842
1031.50,0.2852
1031.25,0.2863
1031.00,0.2872
1030.75,0.2879
1030.50,0.2883
1030.25,0.2888
1030.00,0.2894
1029.75,0.2901
1029.50,0.2909
1029.25,0.2918
1029.00,0.2927
1028.75,0.2936
1028.50,0.2946
1028.25,0.2957
1028.00,0.2969
1027.75,0.2981
1027.50,0.2992
1027.25,0.3003
1027.00,0.3014
1026.75,0.3025
1026.50,0.3036
1026.25,0.3045
1026.00,0.3056
1025.75,0.3067
1025.50,0.3080
1025.25,0.3095
1025.00,0.3110
1024.75,0.3122
1024.50,0.3133
1024.25,0.3141
1024.00,0.3150
1023.75,0.3160
1023.50,0.3173
1023.25,0.3189
1023.00,0.3207
1022.75,0.3225
1022.50,0.3242
1022.25,0.3257
1022.00,0.3271
1021.75,0.3285
1021.50,0.3299
1021.25,0.3313
1021.00,0.3327
1020.75,0.3342
1020.50,0.3359
1020.25,0.3376
1020.00,0.3395
1019.75,0.3413
1019.50,0.3432
1019.25,0.3451
1019.00,0.3470
1018.75,0.3489
1018.50,0.3509
1018.25,0.3527
1018.00,0.3542
1017.75,0.3555
1017.50,0.3565
1017.25,0.3577
1017.00,0.3591
1016.75,0.3608
1016.50,0.3626
1016.25,0.3644
1016.00,0.3660
1015.75,0.3673
1015.50,0.3686
1015.25,0.3699
1015.00,0.3711
1014.75,0.3721
1014.50,0.3728
1014.25,0.3733
1014.00,0.3736
1013.75,0.3738
1013.50,0.3742
1013.25,0.3747
1013.00,0.3751
1012.75,0.3752
1012.50,0.3750
1012.25,0.3743
1012.00,0.3732
1011.75,0.3718
1011.50,0.3703
1011.25,0.3687
1011.00,0.3672
1010.75,0.3657
1010.50,0.3641
1010.25,0.3621
1010.00,0.3597
1009.75,0.3570
1009.50,0.3540
1009.25,0.3509
1009.00,0.3478
1008.75,0.3446
1008.50,0.3411
1008.25,0.3374
1008.00,0.3335
1007.75,0.3294
1007.50,0.3252
1007.25,0.3210
1007.00,0.3165
1006.75,0.3119
1006.50,0.3071
1006.25,0.3021
1006.00,0.2972
1005.75,0.2923
1005.50,0.2874
1005.25,0.2824
1005.00,0.2773
1004.75,0.2720
1004.50,0.2668
1004.25,0.2618
1004.00,0.2568
1003.75,0.2519
1003.50,0.2469
1003.25,0.2418
1003.00,0.2369
1002.75,0.2320
1002.50,0.2272
1002.25,0.2223
1002.00,0.2175
1001.75,0.2127
1001.50,0.2081
1001.25,0.2036
1001.00,0.1991
1000.75,0.1947
1000.50,0.1902
1000.25,0.1859
1000.00,0.1817
999.75,0.1775
999.50,0.1735
999.25,0.1695
999.00,0.1657
998.75,0.1619
998.50,0.1584
998.25,0.1550
998.00,0.1518
997.75,0.1486
997.50,0.1455
997.25,0.1424
997.00,0.1393
996.75,0.1365
996.50,0.1337
996.25,0.1311
996.00,0.1284
995.75,0.1257
995.50,0.1228
995.25,0.1200
995.00,0.1174
994.75,0.1149
994.50,0.1128
994.25,0.1108
994.00,0.1088
993.75,0.1068
993.50,0.1048
993.25,0.1028
993.00,0.1009
992.75,0.0990
992.50,0.0970
992.25,0.0950
992.00,0.0930
991.75,0.0911
991.50,0.0895
991.25,0.0880
991.00,0.0866
990.75,0.0853
990.50,0.0839
990.25,0.0825
990.00,0.0811
989.75,0.0796
989.50,0.0781
989.25,0.0767
989.00,0.0754
988.75,0.0742
988.50,0.0730
988.25,0.0720
988.00,0.0710
987.75,0.0700
987.50,0.0689
987.25,0.0678
987.00,0.0668
986.75,0.0657
986.50,0.0647
986.25,0.0638
986.00,0.0629
985.75,0.0619
985.50,0.0609
985.25,0.0599
985.00,0.0588
984.75,0.0580
984.50,0.0574
984.25,0.0568
984.00,0.0563
983.75,0.0556
983.50,0.0548
983.25,0.0540
983.00,0.0532
982.75,0.0524
982.50,0.0515
982.25,0.0507
982.00,0.0499
981.75,0.0492
981.50,0.0486
981.25,0.0481
981.00,0.0477
980.75,0.0473
980.50,0.0469
980.25,0.0464
980.00,0.0458
979.75,0.0451
979.50,0.0444
979.25,0.0439
979.00,0.0434
978.75,0.0431
978.50,0.0429
978.25,0.0427
978.00,0.0425
977.75,0.0422
977.50,0.0417
977.25,0.0411
977.00,0.0404
976.75,0.0398
976.50,0.0392
976.25,0.0388
976.00,0.0386
975.75,0.0383
975.50,0.0380
975.25,0.0376
975.00,0.0371
974.75,0.0367
974.50,0.0363
974.25,0.0361
974.00,0.0359
973.75,0.0357
973.50,0.0355
973.25,0.0352
973.00,0.0349
972.75,0.0346
972.50,0.0343
972.25,0.0340
972.00,0.0338
971.75,0.0337
971.50,0.0335
971.25,0.0333
971.00,0.0331
970.75,0.0327
970.50,0.0324
970.25,0.0321
970.00,0.0319
969.75,0.0317
969.50,0.0316
969.25,0.0315
969.00,0.0313
968.75,0.0311
968.50,0.0308
968.25,0.0305
968.00,0.0302
967.75,0.0301
967.50,0.0300
967.25,0.0299
967.00,0.0299
966.75,0.0298
966.50,0.0295
966.25,0.0292
966.00,0.0288
965.75,0.0286
965.50,0.0285
965.25,0.0285
965.00,0.0284
964.75,0.0283
964.50,0.0281
964.25,0.0279
964.00,0.0276
963.75,0.0275
963.50,0.0275
963.25,0.0275
963.00,0.0275
962.75,0.0274
962.50,0.0274
962.25,0.0273
962.00,0.0273
961.75,0.0272
961.50,0.0271
961.25,0.0270
961.00,0.0269
960.75,0.0268
960.50,0.0268
960.25,0.0269
960.00,0.0269
959.75,0.0269
959.50,0.0268
959.25,0.0266
959.00,0.0265
958.75,0.0264
958.50,0.0262
958.25,0.0260
958.00,0.0258
957.75,0.0256
957.50,0.0254
957.25,0.0254
957.00,0.0255
956.75,0.0258
956.50,0.0260
956.25,0.0261
956.00,0.0260
955.75,0.0258
955.50,0.0255
955.25,0.0253
955.00,0.0252
954.75,0.0253
954.50,0.0253
954.25,0.0252
954.00,0.0250
953.75,0.0247
953.50,0.0245
953.25,0.0244
953.00,0.0242
952.75,0.0241
952.50,0.0238
952.25,0.0235
952.00,0.0232
951.75,0.0230
951.50,0.0227
951.25,0.0224
951.00,0.0220
950.75,0.0217
950.50,0.0215
950.25,0.0215
950.00,0.0216
949.75,0.0218
949.50,0.0219
949.25,0.0219
949.00,0.0218
948.75,0.0217
948.50,0.0216
948.25,0.0216
948.00,0.0215
947.75,0.0213
947.50,0.0210
947.25,0.0207
947.00,0.0204
946.75,0.0204
946.50,0.0205
946.25,0.0206
946.00,0.0207
945.75,0.0206
945.50,0.0206
945.25,0.0205
945.00,0.0204
944.75,0.0203
944.50,0.0201
944.25,0.0200
944.00,0.0199
943.75,0.0199
943.50,0.0199
943.25,0.0200
943.00,0.0200
942.75,0.0201
942.50,0.0202
942.25,0.0202
942.00,0.0203
941.75,0.0203
941.50,0.0203
941.25,0.0203
941.00,0.0201
940.75,0.0200
940.50,0.0199
940.25,0.0199
940.00,0.0199
939.75,0.0198
939.50,0.0197
939.25,0.0196
939.00,0.0197
938.75,0.0198
938.50,0.0198
938.25,0.0198
938.00,0.0196
937.75,0.0194
937.50,0.0192
937.25,0.0192
937.00,0.0192
936.75,0.0193
936.50,0.0193
936.25,0.0192
936.00,0.0192
935.75,0.0192
935.50,0.0191
935.25,0.0191
935.00,0.0191
934.75,0.0193
934.50,0.0196
934.25,0.0199
934.00,0.0201
933.75,0.0201
933.50,0.0200
933.25,0.0199
933.00,0.0200
932.75,0.0201
932.50,0.0203
932.25,0.0206
932.00,0.0208
931.75,0.0211
931.50,0.0212
931.25,0.0214
931.00,0.0216
930.75,0.0218
930.50,0.0220
930.25,0.0220
930.00,0.0220
929.75,0.0220
929.50,0.0220
929.25,0.0221
929.00,0.0221
928.75,0.0220
928.50,0.0219
928.25,0.0218
928.00,0.0217
927.75,0.0217
927.50,0.0218
927.25,0.0220
927.00,0.0222
926.75,0.0224
926.50,0.0228
926.25,0.0231
926.00,0.0233
925.75,0.0234
925.50,0.0234
925.25,0.0235
925.00,0.0237
924.75,0.0238
924.50,0.0239
924.25,0.0239
924.00,0.0237
923.75,0.0236
923.50,0.0235
923.25,0.0234
923.00,0.0235
922.75,0.0236
922.50,0.0239
922.25,0.0243
922.00,0.0245
921.75,0.0248
921.50,0.0250
921.25,0.0252
921.00,0.0256
920.75,0.0260
920.50,0.0264
920.25,0.0267
920.00,0.0269
919.75,0.0271
919.50,0.0274
919.25,0.0276
919.00,0.0278
918.75,0.0281
918.50,0.0284
918.25,0.0287
918.00,0.0290
917.75,0.0294
917.50,0.0297
917.25,0.0300
917.00,0.0302
916.75,0.0304
916.50,0.0307
916.25,0.0309
916.00,0.0311
915.75,0.0313
915.50,0.0315
915.25,0.0317
915.00,0.0318
914.75,0.0319
914.50,0.0321
914.25,0.0323
914.00,0.0326
913.75,0.0327
913.50,0.0329
913.25,0.0330
913.00,0.0332
912.75,0.0334
912.50,0.0337
912.25,0.0338
912.00,0.0337
911.75,0.0334
911.50,0.0330
911.25,0.0326
911.00,0.0324
910.75,0.0324
910.50,0.0325
910.25,0.0325
910.00,0.0325
909.75,0.0324
909.50,0.0322
909.25,0.0321
909.00,0.0320
908.75,0.0320
908.50,0.0321
908.25,0.0321
908.00,0.0321
907.75,0.0319
907.50,0.0316
907.25,0.0313
907.00,0.0310
906.75,0.0308
906.50,0.0307
906.25,0.0306
906.00,0.0306
905.75,0.0304
905.50,0.0302
905.25,0.0300
905.00,0.0299
904.75,0.0299
904.50,0.0299
904.25,0.0300
904.00,0.0300
903.75,0.0299
903.50,0.0299
903.25,0.0299
903.00,0.0300
902.75,0.0301
902.50,0.0302
902.25,0.0303
902.00,0.0304
901.75,0.0304
901.50,0.0304
901.25,0.0305
901.00,0.0306
900.75,0.0306
900.50,0.0305
900.25,0.0305
900.00,0.0307
899.75,0.0309
899.50,0.0310
899.25,0.0309
899.00,0.0309
898.75,0.0309
898.50,0.0310
898.25,0.0313
898.00,0.0317
897.75,0.0321
897.50,0.0326
897.25,0.0328
897.00,0.0329
896.75,0.0330
896.50,0.0331
896.25,0.0333
896.00,0.0337
895.75,0.0339
895.50,0.0341
895.25,0.0343
895.00,0.0346
894.75,0.0350
894.50,0.0353
894.25,0.0355
894.00,0.0356
893.75,0.0358
893.50,0.0361
893.25,0.0364
893.00,0.0367
892.75,0.0368
892.50,0.0367
892.25,0.0366
892.00,0.0366
891.75,0.0368
891.50,0.0372
891.25,0.0377
891.00,0.0381
890.75,0.0386
890.50,0.0389
890.25,0.0391
890.00,0.0391
889.75,0.0390
889.50,0.0388
889.25,0.0388
889.00,0.0391
888.75,0.0397
888.50,0.0406
888.25,0.0414
888.00,0.0420
887.75,0.0424
887.50,0.0428
887.25,0.0431
887.00,0.0434
886.75,0.0437
886.50,0.0440
886.25,0.0443
886.00,0.0447
885.75,0.0452
885.50,0.0457
885.25,0.0461
885.00,0.0467
884.75,0.0472
884.50,0.0479
884.25,0.0485
884.00,0.0490
883.75,0.0494
883.50,0.0498
883.25,0.0501
883.00,0.0504
882.75,0.0508
882.50,0.0514
882.25,0.0523
882.00,0.0532
881.75,0.0542
881.50,0.0549
881.25,0.0554
881.00,0.0557
880.75,0.0560
880.50,0.0565
880.25,0.0572
880.00,0.0581
879.75,0.0589
879.50,0.0596
879.25,0.0602
879.00,0.0607
878.75,0.0613
878.50,0.0620
878.25,0.0628
878.00,0.0637
877.75,0.0648
877.50,0.0658
877.25,0.0668
877.00,0.0677
876.75,0.0686
876.50,0.0694
876.25,0.0702
876.00,0.0710
875.75,0.0719
875.50,0.0730
875.25,0.0741
875.00,0.0752
874.75,0.0760
874.50,0.0767
874.25,0.0772
874.00,0.0779
873.75,0.0789
873.50,0.0802
873.25,0.0817
873.00,0.0833
872.75,0.0847
872.50,0.0860
872.25,0.0871
872.00,0.0883
871.75,0.0895
871.50,0.0908
871.25,0.0924
871.00,0.0940
870.75,0.0955
870.50,0.0969
870.25,0.0981
870.00,0.0991
869.75,0.1000
869.50,0.1011
869.25,0.1023
869.00,0.1036
868.75,0.1047
868.50,0.1058
868.25,0.1070
868.00,0.1081
867.75,0.1090
867.50,0.1095
867.25,0.1098
867.00,0.1099
866.75,0.1102
866.50,0.1106
866.25,0.1112
866.00,0.1119
865.75,0.1127
865.50,0.1136
865.25,0.1144
865.00,0.1151
864.75,0.1155
864.50,0.1157
864.25,0.1156
864.00,0.1153
863.75,0.1151
863.50,0.1148
863.25,0.1147
863.00,0.1145
862.75,0.1142
862.50,0.1140
862.25,0.1137
862.00,0.1134
861.75,0.1129
861.50,0.1123
861.25,0.1116
861.00,0.1110
860.75,0.1106
860.50,0.1103
860.25,0.1102
860.00,0.1099
859.75,0.1095
859.50,0.1089
859.25,0.1082
859.00,0.1075
858.75,0.1070
858.50,0.1066
858.25,0.1063
858.00,0.1059
857.75,0.1055
857.50,0.1051
857.25,0.1047
857.00,0.1044
856.75,0.1042
856.50,0.1041
856.25,0.1040
856.00,0.1042
855.75,0.1045
855.50,0.1052
855.25,0.1059
855.00,0.1066
854.75,0.1069
854.50,0.1070
854.25,0.1070
854.00,0.1072
853.75,0.1076
853.50,0.1081
853.25,0.1088
853.00,0.1096
852.75,0.1102
852.50,0.1108
852.25,0.1113
852.00,0.1118
851.75,0.1125
851.50,0.1134
851.25,0.1146
851.00,0.1159
850.75,0.1172
850.50,0.1183
850.25,0.1192
850.00,0.1202
849.75,0.1212
849.50,0.1224
849.25,0.1236
849.00,0.1250
848.75,0.1264
848.50,0.1277
848.25,0.1290
848.00,0.1302
847.75,0.1313
847.50,0.1324
847.25,0.1332
847.00,0.1339
846.75,0.1345
846.50,0.1351
846.25,0.1363
846.00,0.1379
845.75,0.1399
845.50,0.1417
845.25,0.1430
845.00,0.1436
844.75,0.1438
844.50,0.1439
844.25,0.1444
844.00,0.1451
843.75,0.1458
843.50,0.1461
843.25,0.1457
843.00,0.1450
842.75,0.1442
842.50,0.1435
842.25,0.1430
842.00,0.1429
841.75,0.1428
841.50,0.1427
841.25,0.1422
841.00,0.1413
840.75,0.1403
840.50,0.1395
840.25,0.1388
840.00,0.1383
839.75,0.1378
839.50,0.1371
839.25,0.1360
839.00,0.1347
838.75,0.1334
838.50,0.1322
838.25,0.1312
838.00,0.1304
837.75,0.1294
837.50,0.1281
837.25,0.1267
837.00,0.1252
836.75,0.1240
836.50,0.1231
836.25,0.1226
836.00,0.1221
835.75,0.1212
835.50,0.1200
835.25,0.1186
835.00,0.1173
834.75,0.1164
834.50,0.1155
834.25,0.1146
834.00,0.1136
833.75,0.1125
833.50,0.1115
833.25,0.1108
833.00,0.1105
832.75,0.1105
832.50,0.1107
832.25,0.1110
832.00,0.1110
831.75,0.1110
831.50,0.1108
831.25,0.1107
831.00,0.1105
830.75,0.1105
830.50,0.1105
830.25,0.1109
830.00,0.1116
829.75,0.1125
829.50,0.1135
829.25,0.1142
829.00,0.1147
828.75,0.1150
828.50,0.1151
828.25,0.1155
828.00,0.1161
827.75,0.1172
827.50,0.1187
827.25,0.1201
827.00,0.1213
826.75,0.1223
826.50,0.1234
826.25,0.1248
826.00,0.1267
825.75,0.1287
825.50,0.1309
825.25,0.1328
825.00,0.1345
824.75,0.1361
824.50,0.1376
824.25,0.1394
824.00,0.1412
823.75,0.1432
823.50,0.1453
823.25,0.1475
823.00,0.1497
822.75,0.1519
822.50,0.1540
822.25,0.1560
822.00,0.1580
821.75,0.1600
821.50,0.1622
821.25,0.1643
821.00,0.1664
820.75,0.1684
820.50,0.1704
820.25,0.1724
820.00,0.1741
819.75,0.1756
819.50,0.1771
819.25,0.1788
819.00,0.1807
818.75,0.1827
818.50,0.1842
818.25,0.1851
818.00,0.1856
817.75,0.1862
817.50,0.1871
817.25,0.1887
817.00,0.1907
816.75,0.1927
816.50,0.1947
816.25,0.1965
816.00,0.1981
815.75,0.1994
815.50,0.2004
815.25,0.2012
815.00,0.2020
814.75,0.2029
814.50,0.2040
814.25,0.2051
814.00,0.2063
813.75,0.2076
813.50,0.2090
813.25,0.2105
813.00,0.2119
812.75,0.2132
812.50,0.2146
812.25,0.2162
812.00,0.2181
811.75,0.2202
811.50,0.2222
811.25,0.2240
811.00,0.2258
810.75,0.2277
810.50,0.2298
810.25,0.2323
810.00,0.2350
809.75,0.2378
809.50,0.2406
809.25,0.2432
809.00,0.2459
808.75,0.2488
808.50,0.2518
808.25,0.2548
808.00,0.2580
807.75,0.2611
807.50,0.2643
807.25,0.2677
807.00,0.2711
806.75,0.2746
806.50,0.2780
806.25,0.2812
806.00,0.2841
805.75,0.2870
805.50,0.2902
805.25,0.2939
805.00,0.2980
804.75,0.3023
804.50,0.3066
804.25,0.3108
804.00,0.3150
803.75,0.3192
803.50,0.3234
803.25,0.3277
803.00,0.3319
802.75,0.3359
802.50,0.3397
802.25,0.3434
802.00,0.3472
801.75,0.3514
801.50,0.3563
801.25,0.3617
801.00,0.3673
800.75,0.3728
800.50,0.3779
800.25,0.3826
800.00,0.3871
