Created as New Dataset,Sample 025 By irlear Date Wednesday, December 31 2008
cm-1,A
4000.00,0.0015
3999.75,0.0014
3999.50,0.0013
3999.25,0.0012
3999.00,0.0011
3998.75,0.0009
3998.50,0.0008
3998.25,0.0007
3998.00,0.0008
3997.75,0.0009
3997.50,0.0011
3997.25,0.0012
3997.00,0.0013
3996.75,0.0014
3996.50,0.0014
3996.25,0.0014
3996.00,0.0013
3995.75,0.0013
3995.50,0.0013
3995.25,0.0014
3995.00,0.0014
3994.75,0.0015
3994.50,0.0016
3994.25,0.0016
3994.00,0.0016
3993.75,0.0015
3993.50,0.0014
3993.25,0.0014
3993.00,0.0013
3992.75,0.0013
3992.50,0.0012
3992.25,0.0011
3992.00,0.0011
3991.75,0.0011
3991.50,0.0011
3991.25,0.0011
3991.00,0.0010
3990.75,0.0009
3990.50,0.0009
3990.25,0.0009
3990.00,0.0010
3989.75,0.0012
3989.50,0.0012
3989.25,0.0013
3989.00,0.0013
3988.75,0.0014
3988.50,0.0013
3988.25,0.0012
3988.00,0.0012
3987.75,0.0012
3987.50,0.0012
3987.25,0.0013
3987.00,0.0014
3986.75,0.0014
3986.50,0.0014
3986.25,0.0014
3986.00,0.0014
3985.75,0.0013
3985.50,0.0012
3985.25,0.0011
3985.00,0.0010
3984.75,0.0011
3984.50,0.0013
3984.25,0.0015
3984.00,0.0016
3983.75,0.0017
3983.50,0.0016
3983.25,0.0015
3983.00,0.0013
3982.75,0.0011
3982.50,0.0010
3982.25,0.0011
3982.00,0.0012
3981.75,0.0013
3981.50,0.0014
3981.25,0.0013
3981.00,0.0012
3980.75,0.0011
3980.50,0.0010
3980.25,0.0009
3980.00,0.0009
3979.75,0.0008
3979.50,0.0008
3979.25,0.0009
3979.00,0.0009
3978.75,0.0010
3978.50,0.0010
3978.25,0.0011
3978.00,0.0011
3977.75,0.0011
3977.50,0.0011
3977.25,0.0010
3977.00,0.0010
3976.75,0.0010
3976.50,0.0011
3976.25,0.0012
3976.00,0.0013
3975.75,0.0013
3975.50,0.0012
3975.25,0.0011
3975.00,0.0009
3974.75,0.0008
3974.50,0.0008
3974.25,0.0008
3974.00,0.0009
3973.75,0.0010
3973.50,0.0010
3973.25,0.0011
3973.00,0.0011
3972.75,0.0012
3972.50,0.0013
3972.25,0.0015
3972.00,0.0016
3971.75,0.0016
3971.50,0.0015
3971.25,0.0014
3971.00,0.0013
3970.75,0.0013
3970.50,0.0013
3970.25,0.0013
3970.00,0.0013
3969.75,0.0013
3969.50,0.0012
3969.25,0.0011
3969.00,0.0010
3968.75,0.0008
3968.50,0.0008
3968.25,0.0008
3968.00,0.0009
3967.75,0.0010
3967.50,0.0011
3967.25,0.0013
3967.00,0.0014
3966.75,0.0016
3966.50,0.0017
3966.25,0.0018
3966.00,0.0018
3965.75,0.0017
3965.50,0.0015
3965.25,0.0013
3965.00,0.0011
3964.75,0.0010
3964.50,0.0009
3964.25,0.0009
3964.00,0.0010
3963.75,0.0011
3963.50,0.0012
3963.25,0.0012
3963.00,0.0013
3962.75,0.0013
3962.50,0.0012
3962.25,0.0012
3962.00,0.0011
3961.75,0.0011
3961.50,0.0011
3961.25,0.0012
3961.00,0.0013
3960.75,0.0013
3960.50,0.0014
3960.25,0.0014
3960.00,0.0014
3959.75,0.0014
3959.50,0.0014
3959.25,0.0013
3959.00,0.0012
3958.75,0.0012
3958.50,0.0012
3958.25,0.0013
3958.00,0.0014
3957.75,0.0015
3957.50,0.0015
3957.25,0.0015
3957.00,0.0014
3956.75,0.0013
3956.50,0.0012
3956.25,0.0011
3956.00,0.0010
3955.75,0.0009
3955.50,0.0009
3955.25,0.0010
3955.00,0.0010
3954.75,0.0011
3954.50,0.0011
3954.25,0.0012
3954.00,0.0013
3953.75,0.0014
3953.50,0.0014
3953.25,0.0015
3953.00,0.0014
3952.75,0.0014
3952.50,0.0013
3952.25,0.0011
3952.00,0.0010
3951.75,0.0009
3951.50,0.0009
3951.25,0.0010
3951.00,0.0011
3950.75,0.0013
3950.50,0.0014
3950.25,0.0015
3950.00,0.0015
3949.75,0.0015
3949.50,0.0015
3949.25,0.0014
3949.00,0.0014
3948.75,0.0013
3948.50,0.0012
3948.25,0.0011
3948.00,0.0011
3947.75,0.0011
3947.50,0.0011
3947.25,0.0012
3947.00,0.0013
3946.75,0.0013
3946.50,0.0012
3946.25,0.0010
3946.00,0.0009
3945.75,0.0009
3945.50,0.0010
3945.25,0.0013
3945.00,0.0016
3944.75,0.0018
3944.50,0.0019
3944.25,0.0019
3944.00,0.0017
3943.75,0.0014
3943.50,0.0012
3943.25,0.0011
3943.00,0.0010
3942.75,0.0011
3942.50,0.0013
3942.25,0.0014
3942.00,0.0015
3941.75,0.0015
3941.50,0.0014
3941.25,0.0012
3941.00,0.0011
3940.75,0.0011
3940.50,0.0012
3940.25,0.0013
3940.00,0.0013
3939.75,0.0013
3939.50,0.0012
3939.25,0.0011
3939.00,0.0010
3938.75,0.0010
3938.50,0.0010
3938.25,0.0010
3938.00,0.0011
3937.75,0.0012
3937.50,0.0013
3937.25,0.0013
3937.00,0.0013
3936.75,0.0012
3936.50,0.0010
3936.25,0.0009
3936.00,0.0009
3935.75,0.0009
3935.50,0.0009
3935.25,0.0009
3935.00,0.0009
3934.75,0.0010
3934.50,0.0010
3934.25,0.0011
3934.00,0.0013
3933.75,0.0014
3933.50,0.0015
3933.25,0.0016
3933.00,0.0017
3932.75,0.0018
3932.50,0.0018
3932.25,0.0018
3932.00,0.0018
3931.75,0.0018
3931.50,0.0018
3931.25,0.0017
3931.00,0.0015
3930.75,0.0013
3930.50,0.0011
3930.25,0.0010
3930.00,0.0010
3929.75,0.0010
3929.50,0.0010
3929.25,0.0010
3929.00,0.0010
3928.75,0.0011
3928.50,0.0011
3928.25,0.0011
3928.00,0.0012
3927.75,0.0012
3927.50,0.0013
3927.25,0.0013
3927.00,0.0013
3926.75,0.0013
3926.50,0.0012
3926.25,0.0012
3926.00,0.0012
3925.75,0.0013
3925.50,0.0015
3925.25,0.0016
3925.00,0.0018
3924.75,0.0019
3924.50,0.0018
3924.25,0.0017
3924.00,0.0015
3923.75,0.0013
3923.50,0.0012
3923.25,0.0012
3923.00,0.0013
3922.75,0.0015
3922.50,0.0016
3922.25,0.0017
3922.00,0.0018
3921.75,0.0018
3921.50,0.0016
3921.25,0.0014
3921.00,0.0013
3920.75,0.0012
3920.50,0.0012
3920.25,0.0013
3920.00,0.0013
3919.75,0.0013
3919.50,0.0012
3919.25,0.0011
3919.00,0.0009
3918.75,0.0009
3918.50,0.0008
3918.25,0.0009
3918.00,0.0009
3917.75,0.0009
3917.50,0.0009
3917.25,0.0009
3917.00,0.0009
3916.75,0.0010
3916.50,0.0012
3916.25,0.0014
3916.00,0.0015
3915.75,0.0015
3915.50,0.0015
3915.25,0.0015
3915.00,0.0016
3914.75,0.0016
3914.50,0.0016
3914.25,0.0016
3914.00,0.0016
3913.75,0.0015
3913.50,0.0015
3913.25,0.0014
3913.00,0.0013
3912.75,0.0012
3912.50,0.0011
3912.25,0.0011
3912.00,0.0011
3911.75,0.0011
3911.50,0.0012
3911.25,0.0012
3911.00,0.0013
3910.75,0.0014
3910.50,0.0015
3910.25,0.0015
3910.00,0.0015
3909.75,0.0014
3909.50,0.0013
3909.25,0.0012
3909.00,0.0011
3908.75,0.0010
3908.50,0.0010
3908.25,0.0009
3908.00,0.0009
3907.75,0.0009
3907.50,0.0009
3907.25,0.0010
3907.00,0.0011
3906.75,0.0013
3906.50,0.0015
3906.25,0.0017
3906.00,0.0020
3905.75,0.0021
3905.50,0.0021
3905.25,0.0020
3905.00,0.0020
3904.75,0.0019
3904.50,0.0018
3904.25,0.0017
3904.00,0.0015
3903.75,0.0013
3903.50,0.0013
3903.25,0.0013
3903.00,0.0014
3902.75,0.0014
3902.50,0.0015
3902.25,0.0016
3902.00,0.0016
3901.75,0.0015
3901.50,0.0012
3901.25,0.0010
3901.00,0.0008
3900.75,0.0008
3900.50,0.0009
3900.25,0.0011
3900.00,0.0014
3899.75,0.0017
3899.50,0.0019
3899.25,0.0019
3899.00,0.0017
3898.75,0.0016
3898.50,0.0016
3898.25,0.0016
3898.00,0.0016
3897.75,0.0016
3897.50,0.0016
3897.25,0.0016
3897.00,0.0015
3896.75,0.0015
3896.50,0.0014
3896.25,0.0013
3896.00,0.0013
3895.75,0.0013
3895.50,0.0013
3895.25,0.0013
3895.00,0.0012
3894.75,0.0011
3894.50,0.0011
3894.25,0.0010
3894.00,0.0009
3893.75,0.0009
3893.50,0.0010
3893.25,0.0012
3893.00,0.0013
3892.75,0.0015
3892.50,0.0017
3892.25,0.0019
3892.00,0.0021
3891.75,0.0022
3891.50,0.0021
3891.25,0.0018
3891.00,0.0014
3890.75,0.0012
3890.50,0.0011
3890.25,0.0011
3890.00,0.0012
3889.75,0.0012
3889.50,0.0013
3889.25,0.0013
3889.00,0.0014
3888.75,0.0014
3888.50,0.0014
3888.25,0.0015
3888.00,0.0014
3887.75,0.0014
3887.50,0.0012
3887.25,0.0010
3887.00,0.0009
3886.75,0.0009
3886.50,0.0011
3886.25,0.0013
3886.00,0.0014
3885.75,0.0014
3885.50,0.0013
3885.25,0.0013
3885.00,0.0014
3884.75,0.0016
3884.50,0.0017
3884.25,0.0017
3884.00,0.0017
3883.75,0.0016
3883.50,0.0014
3883.25,0.0012
3883.00,0.0011
3882.75,0.0011
3882.50,0.0011
3882.25,0.0013
3882.00,0.0014
3881.75,0.0014
3881.50,0.0015
3881.25,0.0016
3881.00,0.0017
3880.75,0.0018
3880.50,0.0018
3880.25,0.0017
3880.00,0.0015
3879.75,0.0014
3879.50,0.0014
3879.25,0.0013
3879.00,0.0013
3878.75,0.0013
3878.50,0.0013
3878.25,0.0013
3878.00,0.0013
3877.75,0.0013
3877.50,0.0014
3877.25,0.0014
3877.00,0.0013
3876.75,0.0013
3876.50,0.0012
3876.25,0.0012
3876.00,0.0012
3875.75,0.0013
3875.50,0.0014
3875.25,0.0014
3875.00,0.0014
3874.75,0.0013
3874.50,0.0013
3874.25,0.0012
3874.00,0.0012
3873.75,0.0012
3873.50,0.0012
3873.25,0.0011
3873.00,0.0010
3872.75,0.0009
3872.50,0.0009
3872.25,0.0009
3872.00,0.0011
3871.75,0.0012
3871.50,0.0014
3871.25,0.0015
3871.00,0.0016
3870.75,0.0017
3870.50,0.0017
3870.25,0.0016
3870.00,0.0015
3869.75,0.0016
3869.50,0.0019
3869.25,0.0021
3869.00,0.0021
3868.75,0.0018
3868.50,0.0015
3868.25,0.0013
3868.00,0.0012
3867.75,0.0012
3867.50,0.0011
3867.25,0.0010
3867.00,0.0008
3866.75,0.0008
3866.50,0.0008
3866.25,0.0010
3866.00,0.0012
3865.75,0.0014
3865.50,0.0015
3865.25,0.0014
3865.00,0.0013
3864.75,0.0011
3864.50,0.0011
3864.25,0.0011
3864.00,0.0012
3863.75,0.0013
3863.50,0.0014
3863.25,0.0015
3863.00,0.0016
3862.75,0.0017
3862.50,0.0018
3862.25,0.0018
3862.00,0.0018
3861.75,0.0018
3861.50,0.0017
3861.25,0.0016
3861.00,0.0014
3860.75,0.0012
3860.50,0.0010
3860.25,0.0009
3860.00,0.0008
3859.75,0.0008
3859.50,0.0009
3859.25,0.0009
3859.00,0.0010
3858.75,0.0009
3858.50,0.0009
3858.25,0.0009
3858.00,0.0010
3857.75,0.0010
3857.50,0.0011
3857.25,0.0012
3857.00,0.0014
3856.75,0.0016
3856.50,0.0016
3856.25,0.0016
3856.00,0.0016
3855.75,0.0015
3855.50,0.0015
3855.25,0.0016
3855.00,0.0016
3854.75,0.0016
3854.50,0.0016
3854.25,0.0017
3854.00,0.0023
3853.75,0.0030
3853.50,0.0033
3853.25,0.0031
3853.00,0.0027
3852.75,0.0023
3852.50,0.0019
3852.25,0.0016
3852.00,0.0014
3851.75,0.0014
3851.50,0.0015
3851.25,0.0016
3851.00,0.0016
3850.75,0.0015
3850.50,0.0013
3850.25,0.0012
3850.00,0.0011
3849.75,0.0011
3849.50,0.0013
3849.25,0.0014
3849.00,0.0014
3848.75,0.0014
3848.50,0.0013
3848.25,0.0011
3848.00,0.0010
3847.75,0.0010
3847.50,0.0011
3847.25,0.0012
3847.00,0.0012
3846.75,0.0012
3846.50,0.0012
3846.25,0.0013
3846.00,0.0014
3845.75,0.0015
3845.50,0.0015
3845.25,0.0015
3845.00,0.0015
3844.75,0.0014
3844.50,0.0014
3844.25,0.0015
3844.00,0.0014
3843.75,0.0014
3843.50,0.0014
3843.25,0.0014
3843.00,0.0015
3842.75,0.0015
3842.50,0.0016
3842.25,0.0016
3842.00,0.0017
3841.75,0.0017
3841.50,0.0016
3841.25,0.0015
3841.00,0.0013
3840.75,0.0013
3840.50,0.0013
3840.25,0.0014
3840.00,0.0015
3839.75,0.0016
3839.50,0.0016
3839.25,0.0016
3839.00,0.0016
3838.75,0.0016
3838.50,0.0017
3838.25,0.0018
3838.00,0.0019
3837.75,0.0019
3837.50,0.0018
3837.25,0.0018
3837.00,0.0019
3836.75,0.0020
3836.50,0.0019
3836.25,0.0018
3836.00,0.0017
3835.75,0.0016
3835.50,0.0015
3835.25,0.0013
3835.00,0.0012
3834.75,0.0011
3834.50,0.0011
3834.25,0.0011
3834.00,0.0011
3833.75,0.0011
3833.50,0.0010
3833.25,0.0010
3833.00,0.0010
3832.75,0.0011
3832.50,0.0011
3832.25,0.0011
3832.00,0.0010
3831.75,0.0011
3831.50,0.0012
3831.25,0.0015
3831.00,0.0017
3830.75,0.0018
3830.50,0.0017
3830.25,0.0015
3830.00,0.0013
3829.75,0.0012
3829.50,0.0011
3829.25,0.0011
3829.00,0.0011
3828.75,0.0010
3828.50,0.0010
3828.25,0.0011
3828.00,0.0012
3827.75,0.0013
3827.50,0.0015
3827.25,0.0017
3827.00,0.0019
3826.75,0.0020
3826.50,0.0020
3826.25,0.0019
3826.00,0.0017
3825.75,0.0015
3825.50,0.0013
3825.25,0.0012
3825.00,0.0011
3824.75,0.0011
3824.50,0.0011
3824.25,0.0011
3824.00,0.0012
3823.75,0.0013
3823.50,0.0014
3823.25,0.0014
3823.00,0.0013
3822.75,0.0012
3822.50,0.0011
3822.25,0.0011
3822.00,0.0012
3821.75,0.0013
3821.50,0.0016
3821.25,0.0019
3821.00,0.0020
3820.75,0.0019
3820.50,0.0017
3820.25,0.0016
3820.00,0.0016
3819.75,0.0016
3819.50,0.0015
3819.25,0.0014
3819.00,0.0013
3818.75,0.0013
3818.50,0.0014
3818.25,0.0015
3818.00,0.0017
3817.75,0.0017
3817.50,0.0017
3817.25,0.0017
3817.00,0.0018
3816.75,0.0019
3816.50,0.0021
3816.25,0.0022
3816.00,0.0023
3815.75,0.0023
3815.50,0.0023
3815.25,0.0021
3815.00,0.0019
3814.75,0.0016
3814.50,0.0014
3814.25,0.0013
3814.00,0.0013
3813.75,0.0014
3813.50,0.0014
3813.25,0.0015
3813.00,0.0015
3812.75,0.0015
3812.50,0.0015
3812.25,0.0014
3812.00,0.0013
3811.75,0.0011
3811.50,0.0010
3811.25,0.0010
3811.00,0.0010
3810.75,0.0011
3810.50,0.0012
3810.25,0.0012
3810.00,0.0012
3809.75,0.0012
3809.50,0.0011
3809.25,0.0011
3809.00,0.0011
3808.75,0.0012
3808.50,0.0012
3808.25,0.0012
3808.00,0.0013
3807.75,0.0013
3807.50,0.0013
3807.25,0.0012
3807.00,0.0014
3806.75,0.0016
3806.50,0.0019
3806.25,0.0020
3806.00,0.0019
3805.75,0.0017
3805.50,0.0015
3805.25,0.0014
3805.00,0.0013
3804.75,0.0014
3804.50,0.0014
3804.25,0.0014
3804.00,0.0014
3803.75,0.0014
3803.50,0.0014
3803.25,0.0014
3803.00,0.0016
3802.75,0.0019
3802.50,0.0020
3802.25,0.0020
3802.00,0.0018
3801.75,0.0014
3801.50,0.0011
3801.25,0.0010
3801.00,0.0011
3800.75,0.0013
3800.50,0.0014
3800.25,0.0014
3800.00,0.0012
3799.75,0.0011
3799.50,0.0009
3799.25,0.0009
3799.00,0.0010
3798.75,0.0013
3798.50,0.0015
3798.25,0.0017
3798.00,0.0018
3797.75,0.0018
3797.50,0.0018
3797.25,0.0017
3797.00,0.0017
3796.75,0.0016
3796.50,0.0015
3796.25,0.0014
3796.00,0.0014
3795.75,0.0014
3795.50,0.0014
3795.25,0.0014
3795.00,0.0014
3794.75,0.0013
3794.50,0.0013
3794.25,0.0013
3794.00,0.0013
3793.75,0.0014
3793.50,0.0014
3793.25,0.0013
3793.00,0.0012
3792.75,0.0011
3792.50,0.0011
3792.25,0.0011
3792.00,0.0012
3791.75,0.0011
3791.50,0.0011
3791.25,0.0010
3791.00,0.0010
3790.75,0.0009
3790.50,0.0009
3790.25,0.0009
3790.00,0.0009
3789.75,0.0010
3789.50,0.0011
3789.25,0.0011
3789.00,0.0011
3788.75,0.0011
3788.50,0.0012
3788.25,0.0012
3788.00,0.0013
3787.75,0.0014
3787.50,0.0014
3787.25,0.0013
3787.00,0.0012
3786.75,0.0012
3786.50,0.0013
3786.25,0.0014
3786.00,0.0015
3785.75,0.0015
3785.50,0.0015
3785.25,0.0015
3785.00,0.0015
3784.75,0.0015
3784.50,0.0015
3784.25,0.0015
3784.00,0.0014
3783.75,0.0014
3783.50,0.0013
3783.25,0.0012
3783.00,0.0012
3782.75,0.0013
3782.50,0.0014
3782.25,0.0015
3782.00,0.0016
3781.75,0.0016
3781.50,0.0016
3781.25,0.0015
3781.00,0.0015
3780.75,0.0014
3780.50,0.0014
3780.25,0.0013
3780.00,0.0012
3779.75,0.0011
3779.50,0.0009
3779.25,0.0009
3779.00,0.0010
3778.75,0.0012
3778.50,0.0014
3778.25,0.0016
3778.00,0.0016
3777.75,0.0016
3777.50,0.0015
3777.25,0.0015
3777.00,0.0014
3776.75,0.0013
3776.50,0.0012
3776.25,0.0011
3776.00,0.0011
3775.75,0.0012
3775.50,0.0013
3775.25,0.0014
3775.00,0.0015
3774.75,0.0015
3774.50,0.0014
3774.25,0.0012
3774.00,0.0010
3773.75,0.0009
3773.50,0.0008
3773.25,0.0009
3773.00,0.0011
3772.75,0.0012
3772.50,0.0013
3772.25,0.0014
3772.00,0.0015
3771.75,0.0015
3771.50,0.0016
3771.25,0.0016
3771.00,0.0016
3770.75,0.0016
3770.50,0.0017
3770.25,0.0018
3770.00,0.0019
3769.75,0.0019
3769.50,0.0018
3769.25,0.0017
3769.00,0.0016
3768.75,0.0017
3768.50,0.0017
3768.25,0.0018
3768.00,0.0019
3767.75,0.0019
3767.50,0.0019
3767.25,0.0018
3767.00,0.0016
3766.75,0.0016
3766.50,0.0016
3766.25,0.0017
3766.00,0.0018
3765.75,0.0017
3765.50,0.0015
3765.25,0.0013
3765.00,0.0012
3764.75,0.0012
3764.50,0.0014
3764.25,0.0016
3764.00,0.0018
3763.75,0.0019
3763.50,0.0019
3763.25,0.0019
3763.00,0.0017
3762.75,0.0015
3762.50,0.0013
3762.25,0.0012
3762.00,0.0012
3761.75,0.0012
3761.50,0.0014
3761.25,0.0016
3761.00,0.0017
3760.75,0.0018
3760.50,0.0017
3760.25,0.0016
3760.00,0.0014
3759.75,0.0012
3759.50,0.0013
3759.25,0.0015
3759.00,0.0017
3758.75,0.0019
3758.50,0.0021
3758.25,0.0021
3758.00,0.0021
3757.75,0.0020
3757.50,0.0019
3757.25,0.0018
3757.00,0.0017
3756.75,0.0017
3756.50,0.0016
3756.25,0.0015
3756.00,0.0016
3755.75,0.0016
3755.50,0.0017
3755.25,0.0018
3755.00,0.0019
3754.75,0.0020
3754.50,0.0020
3754.25,0.0019
3754.00,0.0018
3753.75,0.0017
3753.50,0.0017
3753.25,0.0017
3753.00,0.0017
3752.75,0.0018
3752.50,0.0019
3752.25,0.0019
3752.00,0.0019
3751.75,0.0019
3751.50,0.0020
3751.25,0.0020
3751.00,0.0019
3750.75,0.0018
3750.50,0.0018
3750.25,0.0019
3750.00,0.0022
3749.75,0.0024
3749.50,0.0024
3749.25,0.0019
3749.00,0.0015
3748.75,0.0015
3748.50,0.0018
3748.25,0.0020
3748.00,0.0021
3747.75,0.0022
3747.50,0.0022
3747.25,0.0021
3747.00,0.0021
3746.75,0.0019
3746.50,0.0018
3746.25,0.0017
3746.00,0.0016
3745.75,0.0015
3745.50,0.0015
3745.25,0.0015
3745.00,0.0014
3744.75,0.0012
3744.50,0.0010
3744.25,0.0010
3744.00,0.0011
3743.75,0.0013
3743.50,0.0015
3743.25,0.0016
3743.00,0.0017
3742.75,0.0018
3742.50,0.0018
3742.25,0.0017
3742.00,0.0016
3741.75,0.0015
3741.50,0.0015
3741.25,0.0016
3741.00,0.0018
3740.75,0.0019
3740.50,0.0020
3740.25,0.0019
3740.00,0.0018
3739.75,0.0017
3739.50,0.0017
3739.25,0.0017
3739.00,0.0016
3738.75,0.0016
3738.50,0.0016
3738.25,0.0016
3738.00,0.0018
3737.75,0.0019
3737.50,0.0021
3737.25,0.0022
3737.00,0.0022
3736.75,0.0023
3736.50,0.0025
3736.25,0.0027
3736.00,0.0029
3735.75,0.0029
3735.50,0.0027
3735.25,0.0026
3735.00,0.0026
3734.75,0.0027
3734.50,0.0029
3734.25,0.0028
3734.00,0.0027
3733.75,0.0024
3733.50,0.0022
3733.25,0.0021
3733.00,0.0021
3732.75,0.0023
3732.50,0.0026
3732.25,0.0030
3732.00,0.0030
3731.75,0.0027
3731.50,0.0023
3731.25,0.0021
3731.00,0.0020
3730.75,0.0019
3730.50,0.0018
3730.25,0.0016
3730.00,0.0014
3729.75,0.0013
3729.50,0.0013
3729.25,0.0013
3729.00,0.0013
3728.75,0.0013
3728.50,0.0013
3728.25,0.0014
3728.00,0.0014
3727.75,0.0013
3727.50,0.0012
3727.25,0.0011
3727.00,0.0011
3726.75,0.0012
3726.50,0.0014
3726.25,0.0015
3726.00,0.0015
3725.75,0.0016
3725.50,0.0016
3725.25,0.0017
3725.00,0.0018
3724.75,0.0020
3724.50,0.0021
3724.25,0.0021
3724.00,0.0021
3723.75,0.0021
3723.50,0.0022
3723.25,0.0023
3723.00,0.0024
3722.75,0.0024
3722.50,0.0024
3722.25,0.0024
3722.00,0.0023
3721.75,0.0023
3721.50,0.0022
3721.25,0.0021
3721.00,0.0020
3720.75,0.0018
3720.50,0.0018
3720.25,0.0017
3720.00,0.0016
3719.75,0.0014
3719.50,0.0011
3719.25,0.0009
3719.00,0.0008
3718.75,0.0008
3718.50,0.0009
3718.25,0.0010
3718.00,0.0012
3717.75,0.0013
3717.50,0.0014
3717.25,0.0015
3717.00,0.0015
3716.75,0.0015
3716.50,0.0015
3716.25,0.0016
3716.00,0.0016
3715.75,0.0017
3715.50,0.0019
3715.25,0.0020
3715.00,0.0022
3714.75,0.0023
3714.50,0.0022
3714.25,0.0020
3714.00,0.0017
3713.75,0.0014
3713.50,0.0013
3713.25,0.0013
3713.00,0.0015
3712.75,0.0018
3712.50,0.0023
3712.25,0.0029
3712.00,0.0034
3711.75,0.0035
3711.50,0.0031
3711.25,0.0027
3711.00,0.0024
3710.75,0.0023
3710.50,0.0022
3710.25,0.0023
3710.00,0.0024
3709.75,0.0024
3709.50,0.0022
3709.25,0.0019
3709.00,0.0017
3708.75,0.0017
3708.50,0.0018
3708.25,0.0020
3708.00,0.0021
3707.75,0.0022
3707.50,0.0021
3707.25,0.0021
3707.00,0.0019
3706.75,0.0017
3706.50,0.0016
3706.25,0.0016
3706.00,0.0016
3705.75,0.0015
3705.50,0.0015
3705.25,0.0015
3705.00,0.0015
3704.75,0.0014
3704.50,0.0014
3704.25,0.0014
3704.00,0.0014
3703.75,0.0014
3703.50,0.0015
3703.25,0.0016
3703.00,0.0016
3702.75,0.0016
3702.50,0.0016
3702.25,0.0016
3702.00,0.0017
3701.75,0.0019
3701.50,0.0021
3701.25,0.0021
3701.00,0.0021
3700.75,0.0019
3700.50,0.0018
3700.25,0.0017
3700.00,0.0016
3699.75,0.0017
3699.50,0.0017
3699.25,0.0018
3699.00,0.0019
3698.75,0.0020
3698.50,0.0021
3698.25,0.0020
3698.00,0.0020
3697.75,0.0019
3697.50,0.0018
3697.25,0.0017
3697.00,0.0016
3696.75,0.0015
3696.50,0.0013
3696.25,0.0013
3696.00,0.0013
3695.75,0.0013
3695.50,0.0013
3695.25,0.0013
3695.00,0.0012
3694.75,0.0011
3694.50,0.0011
3694.25,0.0012
3694.00,0.0013
3693.75,0.0015
3693.50,0.0016
3693.25,0.0016
3693.00,0.0016
3692.75,0.0017
3692.50,0.0018
3692.25,0.0020
3692.00,0.0022
3691.75,0.0024
3691.50,0.0023
3691.25,0.0020
3691.00,0.0018
3690.75,0.0017
3690.50,0.0017
3690.25,0.0018
3690.00,0.0018
3689.75,0.0017
3689.50,0.0016
3689.25,0.0016
3689.00,0.0017
3688.75,0.0018
3688.50,0.0019
3688.25,0.0019
3688.00,0.0019
3687.75,0.0019
3687.50,0.0019
3687.25,0.0019
3687.00,0.0018
3686.75,0.0018
3686.50,0.0017
3686.25,0.0016
3686.00,0.0014
3685.75,0.0012
3685.50,0.0011
3685.25,0.0011
3685.00,0.0012
3684.75,0.0013
3684.50,0.0014
3684.25,0.0014
3684.00,0.0015
3683.75,0.0015
3683.50,0.0016
3683.25,0.0017
3683.00,0.0018
3682.75,0.0019
3682.50,0.0019
3682.25,0.0020
3682.00,0.0020
3681.75,0.0020
3681.50,0.0020
3681.25,0.0019
3681.00,0.0020
3680.75,0.0020
3680.50,0.0020
3680.25,0.0019
3680.00,0.0018
3679.75,0.0016
3679.50,0.0014
3679.25,0.0013
3679.00,0.0013
3678.75,0.0014
3678.50,0.0014
3678.25,0.0015
3678.00,0.0015
3677.75,0.0016
3677.50,0.0016
3677.25,0.0018
3677.00,0.0020
3676.75,0.0023
3676.50,0.0025
3676.25,0.0026
3676.00,0.0027
3675.75,0.0029
3675.50,0.0031
3675.25,0.0031
3675.00,0.0028
3674.75,0.0024
3674.50,0.0020
3674.25,0.0019
3674.00,0.0020
3673.75,0.0022
3673.50,0.0023
3673.25,0.0022
3673.00,0.0021
3672.75,0.0020
3672.50,0.0018
3672.25,0.0016
3672.00,0.0015
3671.75,0.0016
3671.50,0.0017
3671.25,0.0019
3671.00,0.0020
3670.75,0.0022
3670.50,0.0025
3670.25,0.0027
3670.00,0.0028
3669.75,0.0028
3669.50,0.0027
3669.25,0.0025
3669.00,0.0023
3668.75,0.0020
3668.50,0.0017
3668.25,0.0014
3668.00,0.0013
3667.75,0.0013
3667.50,0.0014
3667.25,0.0015
3667.00,0.0016
3666.75,0.0016
3666.50,0.0017
3666.25,0.0017
3666.00,0.0017
3665.75,0.0018
3665.50,0.0018
3665.25,0.0019
3665.00,0.0019
3664.75,0.0019
3664.50,0.0019
3664.25,0.0018
3664.00,0.0018
3663.75,0.0017
3663.50,0.0017
3663.25,0.0016
3663.00,0.0014
3662.75,0.0013
3662.50,0.0012
3662.25,0.0011
3662.00,0.0012
3661.75,0.0012
3661.50,0.0014
3661.25,0.0015
3661.00,0.0016
3660.75,0.0017
3660.50,0.0017
3660.25,0.0016
3660.00,0.0015
3659.75,0.0014
3659.50,0.0013
3659.25,0.0014
3659.00,0.0015
3658.75,0.0017
3658.50,0.0018
3658.25,0.0018
3658.00,0.0018
3657.75,0.0017
3657.50,0.0017
3657.25,0.0018
3657.00,0.0019
3656.75,0.0020
3656.50,0.0019
3656.25,0.0019
3656.00,0.0019
3655.75,0.0021
3655.50,0.0022
3655.25,0.0023
3655.00,0.0021
3654.75,0.0019
3654.50,0.0017
3654.25,0.0015
3654.00,0.0013
3653.75,0.0013
3653.50,0.0013
3653.25,0.0013
3653.00,0.0013
3652.75,0.0013
3652.50,0.0012
3652.25,0.0013
3652.00,0.0014
3651.75,0.0017
3651.50,0.0021
3651.25,0.0025
3651.00,0.0028
3650.75,0.0029
3650.50,0.0028
3650.25,0.0028
3650.00,0.0029
3649.75,0.0030
3649.50,0.0029
3649.25,0.0027
3649.00,0.0025
3648.75,0.0024
3648.50,0.0024
3648.25,0.0025
3648.00,0.0026
3647.75,0.0027
3647.50,0.0026
3647.25,0.0025
3647.00,0.0022
3646.75,0.0020
3646.50,0.0019
3646.25,0.0020
3646.00,0.0020
3645.75,0.0021
3645.50,0.0021
3645.25,0.0022
3645.00,0.0022
3644.75,0.0021
3644.50,0.0020
3644.25,0.0019
3644.00,0.0018
3643.75,0.0018
3643.50,0.0018
3643.25,0.0018
3643.00,0.0018
3642.75,0.0017
3642.50,0.0016
3642.25,0.0015
3642.00,0.0015
3641.75,0.0014
3641.50,0.0014
3641.25,0.0013
3641.00,0.0013
3640.75,0.0014
3640.50,0.0015
3640.25,0.0017
3640.00,0.0018
3639.75,0.0018
3639.50,0.0018
3639.25,0.0018
3639.00,0.0018
3638.75,0.0018
3638.50,0.0017
3638.25,0.0017
3638.00,0.0017
3637.75,0.0016
3637.50,0.0015
3637.25,0.0015
3637.00,0.0016
3636.75,0.0016
3636.50,0.0017
3636.25,0.0018
3636.00,0.0018
3635.75,0.0018
3635.50,0.0018
3635.25,0.0018
3635.00,0.0019
3634.75,0.0019
3634.50,0.0020
3634.25,0.0021
3634.00,0.0023
3633.75,0.0026
3633.50,0.0026
3633.25,0.0026
3633.00,0.0023
3632.75,0.0021
3632.50,0.0019
3632.25,0.0018
3632.00,0.0018
3631.75,0.0018
3631.50,0.0019
3631.25,0.0020
3631.00,0.0020
3630.75,0.0019
3630.50,0.0019
3630.25,0.0020
3630.00,0.0022
3629.75,0.0024
3629.50,0.0027
3629.25,0.0028
3629.00,0.0026
3628.75,0.0023
3628.50,0.0021
3628.25,0.0019
3628.00,0.0019
3627.75,0.0021
3627.50,0.0023
3627.25,0.0024
3627.00,0.0024
3626.75,0.0023
3626.50,0.0021
3626.25,0.0020
3626.00,0.0018
3625.75,0.0017
3625.50,0.0015
3625.25,0.0014
3625.00,0.0013
3624.75,0.0014
3624.50,0.0016
3624.25,0.0017
3624.00,0.0018
3623.75,0.0019
3623.50,0.0020
3623.25,0.0020
3623.00,0.0020
3622.75,0.0019
3622.50,0.0017
3622.25,0.0016
3622.00,0.0015
3621.75,0.0016
3621.50,0.0018
3621.25,0.0021
3621.00,0.0023
3620.75,0.0024
3620.50,0.0024
3620.25,0.0023
3620.00,0.0022
3619.75,0.0021
3619.50,0.0021
3619.25,0.0023
3619.00,0.0026
3618.75,0.0029
3618.50,0.0030
3618.25,0.0029
3618.00,0.0027
3617.75,0.0024
3617.50,0.0022
3617.25,0.0020
3617.00,0.0017
3616.75,0.0015
3616.50,0.0014
3616.25,0.0013
3616.00,0.0014
3615.75,0.0016
3615.50,0.0019
3615.25,0.0021
3615.00,0.0022
3614.75,0.0022
3614.50,0.0021
3614.25,0.0020
3614.00,0.0019
3613.75,0.0019
3613.50,0.0020
3613.25,0.0021
3613.00,0.0022
3612.75,0.0023
3612.50,0.0024
3612.25,0.0023
3612.00,0.0021
3611.75,0.0019
3611.50,0.0018
3611.25,0.0018
3611.00,0.0017
3610.75,0.0016
3610.50,0.0015
3610.25,0.0013
3610.00,0.0013
3609.75,0.0013
3609.50,0.0016
3609.25,0.0021
3609.00,0.0027
3608.75,0.0031
3608.50,0.0031
3608.25,0.0028
3608.00,0.0025
3607.75,0.0022
3607.50,0.0021
3607.25,0.0023
3607.00,0.0026
3606.75,0.0028
3606.50,0.0027
3606.25,0.0023
3606.00,0.0018
3605.75,0.0014
3605.50,0.0012
3605.25,0.0012
3605.00,0.0013
3604.75,0.0015
3604.50,0.0017
3604.25,0.0017
3604.00,0.0017
3603.75,0.0016
3603.50,0.0015
3603.25,0.0015
3603.00,0.0015
3602.75,0.0016
3602.50,0.0016
3602.25,0.0015
3602.00,0.0014
3601.75,0.0014
3601.50,0.0014
3601.25,0.0016
3601.00,0.0019
3600.75,0.0021
3600.50,0.0023
3600.25,0.0023
3600.00,0.0023
3599.75,0.0022
3599.50,0.0021
3599.25,0.0022
3599.00,0.0022
3598.75,0.0022
3598.50,0.0021
3598.25,0.0020
3598.00,0.0018
3597.75,0.0017
3597.50,0.0017
3597.25,0.0017
3597.00,0.0017
3596.75,0.0016
3596.50,0.0016
3596.25,0.0015
3596.00,0.0015
3595.75,0.0016
3595.50,0.0017
3595.25,0.0018
3595.00,0.0019
3594.75,0.0019
3594.50,0.0019
3594.25,0.0018
3594.00,0.0016
3593.75,0.0015
3593.50,0.0013
3593.25,0.0013
3593.00,0.0014
3592.75,0.0016
3592.50,0.0017
3592.25,0.0018
3592.00,0.0018
3591.75,0.0017
3591.50,0.0017
3591.25,0.0017
3591.00,0.0018
3590.75,0.0019
3590.50,0.0020
3590.25,0.0020
3590.00,0.0020
3589.75,0.0020
3589.50,0.0021
3589.25,0.0023
3589.00,0.0022
3588.75,0.0021
3588.50,0.0019
3588.25,0.0019
3588.00,0.0020
3587.75,0.0023
3587.50,0.0025
3587.25,0.0027
3587.00,0.0028
3586.75,0.0028
3586.50,0.0025
3586.25,0.0020
3586.00,0.0017
3585.75,0.0016
3585.50,0.0016
3585.25,0.0017
3585.00,0.0017
3584.75,0.0017
3584.50,0.0018
3584.25,0.0018
3584.00,0.0019
3583.75,0.0020
3583.50,0.0020
3583.25,0.0020
3583.00,0.0019
3582.75,0.0017
3582.50,0.0017
3582.25,0.0017
3582.00,0.0017
3581.75,0.0017
3581.50,0.0017
3581.25,0.0017
3581.00,0.0017
3580.75,0.0018
3580.50,0.0019
3580.25,0.0020
3580.00,0.0020
3579.75,0.0020
3579.50,0.0020
3579.25,0.0020
3579.00,0.0020
3578.75,0.0019
3578.50,0.0019
3578.25,0.0019
3578.00,0.0019
3577.75,0.0020
3577.50,0.0021
3577.25,0.0021
3577.00,0.0020
3576.75,0.0018
3576.50,0.0016
3576.25,0.0015
3576.00,0.0014
3575.75,0.0016
3575.50,0.0017
3575.25,0.0019
3575.00,0.0020
3574.75,0.0020
3574.50,0.0020
3574.25,0.0020
3574.00,0.0020
3573.75,0.0020
3573.50,0.0020
3573.25,0.0020
3573.00,0.0019
3572.75,0.0017
3572.50,0.0016
3572.25,0.0015
3572.00,0.0015
3571.75,0.0016
3571.50,0.0017
3571.25,0.0018
3571.00,0.0018
3570.75,0.0018
3570.50,0.0016
3570.25,0.0015
3570.00,0.0014
3569.75,0.0015
3569.50,0.0016
3569.25,0.0017
3569.00,0.0019
3568.75,0.0020
3568.50,0.0022
3568.25,0.0024
3568.00,0.0025
3567.75,0.0026
3567.50,0.0028
3567.25,0.0029
3567.00,0.0030
3566.75,0.0030
3566.50,0.0028
3566.25,0.0026
3566.00,0.0023
3565.75,0.0022
3565.50,0.0021
3565.25,0.0020
3565.00,0.0019
3564.75,0.0017
3564.50,0.0016
3564.25,0.0016
3564.00,0.0016
3563.75,0.0017
3563.50,0.0019
3563.25,0.0020
3563.00,0.0020
3562.75,0.0020
3562.50,0.0019
3562.25,0.0017
3562.00,0.0016
3561.75,0.0015
3561.50,0.0016
3561.25,0.0017
3561.00,0.0019
3560.75,0.0021
3560.50,0.0021
3560.25,0.0021
3560.00,0.0020
3559.75,0.0019
3559.50,0.0019
3559.25,0.0019
3559.00,0.0020
3558.75,0.0020
3558.50,0.0021
3558.25,0.0020
3558.00,0.0019
3557.75,0.0018
3557.50,0.0017
3557.25,0.0017
3557.00,0.0017
3556.75,0.0017
3556.50,0.0017
3556.25,0.0016
3556.00,0.0015
3555.75,0.0014
3555.50,0.0013
3555.25,0.0013
3555.00,0.0014
3554.75,0.0014
3554.50,0.0015
3554.25,0.0015
3554.00,0.0016
3553.75,0.0017
3553.50,0.0017
3553.25,0.0017
3553.00,0.0017
3552.75,0.0017
3552.50,0.0017
3552.25,0.0017
3552.00,0.0017
3551.75,0.0018
3551.50,0.0018
3551.25,0.0018
3551.00,0.0018
3550.75,0.0018
3550.50,0.0017
3550.25,0.0016
3550.00,0.0016
3549.75,0.0016
3549.50,0.0016
3549.25,0.0017
3549.00,0.0017
3548.75,0.0016
3548.50,0.0016
3548.25,0.0016
3548.00,0.0017
3547.75,0.0019
3547.50,0.0020
3547.25,0.0019
3547.00,0.0017
3546.75,0.0015
3546.50,0.0015
3546.25,0.0017
3546.00,0.0019
3545.75,0.0021
3545.50,0.0023
3545.25,0.0024
3545.00,0.0023
3544.75,0.0023
3544.50,0.0021
3544.25,0.0020
3544.00,0.0019
3543.75,0.0017
3543.50,0.0016
3543.25,0.0015
3543.00,0.0015
3542.75,0.0015
3542.50,0.0015
3542.25,0.0015
3542.00,0.0016
3541.75,0.0017
3541.50,0.0017
3541.25,0.0017
3541.00,0.0016
3540.75,0.0015
3540.50,0.0015
3540.25,0.0015
3540.00,0.0016
3539.75,0.0017
3539.50,0.0017
3539.25,0.0017
3539.00,0.0017
3538.75,0.0017
3538.50,0.0018
3538.25,0.0018
3538.00,0.0018
3537.75,0.0017
3537.50,0.0016
3537.25,0.0016
3537.00,0.0015
3536.75,0.0015
3536.50,0.0015
3536.25,0.0015
3536.00,0.0014
3535.75,0.0014
3535.50,0.0013
3535.25,0.0012
3535.00,0.0012
3534.75,0.0012
3534.50,0.0014
3534.25,0.0016
3534.00,0.0017
3533.75,0.0019
3533.50,0.0020
3533.25,0.0020
3533.00,0.0020
3532.75,0.0020
3532.50,0.0019
3532.25,0.0018
3532.00,0.0018
3531.75,0.0018
3531.50,0.0019
3531.25,0.0019
3531.00,0.0018
3530.75,0.0016
3530.50,0.0015
3530.25,0.0015
3530.00,0.0015
3529.75,0.0016
3529.50,0.0018
3529.25,0.0018
3529.00,0.0017
3528.75,0.0015
3528.50,0.0013
3528.25,0.0012
3528.00,0.0012
3527.75,0.0014
3527.50,0.0017
3527.25,0.0019
3527.00,0.0020
3526.75,0.0019
3526.50,0.0017
3526.25,0.0017
3526.00,0.0017
3525.75,0.0019
3525.50,0.0020
3525.25,0.0022
3525.00,0.0023
3524.75,0.0023
3524.50,0.0024
3524.25,0.0023
3524.00,0.0023
3523.75,0.0022
3523.50,0.0021
3523.25,0.0020
3523.00,0.0020
3522.75,0.0019
3522.50,0.0019
3522.25,0.0018
3522.00,0.0018
3521.75,0.0018
3521.50,0.0018
3521.25,0.0018
3521.00,0.0018
3520.75,0.0018
3520.50,0.0018
3520.25,0.0017
3520.00,0.0015
3519.75,0.0014
3519.50,0.0013
3519.25,0.0013
3519.00,0.0014
3518.75,0.0015
3518.50,0.0015
3518.25,0.0016
3518.00,0.0015
3517.75,0.0015
3517.50,0.0014
3517.25,0.0014
3517.00,0.0014
3516.75,0.0014
3516.50,0.0015
3516.25,0.0016
3516.00,0.0016
3515.75,0.0015
3515.50,0.0014
3515.25,0.0013
3515.00,0.0013
3514.75,0.0013
3514.50,0.0014
3514.25,0.0015
3514.00,0.0016
3513.75,0.0015
3513.50,0.0014
3513.25,0.0012
3513.00,0.0011
3512.75,0.0012
3512.50,0.0013
3512.25,0.0015
3512.00,0.0016
3511.75,0.0016
3511.50,0.0016
3511.25,0.0016
3511.00,0.0015
3510.75,0.0015
3510.50,0.0014
3510.25,0.0013
3510.00,0.0013
3509.75,0.0014
3509.50,0.0016
3509.25,0.0018
3509.00,0.0018
3508.75,0.0018
3508.50,0.0018
3508.25,0.0018
3508.00,0.0019
3507.75,0.0021
3507.50,0.0022
3507.25,0.0022
3507.00,0.0021
3506.75,0.0020
3506.50,0.0017
3506.25,0.0015
3506.00,0.0012
3505.75,0.0010
3505.50,0.0010
3505.25,0.0010
3505.00,0.0011
3504.75,0.0013
3504.50,0.0015
3504.25,0.0016
3504.00,0.0017
3503.75,0.0017
3503.50,0.0016
3503.25,0.0016
3503.00,0.0016
3502.75,0.0017
3502.50,0.0018
3502.25,0.0018
3502.00,0.0018
3501.75,0.0018
3501.50,0.0017
3501.25,0.0017
3501.00,0.0016
3500.75,0.0016
3500.50,0.0016
3500.25,0.0016
3500.00,0.0017
3499.75,0.0018
3499.50,0.0018
3499.25,0.0017
3499.00,0.0016
3498.75,0.0015
3498.50,0.0015
3498.25,0.0015
3498.00,0.0015
3497.75,0.0015
3497.50,0.0016
3497.25,0.0016
3497.00,0.0015
3496.75,0.0015
3496.50,0.0016
3496.25,0.0016
3496.00,0.0017
3495.75,0.0017
3495.50,0.0016
3495.25,0.0016
3495.00,0.0017
3494.75,0.0017
3494.50,0.0017
3494.25,0.0017
3494.00,0.0016
3493.75,0.0015
3493.50,0.0015
3493.25,0.0015
3493.00,0.0015
3492.75,0.0016
3492.50,0.0017
3492.25,0.0018
3492.00,0.0019
3491.75,0.0019
3491.50,0.0018
3491.25,0.0017
3491.00,0.0016
3490.75,0.0015
3490.50,0.0015
3490.25,0.0015
3490.00,0.0015
3489.75,0.0015
3489.50,0.0016
3489.25,0.0016
3489.00,0.0017
3488.75,0.0017
3488.50,0.0017
3488.25,0.0017
3488.00,0.0016
3487.75,0.0016
3487.50,0.0015
3487.25,0.0015
3487.00,0.0015
3486.75,0.0015
3486.50,0.0015
3486.25,0.0015
3486.00,0.0017
3485.75,0.0018
3485.50,0.0019
3485.25,0.0018
3485.00,0.0017
3484.75,0.0017
3484.50,0.0016
3484.25,0.0016
3484.00,0.0015
3483.75,0.0015
3483.50,0.0014
3483.25,0.0014
3483.00,0.0015
3482.75,0.0016
3482.50,0.0016
3482.25,0.0016
3482.00,0.0015
3481.75,0.0015
3481.50,0.0015
3481.25,0.0015
3481.00,0.0015
3480.75,0.0016
3480.50,0.0016
3480.25,0.0016
3480.00,0.0017
3479.75,0.0017
3479.50,0.0016
3479.25,0.0015
3479.00,0.0016
3478.75,0.0016
3478.50,0.0017
3478.25,0.0018
3478.00,0.0018
3477.75,0.0018
3477.50,0.0018
3477.25,0.0018
3477.00,0.0018
3476.75,0.0018
3476.50,0.0017
3476.25,0.0017
3476.00,0.0017
3475.75,0.0017
3475.50,0.0017
3475.25,0.0017
3475.00,0.0017
3474.75,0.0017
3474.50,0.0017
3474.25,0.0016
3474.00,0.0015
3473.75,0.0014
3473.50,0.0013
3473.25,0.0013
3473.00,0.0014
3472.75,0.0016
3472.50,0.0017
3472.25,0.0018
3472.00,0.0018
3471.75,0.0019
3471.50,0.0019
3471.25,0.0019
3471.00,0.0018
3470.75,0.0018
3470.50,0.0018
3470.25,0.0018
3470.00,0.0017
3469.75,0.0016
3469.50,0.0016
3469.25,0.0015
3469.00,0.0016
3468.75,0.0016
3468.50,0.0017
3468.25,0.0017
3468.00,0.0018
3467.75,0.0019
3467.50,0.0020
3467.25,0.0021
3467.00,0.0020
3466.75,0.0020
3466.50,0.0019
3466.25,0.0020
3466.00,0.0020
3465.75,0.0020
3465.50,0.0018
3465.25,0.0016
3465.00,0.0012
3464.75,0.0009
3464.50,0.0008
3464.25,0.0008
3464.00,0.0010
3463.75,0.0012
3463.50,0.0014
3463.25,0.0015
3463.00,0.0016
3462.75,0.0016
3462.50,0.0015
3462.25,0.0015
3462.00,0.0015
3461.75,0.0015
3461.50,0.0016
3461.25,0.0017
3461.00,0.0017
3460.75,0.0017
3460.50,0.0016
3460.25,0.0015
3460.00,0.0014
3459.75,0.0013
3459.50,0.0014
3459.25,0.0015
3459.00,0.0017
3458.75,0.0017
3458.50,0.0017
3458.25,0.0016
3458.00,0.0015
3457.75,0.0015
3457.50,0.0016
3457.25,0.0016
3457.00,0.0017
3456.75,0.0016
3456.50,0.0015
3456.25,0.0014
3456.00,0.0012
3455.75,0.0011
3455.50,0.0010
3455.25,0.0010
3455.00,0.0011
3454.75,0.0013
3454.50,0.0014
3454.25,0.0015
3454.00,0.0015
3453.75,0.0015
3453.50,0.0014
3453.25,0.0013
3453.00,0.0012
3452.75,0.0012
3452.50,0.0013
3452.25,0.0014
3452.00,0.0015
3451.75,0.0015
3451.50,0.0015
3451.25,0.0015
3451.00,0.0015
3450.75,0.0015
3450.50,0.0015
3450.25,0.0014
3450.00,0.0014
3449.75,0.0014
3449.50,0.0015
3449.25,0.0016
3449.00,0.0015
3448.75,0.0014
3448.50,0.0014
3448.25,0.0014
3448.00,0.0015
3447.75,0.0016
3447.50,0.0018
3447.25,0.0020
3447.00,0.0021
3446.75,0.0021
3446.50,0.0021
3446.25,0.0020
3446.00,0.0019
3445.75,0.0017
3445.50,0.0016
3445.25,0.0015
3445.00,0.0015
3444.75,0.0015
3444.50,0.0016
3444.25,0.0017
3444.00,0.0019
3443.75,0.0019
3443.50,0.0020
3443.25,0.0020
3443.00,0.0020
3442.75,0.0019
3442.50,0.0018
3442.25,0.0016
3442.00,0.0015
3441.75,0.0014
3441.50,0.0014
3441.25,0.0014
3441.00,0.0014
3440.75,0.0015
3440.50,0.0016
3440.25,0.0017
3440.00,0.0017
3439.75,0.0017
3439.50,0.0017
3439.25,0.0017
3439.00,0.0017
3438.75,0.0016
3438.50,0.0016
3438.25,0.0016
3438.00,0.0017
3437.75,0.0017
3437.50,0.0017
3437.25,0.0015
3437.00,0.0014
3436.75,0.0014
3436.50,0.0014
3436.25,0.0014
3436.00,0.0015
3435.75,0.0014
3435.50,0.0014
3435.25,0.0013
3435.00,0.0013
3434.75,0.0014
3434.50,0.0014
3434.25,0.0014
3434.00,0.0014
3433.75,0.0013
3433.50,0.0012
3433.25,0.0011
3433.00,0.0011
3432.75,0.0012
3432.50,0.0012
3432.25,0.0013
3432.00,0.0013
3431.75,0.0013
3431.50,0.0013
3431.25,0.0014
3431.00,0.0015
3430.75,0.0015
3430.50,0.0015
3430.25,0.0014
3430.00,0.0012
3429.75,0.0012
3429.50,0.0012
3429.25,0.0013
3429.00,0.0014
3428.75,0.0015
3428.50,0.0015
3428.25,0.0015
3428.00,0.0014
3427.75,0.0013
3427.50,0.0014
3427.25,0.0014
3427.00,0.0014
3426.75,0.0014
3426.50,0.0014
3426.25,0.0015
3426.00,0.0016
3425.75,0.0018
3425.50,0.0018
3425.25,0.0018
3425.00,0.0018
3424.75,0.0018
3424.50,0.0018
3424.25,0.0018
3424.00,0.0018
3423.75,0.0018
3423.50,0.0017
3423.25,0.0017
3423.00,0.0017
3422.75,0.0017
3422.50,0.0018
3422.25,0.0018
3422.00,0.0017
3421.75,0.0016
3421.50,0.0015
3421.25,0.0015
3421.00,0.0015
3420.75,0.0015
3420.50,0.0015
3420.25,0.0014
3420.00,0.0013
3419.75,0.0012
3419.50,0.0011
3419.25,0.0011
3419.00,0.0012
3418.75,0.0013
3418.50,0.0013
3418.25,0.0013
3418.00,0.0012
3417.75,0.0012
3417.50,0.0013
3417.25,0.0014
3417.00,0.0015
3416.75,0.0016
3416.50,0.0016
3416.25,0.0016
3416.00,0.0016
3415.75,0.0014
3415.50,0.0013
3415.25,0.0012
3415.00,0.0013
3414.75,0.0014
3414.50,0.0015
3414.25,0.0015
3414.00,0.0015
3413.75,0.0015
3413.50,0.0014
3413.25,0.0014
3413.00,0.0013
3412.75,0.0012
3412.50,0.0011
3412.25,0.0010
3412.00,0.0011
3411.75,0.0012
3411.50,0.0013
3411.25,0.0014
3411.00,0.0016
3410.75,0.0016
3410.50,0.0016
3410.25,0.0016
3410.00,0.0016
3409.75,0.0016
3409.50,0.0016
3409.25,0.0016
3409.00,0.0017
3408.75,0.0017
3408.50,0.0017
3408.25,0.0017
3408.00,0.0016
3407.75,0.0015
3407.50,0.0014
3407.25,0.0013
3407.00,0.0012
3406.75,0.0012
3406.50,0.0012
3406.25,0.0012
3406.00,0.0013
3405.75,0.0014
3405.50,0.0015
3405.25,0.0015
3405.00,0.0016
3404.75,0.0016
3404.50,0.0016
3404.25,0.0016
3404.00,0.0017
3403.75,0.0017
3403.50,0.0017
3403.25,0.0018
3403.00,0.0017
3402.75,0.0016
3402.50,0.0014
3402.25,0.0013
3402.00,0.0012
3401.75,0.0013
3401.50,0.0014
3401.25,0.0015
3401.00,0.0016
3400.75,0.0016
3400.50,0.0015
3400.25,0.0014
3400.00,0.0013
3399.75,0.0011
3399.50,0.0011
3399.25,0.0012
3399.00,0.0013
3398.75,0.0015
3398.50,0.0016
3398.25,0.0016
3398.00,0.0016
3397.75,0.0016
3397.50,0.0016
3397.25,0.0016
3397.00,0.0016
3396.75,0.0017
3396.50,0.0017
3396.25,0.0018
3396.00,0.0018
3395.75,0.0017
3395.50,0.0016
3395.25,0.0015
3395.00,0.0015
3394.75,0.0014
3394.50,0.0014
3394.25,0.0013
3394.00,0.0013
3393.75,0.0012
3393.50,0.0013
3393.25,0.0013
3393.00,0.0014
3392.75,0.0015
3392.50,0.0016
3392.25,0.0016
3392.00,0.0015
3391.75,0.0015
3391.50,0.0015
3391.25,0.0015
3391.00,0.0014
3390.75,0.0014
3390.50,0.0014
3390.25,0.0014
3390.00,0.0016
3389.75,0.0017
3389.50,0.0018
3389.25,0.0018
3389.00,0.0018
3388.75,0.0017
3388.50,0.0017
3388.25,0.0017
3388.00,0.0018
3387.75,0.0018
3387.50,0.0018
3387.25,0.0018
3387.00,0.0018
3386.75,0.0018
3386.50,0.0018
3386.25,0.0017
3386.00,0.0016
3385.75,0.0016
3385.50,0.0015
3385.25,0.0015
3385.00,0.0016
3384.75,0.0015
3384.50,0.0014
3384.25,0.0013
3384.00,0.0012
3383.75,0.0011
3383.50,0.0010
3383.25,0.0011
3383.00,0.0012
3382.75,0.0013
3382.50,0.0014
3382.25,0.0014
3382.00,0.0014
3381.75,0.0014
3381.50,0.0014
3381.25,0.0015
3381.00,0.0015
3380.75,0.0015
3380.50,0.0014
3380.25,0.0014
3380.00,0.0013
3379.75,0.0012
3379.50,0.0011
3379.25,0.0010
3379.00,0.0011
3378.75,0.0013
3378.50,0.0016
3378.25,0.0019
3378.00,0.0021
3377.75,0.0021
3377.50,0.0020
3377.25,0.0019
3377.00,0.0018
3376.75,0.0017
3376.50,0.0017
3376.25,0.0016
3376.00,0.0016
3375.75,0.0015
3375.50,0.0013
3375.25,0.0013
3375.00,0.0013
3374.75,0.0013
3374.50,0.0014
3374.25,0.0015
3374.00,0.0015
3373.75,0.0014
3373.50,0.0013
3373.25,0.0012
3373.00,0.0012
3372.75,0.0012
3372.50,0.0013
3372.25,0.0012
3372.00,0.0012
3371.75,0.0012
3371.50,0.0012
3371.25,0.0012
3371.00,0.0012
3370.75,0.0012
3370.50,0.0011
3370.25,0.0011
3370.00,0.0012
3369.75,0.0013
3369.50,0.0013
3369.25,0.0014
3369.00,0.0015
3368.75,0.0015
3368.50,0.0015
3368.25,0.0015
3368.00,0.0015
3367.75,0.0016
3367.50,0.0017
3367.25,0.0018
3367.00,0.0019
3366.75,0.0020
3366.50,0.0019
3366.25,0.0018
3366.00,0.0016
3365.75,0.0015
3365.50,0.0013
3365.25,0.0012
3365.00,0.0011
3364.75,0.0010
3364.50,0.0011
3364.25,0.0012
3364.00,0.0014
3363.75,0.0015
3363.50,0.0016
3363.25,0.0016
3363.00,0.0016
3362.75,0.0017
3362.50,0.0017
3362.25,0.0018
3362.00,0.0018
3361.75,0.0018
3361.50,0.0017
3361.25,0.0016
3361.00,0.0015
3360.75,0.0014
3360.50,0.0014
3360.25,0.0014
3360.00,0.0014
3359.75,0.0014
3359.50,0.0014
3359.25,0.0013
3359.00,0.0013
3358.75,0.0014
3358.50,0.0015
3358.25,0.0017
3358.00,0.0017
3357.75,0.0016
3357.50,0.0015
3357.25,0.0013
3357.00,0.0013
3356.75,0.0015
3356.50,0.0016
3356.25,0.0018
3356.00,0.0019
3355.75,0.0019
3355.50,0.0019
3355.25,0.0017
3355.00,0.0016
3354.75,0.0014
3354.50,0.0014
3354.25,0.0015
3354.00,0.0015
3353.75,0.0015
3353.50,0.0014
3353.25,0.0014
3353.00,0.0013
3352.75,0.0013
3352.50,0.0013
3352.25,0.0013
3352.00,0.0013
3351.75,0.0013
3351.50,0.0013
3351.25,0.0014
3351.00,0.0015
3350.75,0.0015
3350.50,0.0014
3350.25,0.0013
3350.00,0.0012
3349.75,0.0012
3349.50,0.0013
3349.25,0.0015
3349.00,0.0016
3348.75,0.0017
3348.50,0.0017
3348.25,0.0016
3348.00,0.0015
3347.75,0.0015
3347.50,0.0014
3347.25,0.0013
3347.00,0.0012
3346.75,0.0011
3346.50,0.0011
3346.25,0.0012
3346.00,0.0014
3345.75,0.0016
3345.50,0.0017
3345.25,0.0017
3345.00,0.0017
3344.75,0.0016
3344.50,0.0016
3344.25,0.0014
3344.00,0.0013
3343.75,0.0012
3343.50,0.0011
3343.25,0.0012
3343.00,0.0014
3342.75,0.0016
3342.50,0.0017
3342.25,0.0015
3342.00,0.0014
3341.75,0.0012
3341.50,0.0012
3341.25,0.0012
3341.00,0.0013
3340.75,0.0014
3340.50,0.0015
3340.25,0.0015
3340.00,0.0016
3339.75,0.0016
3339.50,0.0016
3339.25,0.0016
3339.00,0.0016
3338.75,0.0015
3338.50,0.0014
3338.25,0.0014
3338.00,0.0014
3337.75,0.0015
3337.50,0.0017
3337.25,0.0018
3337.00,0.0018
3336.75,0.0017
3336.50,0.0016
3336.25,0.0015
3336.00,0.0014
3335.75,0.0014
3335.50,0.0013
3335.25,0.0012
3335.00,0.0011
3334.75,0.0011
3334.50,0.0012
3334.25,0.0013
3334.00,0.0015
3333.75,0.0015
3333.50,0.0015
3333.25,0.0015
3333.00,0.0015
3332.75,0.0015
3332.50,0.0016
3332.25,0.0017
3332.00,0.0017
3331.75,0.0016
3331.50,0.0015
3331.25,0.0014
3331.00,0.0013
3330.75,0.0013
3330.50,0.0014
3330.25,0.0015
3330.00,0.0016
3329.75,0.0017
3329.50,0.0016
3329.25,0.0015
3329.00,0.0014
3328.75,0.0014
3328.50,0.0013
3328.25,0.0013
3328.00,0.0012
3327.75,0.0011
3327.50,0.0011
3327.25,0.0012
3327.00,0.0012
3326.75,0.0013
3326.50,0.0013
3326.25,0.0012
3326.00,0.0011
3325.75,0.0010
3325.50,0.0010
3325.25,0.0010
3325.00,0.0011
3324.75,0.0012
3324.50,0.0013
3324.25,0.0015
3324.00,0.0017
3323.75,0.0018
3323.50,0.0019
3323.25,0.0018
3323.00,0.0017
3322.75,0.0015
3322.50,0.0013
3322.25,0.0011
3322.00,0.0011
3321.75,0.0011
3321.50,0.0012
3321.25,0.0012
3321.00,0.0012
3320.75,0.0012
3320.50,0.0011
3320.25,0.0010
3320.00,0.0010
3319.75,0.0011
3319.50,0.0012
3319.25,0.0013
3319.00,0.0014
3318.75,0.0015
3318.50,0.0016
3318.25,0.0016
3318.00,0.0016
3317.75,0.0016
3317.50,0.0016
3317.25,0.0014
3317.00,0.0013
3316.75,0.0012
3316.50,0.0011
3316.25,0.0011
3316.00,0.0011
3315.75,0.0012
3315.50,0.0013
3315.25,0.0015
3315.00,0.0017
3314.75,0.0018
3314.50,0.0019
3314.25,0.0018
3314.00,0.0017
3313.75,0.0015
3313.50,0.0015
3313.25,0.0014
3313.00,0.0014
3312.75,0.0013
3312.50,0.0012
3312.25,0.0012
3312.00,0.0012
3311.75,0.0012
3311.50,0.0013
3311.25,0.0014
3311.00,0.0014
3310.75,0.0015
3310.50,0.0016
3310.25,0.0017
3310.00,0.0018
3309.75,0.0019
3309.50,0.0018
3309.25,0.0016
3309.00,0.0013
3308.75,0.0011
3308.50,0.0010
3308.25,0.0010
3308.00,0.0012
3307.75,0.0013
3307.50,0.0014
3307.25,0.0015
3307.00,0.0016
3306.75,0.0016
3306.50,0.0015
3306.25,0.0014
3306.00,0.0013
3305.75,0.0012
3305.50,0.0011
3305.25,0.0011
3305.00,0.0012
3304.75,0.0014
3304.50,0.0015
3304.25,0.0017
3304.00,0.0017
3303.75,0.0016
3303.50,0.0015
3303.25,0.0014
3303.00,0.0014
3302.75,0.0014
3302.50,0.0015
3302.25,0.0015
3302.00,0.0015
3301.75,0.0013
3301.50,0.0012
3301.25,0.0011
3301.00,0.0011
3300.75,0.0011
3300.50,0.0012
3300.25,0.0012
3300.00,0.0012
3299.75,0.0012
3299.50,0.0012
3299.25,0.0012
3299.00,0.0013
3298.75,0.0014
3298.50,0.0016
3298.25,0.0016
3298.00,0.0016
3297.75,0.0014
3297.50,0.0013
3297.25,0.0012
3297.00,0.0011
3296.75,0.0011
3296.50,0.0011
3296.25,0.0011
3296.00,0.0012
3295.75,0.0012
3295.50,0.0013
3295.25,0.0013
3295.00,0.0012
3294.75,0.0011
3294.50,0.0011
3294.25,0.0012
3294.00,0.0013
3293.75,0.0015
3293.50,0.0015
3293.25,0.0015
3293.00,0.0014
3292.75,0.0012
3292.50,0.0011
3292.25,0.0009
3292.00,0.0009
3291.75,0.0010
3291.50,0.0012
3291.25,0.0015
3291.00,0.0016
3290.75,0.0017
3290.50,0.0016
3290.25,0.0016
3290.00,0.0015
3289.75,0.0015
3289.50,0.0014
3289.25,0.0013
3289.00,0.0012
3288.75,0.0011
3288.50,0.0011
3288.25,0.0011
3288.00,0.0011
3287.75,0.0010
3287.50,0.0010
3287.25,0.0010
3287.00,0.0011
3286.75,0.0012
3286.50,0.0012
3286.25,0.0012
3286.00,0.0012
3285.75,0.0012
3285.50,0.0013
3285.25,0.0013
3285.00,0.0014
3284.75,0.0015
3284.50,0.0015
3284.25,0.0015
3284.00,0.0014
3283.75,0.0012
3283.50,0.0011
3283.25,0.0010
3283.00,0.0010
3282.75,0.0011
3282.50,0.0013
3282.25,0.0014
3282.00,0.0015
3281.75,0.0015
3281.50,0.0015
3281.25,0.0015
3281.00,0.0015
3280.75,0.0015
3280.50,0.0015
3280.25,0.0014
3280.00,0.0014
3279.75,0.0013
3279.50,0.0013
3279.25,0.0013
3279.00,0.0013
3278.75,0.0014
3278.50,0.0014
3278.25,0.0015
3278.00,0.0015
3277.75,0.0015
3277.50,0.0014
3277.25,0.0013
3277.00,0.0012
3276.75,0.0011
3276.50,0.0011
3276.25,0.0011
3276.00,0.0012
3275.75,0.0012
3275.50,0.0013
3275.25,0.0013
3275.00,0.0013
3274.75,0.0012
3274.50,0.0012
3274.25,0.0011
3274.00,0.0011
3273.75,0.0010
3273.50,0.0009
3273.25,0.0009
3273.00,0.0009
3272.75,0.0011
3272.50,0.0013
3272.25,0.0014
3272.00,0.0016
3271.75,0.0017
3271.50,0.0016
3271.25,0.0016
3271.00,0.0015
3270.75,0.0014
3270.50,0.0014
3270.25,0.0014
3270.00,0.0014
3269.75,0.0015
3269.50,0.0014
3269.25,0.0014
3269.00,0.0014
3268.75,0.0013
3268.50,0.0013
3268.25,0.0013
3268.00,0.0013
3267.75,0.0014
3267.50,0.0015
3267.25,0.0016
3267.00,0.0016
3266.75,0.0016
3266.50,0.0016
3266.25,0.0016
3266.00,0.0016
3265.75,0.0016
3265.50,0.0016
3265.25,0.0016
3265.00,0.0015
3264.75,0.0014
3264.50,0.0014
3264.25,0.0013
3264.00,0.0014
3263.75,0.0014
3263.50,0.0014
3263.25,0.0013
3263.00,0.0013
3262.75,0.0012
3262.50,0.0012
3262.25,0.0012
3262.00,0.0013
3261.75,0.0013
3261.50,0.0014
3261.25,0.0014
3261.00,0.0014
3260.75,0.0014
3260.50,0.0013
3260.25,0.0013
3260.00,0.0013
3259.75,0.0014
3259.50,0.0014
3259.25,0.0014
3259.00,0.0015
3258.75,0.0015
3258.50,0.0016
3258.25,0.0017
3258.00,0.0017
3257.75,0.0018
3257.50,0.0018
3257.25,0.0018
3257.00,0.0018
3256.75,0.0017
3256.50,0.0017
3256.25,0.0016
3256.00,0.0016
3255.75,0.0017
3255.50,0.0017
3255.25,0.0017
3255.00,0.0017
3254.75,0.0017
3254.50,0.0018
3254.25,0.0018
3254.00,0.0018
3253.75,0.0017
3253.50,0.0016
3253.25,0.0015
3253.00,0.0014
3252.75,0.0014
3252.50,0.0014
3252.25,0.0013
3252.00,0.0013
3251.75,0.0013
3251.50,0.0014
3251.25,0.0015
3251.00,0.0015
3250.75,0.0014
3250.50,0.0013
3250.25,0.0011
3250.00,0.0011
3249.75,0.0011
3249.50,0.0012
3249.25,0.0014
3249.00,0.0015
3248.75,0.0017
3248.50,0.0017
3248.25,0.0018
3248.00,0.0017
3247.75,0.0016
3247.50,0.0014
3247.25,0.0013
3247.00,0.0013
3246.75,0.0014
3246.50,0.0014
3246.25,0.0014
3246.00,0.0012
3245.75,0.0010
3245.50,0.0008
3245.25,0.0007
3245.00,0.0008
3244.75,0.0009
3244.50,0.0011
3244.25,0.0012
3244.00,0.0013
3243.75,0.0014
3243.50,0.0014
3243.25,0.0015
3243.00,0.0015
3242.75,0.0014
3242.50,0.0014
3242.25,0.0013
3242.00,0.0013
3241.75,0.0012
3241.50,0.0011
3241.25,0.0012
3241.00,0.0013
3240.75,0.0015
3240.50,0.0017
3240.25,0.0018
3240.00,0.0018
3239.75,0.0016
3239.50,0.0015
3239.25,0.0012
3239.00,0.0011
3238.75,0.0010
3238.50,0.0010
3238.25,0.0011
3238.00,0.0012
3237.75,0.0013
3237.50,0.0013
3237.25,0.0012
3237.00,0.0011
3236.75,0.0010
3236.50,0.0010
3236.25,0.0011
3236.00,0.0012
3235.75,0.0013
3235.50,0.0013
3235.25,0.0014
3235.00,0.0014
3234.75,0.0013
3234.50,0.0013
3234.25,0.0012
3234.00,0.0010
3233.75,0.0009
3233.50,0.0009
3233.25,0.0009
3233.00,0.0010
3232.75,0.0011
3232.50,0.0013
3232.25,0.0013
3232.00,0.0013
3231.75,0.0012
3231.50,0.0010
3231.25,0.0009
3231.00,0.0009
3230.75,0.0009
3230.50,0.0010
3230.25,0.0010
3230.00,0.0011
3229.75,0.0010
3229.50,0.0010
3229.25,0.0011
3229.00,0.0012
3228.75,0.0013
3228.50,0.0014
3228.25,0.0015
3228.00,0.0016
3227.75,0.0016
3227.50,0.0016
3227.25,0.0017
3227.00,0.0017
3226.75,0.0017
3226.50,0.0017
3226.25,0.0016
3226.00,0.0014
3225.75,0.0013
3225.50,0.0012
3225.25,0.0011
3225.00,0.0011
3224.75,0.0010
3224.50,0.0010
3224.25,0.0011
3224.00,0.0011
3223.75,0.0012
3223.50,0.0013
3223.25,0.0013
3223.00,0.0013
3222.75,0.0013
3222.50,0.0013
3222.25,0.0013
3222.00,0.0012
3221.75,0.0011
3221.50,0.0011
3221.25,0.0011
3221.00,0.0011
3220.75,0.0012
3220.50,0.0012
3220.25,0.0013
3220.00,0.0013
3219.75,0.0014
3219.50,0.0013
3219.25,0.0012
3219.00,0.0011
3218.75,0.0010
3218.50,0.0010
3218.25,0.0011
3218.00,0.0012
3217.75,0.0013
3217.50,0.0013
3217.25,0.0012
3217.00,0.0012
3216.75,0.0011
3216.50,0.0011
3216.25,0.0012
3216.00,0.0012
3215.75,0.0013
3215.50,0.0015
3215.25,0.0016
3215.00,0.0017
3214.75,0.0017
3214.50,0.0017
3214.25,0.0017
3214.00,0.0017
3213.75,0.0016
3213.50,0.0015
3213.25,0.0012
3213.00,0.0011
3212.75,0.0010
3212.50,0.0010
3212.25,0.0010
3212.00,0.0011
3211.75,0.0011
3211.50,0.0012
3211.25,0.0012
3211.00,0.0011
3210.75,0.0011
3210.50,0.0011
3210.25,0.0013
3210.00,0.0014
3209.75,0.0015
3209.50,0.0016
3209.25,0.0017
3209.00,0.0018
3208.75,0.0018
3208.50,0.0017
3208.25,0.0014
3208.00,0.0012
3207.75,0.0011
3207.50,0.0011
3207.25,0.0011
3207.00,0.0012
3206.75,0.0012
3206.50,0.0012
3206.25,0.0013
3206.00,0.0013
3205.75,0.0012
3205.50,0.0012
3205.25,0.0011
3205.00,0.0011
3204.75,0.0011
3204.50,0.0012
3204.25,0.0013
3204.00,0.0013
3203.75,0.0013
3203.50,0.0012
3203.25,0.0012
3203.00,0.0013
3202.75,0.0013
3202.50,0.0013
3202.25,0.0012
3202.00,0.0012
3201.75,0.0011
3201.50,0.0012
3201.25,0.0013
3201.00,0.0014
3200.75,0.0016
3200.50,0.0017
3200.25,0.0018
3200.00,0.0017
3199.75,0.0016
3199.50,0.0014
3199.25,0.0012
3199.00,0.0010
3198.75,0.0009
3198.50,0.0009
3198.25,0.0009
3198.00,0.0011
3197.75,0.0012
3197.50,0.0012
3197.25,0.0013
3197.00,0.0013
3196.75,0.0013
3196.50,0.0013
3196.25,0.0014
3196.00,0.0014
3195.75,0.0013
3195.50,0.0013
3195.25,0.0012
3195.00,0.0013
3194.75,0.0013
3194.50,0.0014
3194.25,0.0015
3194.00,0.0016
3193.75,0.0016
3193.50,0.0016
3193.25,0.0016
3193.00,0.0014
3192.75,0.0013
3192.50,0.0013
3192.25,0.0014
3192.00,0.0015
3191.75,0.0016
3191.50,0.0015
3191.25,0.0014
3191.00,0.0013
3190.75,0.0013
3190.50,0.0012
3190.25,0.0011
3190.00,0.0011
3189.75,0.0012
3189.50,0.0013
3189.25,0.0014
3189.00,0.0015
3188.75,0.0015
3188.50,0.0015
3188.25,0.0015
3188.00,0.0015
3187.75,0.0015
3187.50,0.0015
3187.25,0.0015
3187.00,0.0015
3186.75,0.0015
3186.50,0.0015
3186.25,0.0015
3186.00,0.0015
3185.75,0.0014
3185.50,0.0012
3185.25,0.0010
3185.00,0.0008
3184.75,0.0008
3184.50,0.0008
3184.25,0.0010
3184.00,0.0011
3183.75,0.0012
3183.50,0.0012
3183.25,0.0011
3183.00,0.0010
3182.75,0.0010
3182.50,0.0010
3182.25,0.0011
3182.00,0.0012
3181.75,0.0013
3181.50,0.0013
3181.25,0.0013
3181.00,0.0012
3180.75,0.0011
3180.50,0.0011
3180.25,0.0011
3180.00,0.0012
3179.75,0.0013
3179.50,0.0014
3179.25,0.0014
3179.00,0.0014
3178.75,0.0013
3178.50,0.0013
3178.25,0.0014
3178.00,0.0015
3177.75,0.0017
3177.50,0.0018
3177.25,0.0018
3177.00,0.0017
3176.75,0.0017
3176.50,0.0016
3176.25,0.0017
3176.00,0.0017
3175.75,0.0018
3175.50,0.0018
3175.25,0.0018
3175.00,0.0016
3174.75,0.0015
3174.50,0.0013
3174.25,0.0013
3174.00,0.0013
3173.75,0.0014
3173.50,0.0014
3173.25,0.0014
3173.00,0.0014
3172.75,0.0014
3172.50,0.0014
3172.25,0.0015
3172.00,0.0016
3171.75,0.0016
3171.50,0.0015
3171.25,0.0013
3171.00,0.0012
3170.75,0.0012
3170.50,0.0011
3170.25,0.0010
3170.00,0.0009
3169.75,0.0009
3169.50,0.0009
3169.25,0.0011
3169.00,0.0012
3168.75,0.0013
3168.50,0.0013
3168.25,0.0012
3168.00,0.0011
3167.75,0.0010
3167.50,0.0011
3167.25,0.0012
3167.00,0.0013
3166.75,0.0014
3166.50,0.0013
3166.25,0.0013
3166.00,0.0012
3165.75,0.0012
3165.50,0.0012
3165.25,0.0012
3165.00,0.0013
3164.75,0.0013
3164.50,0.0013
3164.25,0.0012
3164.00,0.0011
3163.75,0.0010
3163.50,0.0010
3163.25,0.0011
3163.00,0.0011
3162.75,0.0011
3162.50,0.0011
3162.25,0.0010
3162.00,0.0010
3161.75,0.0009
3161.50,0.0009
3161.25,0.0009
3161.00,0.0009
3160.75,0.0011
3160.50,0.0012
3160.25,0.0013
3160.00,0.0014
3159.75,0.0013
3159.50,0.0012
3159.25,0.0012
3159.00,0.0012
3158.75,0.0012
3158.50,0.0012
3158.25,0.0013
3158.00,0.0013
3157.75,0.0014
3157.50,0.0014
3157.25,0.0014
3157.00,0.0014
3156.75,0.0014
3156.50,0.0014
3156.25,0.0014
3156.00,0.0014
3155.75,0.0014
3155.50,0.0015
3155.25,0.0017
3155.00,0.0019
3154.75,0.0020
3154.50,0.0020
3154.25,0.0018
3154.00,0.0015
3153.75,0.0013
3153.50,0.0010
3153.25,0.0010
3153.00,0.0010
3152.75,0.0012
3152.50,0.0013
3152.25,0.0014
3152.00,0.0015
3151.75,0.0015
3151.50,0.0015
3151.25,0.0014
3151.00,0.0013
3150.75,0.0013
3150.50,0.0013
3150.25,0.0013
3150.00,0.0014
3149.75,0.0015
3149.50,0.0016
3149.25,0.0016
3149.00,0.0015
3148.75,0.0013
3148.50,0.0013
3148.25,0.0013
3148.00,0.0014
3147.75,0.0015
3147.50,0.0016
3147.25,0.0016
3147.00,0.0016
3146.75,0.0016
3146.50,0.0016
3146.25,0.0017
3146.00,0.0016
3145.75,0.0015
3145.50,0.0015
3145.25,0.0014
3145.00,0.0014
3144.75,0.0015
3144.50,0.0015
3144.25,0.0015
3144.00,0.0015
3143.75,0.0016
3143.50,0.0016
3143.25,0.0015
3143.00,0.0015
3142.75,0.0014
3142.50,0.0013
3142.25,0.0013
3142.00,0.0014
3141.75,0.0015
3141.50,0.0016
3141.25,0.0017
3141.00,0.0017
3140.75,0.0017
3140.50,0.0016
3140.25,0.0015
3140.00,0.0014
3139.75,0.0013
3139.50,0.0013
3139.25,0.0014
3139.00,0.0015
3138.75,0.0015
3138.50,0.0015
3138.25,0.0013
3138.00,0.0012
3137.75,0.0011
3137.50,0.0010
3137.25,0.0010
3137.00,0.0010
3136.75,0.0011
3136.50,0.0012
3136.25,0.0013
3136.00,0.0013
3135.75,0.0013
3135.50,0.0012
3135.25,0.0012
3135.00,0.0012
3134.75,0.0013
3134.50,0.0013
3134.25,0.0014
3134.00,0.0015
3133.75,0.0015
3133.50,0.0014
3133.25,0.0014
3133.00,0.0014
3132.75,0.0015
3132.50,0.0016
3132.25,0.0016
3132.00,0.0015
3131.75,0.0014
3131.50,0.0013
3131.25,0.0012
3131.00,0.0013
3130.75,0.0014
3130.50,0.0015
3130.25,0.0015
3130.00,0.0016
3129.75,0.0016
3129.50,0.0017
3129.25,0.0017
3129.00,0.0016
3128.75,0.0014
3128.50,0.0013
3128.25,0.0011
3128.00,0.0011
3127.75,0.0012
3127.50,0.0013
3127.25,0.0015
3127.00,0.0015
3126.75,0.0016
3126.50,0.0017
3126.25,0.0017
3126.00,0.0017
3125.75,0.0016
3125.50,0.0016
3125.25,0.0015
3125.00,0.0015
3124.75,0.0015
3124.50,0.0015
3124.25,0.0015
3124.00,0.0016
3123.75,0.0017
3123.50,0.0018
3123.25,0.0019
3123.00,0.0019
3122.75,0.0019
3122.50,0.0018
3122.25,0.0017
3122.00,0.0016
3121.75,0.0016
3121.50,0.0016
3121.25,0.0017
3121.00,0.0017
3120.75,0.0016
3120.50,0.0016
3120.25,0.0015
3120.00,0.0014
3119.75,0.0013
3119.50,0.0012
3119.25,0.0012
3119.00,0.0012
3118.75,0.0013
3118.50,0.0014
3118.25,0.0014
3118.00,0.0014
3117.75,0.0013
3117.50,0.0013
3117.25,0.0013
3117.00,0.0013
3116.75,0.0014
3116.50,0.0015
3116.25,0.0015
3116.00,0.0015
3115.75,0.0015
3115.50,0.0014
3115.25,0.0014
3115.00,0.0013
3114.75,0.0013
3114.50,0.0014
3114.25,0.0014
3114.00,0.0014
3113.75,0.0014
3113.50,0.0014
3113.25,0.0014
3113.00,0.0014
3112.75,0.0014
3112.50,0.0013
3112.25,0.0013
3112.00,0.0013
3111.75,0.0013
3111.50,0.0013
3111.25,0.0013
3111.00,0.0013
3110.75,0.0013
3110.50,0.0014
3110.25,0.0015
3110.00,0.0016
3109.75,0.0017
3109.50,0.0016
3109.25,0.0015
3109.00,0.0013
3108.75,0.0012
3108.50,0.0012
3108.25,0.0012
3108.00,0.0012
3107.75,0.0013
3107.50,0.0013
3107.25,0.0014
3107.00,0.0015
3106.75,0.0015
3106.50,0.0015
3106.25,0.0014
3106.00,0.0014
3105.75,0.0014
3105.50,0.0013
3105.25,0.0012
3105.00,0.0010
3104.75,0.0009
3104.50,0.0009
3104.25,0.0009
3104.00,0.0010
3103.75,0.0010
3103.50,0.0011
3103.25,0.0012
3103.00,0.0012
3102.75,0.0012
3102.50,0.0012
3102.25,0.0013
3102.00,0.0013
3101.75,0.0013
3101.50,0.0014
3101.25,0.0014
3101.00,0.0015
3100.75,0.0016
3100.50,0.0017
3100.25,0.0018
3100.00,0.0019
3099.75,0.0018
3099.50,0.0018
3099.25,0.0016
3099.00,0.0014
3098.75,0.0012
3098.50,0.0011
3098.25,0.0010
3098.00,0.0010
3097.75,0.0010
3097.50,0.0010
3097.25,0.0012
3097.00,0.0012
3096.75,0.0013
3096.50,0.0013
3096.25,0.0013
3096.00,0.0013
3095.75,0.0013
3095.50,0.0013
3095.25,0.0012
3095.00,0.0012
3094.75,0.0011
3094.50,0.0011
3094.25,0.0010
3094.00,0.0010
3093.75,0.0011
3093.50,0.0012
3093.25,0.0013
3093.00,0.0014
3092.75,0.0014
3092.50,0.0014
3092.25,0.0013
3092.00,0.0012
3091.75,0.0012
3091.50,0.0011
3091.25,0.0011
3091.00,0.0010
3090.75,0.0009
3090.50,0.0008
3090.25,0.0007
3090.00,0.0006
3089.75,0.0006
3089.50,0.0006
3089.25,0.0007
3089.00,0.0008
3088.75,0.0010
3088.50,0.0011
3088.25,0.0013
3088.00,0.0014
3087.75,0.0014
3087.50,0.0013
3087.25,0.0012
3087.00,0.0011
3086.75,0.0011
3086.50,0.0012
3086.25,0.0012
3086.00,0.0012
3085.75,0.0012
3085.50,0.0010
3085.25,0.0009
3085.00,0.0008
3084.75,0.0008
3084.50,0.0008
3084.25,0.0009
3084.00,0.0008
3083.75,0.0007
3083.50,0.0006
3083.25,0.0006
3083.00,0.0006
3082.75,0.0008
3082.50,0.0010
3082.25,0.0012
3082.00,0.0013
3081.75,0.0013
3081.50,0.0012
3081.25,0.0011
3081.00,0.0010
3080.75,0.0010
3080.50,0.0009
3080.25,0.0009
3080.00,0.0009
3079.75,0.0009
3079.50,0.0010
3079.25,0.0012
3079.00,0.0013
3078.75,0.0013
3078.50,0.0012
3078.25,0.0011
3078.00,0.0011
3077.75,0.0011
3077.50,0.0011
3077.25,0.0012
3077.00,0.0013
3076.75,0.0012
3076.50,0.0011
3076.25,0.0011
3076.00,0.0010
3075.75,0.0009
3075.50,0.0009
3075.25,0.0009
3075.00,0.0009
3074.75,0.0009
3074.50,0.0009
3074.25,0.0008
3074.00,0.0008
3073.75,0.0008
3073.50,0.0008
3073.25,0.0008
3073.00,0.0008
3072.75,0.0009
3072.50,0.0009
3072.25,0.0009
3072.00,0.0009
3071.75,0.0008
3071.50,0.0008
3071.25,0.0008
3071.00,0.0009
3070.75,0.0010
3070.50,0.0012
3070.25,0.0014
3070.00,0.0014
3069.75,0.0013
3069.50,0.0012
3069.25,0.0011
3069.00,0.0010
3068.75,0.0009
3068.50,0.0009
3068.25,0.0010
3068.00,0.0010
3067.75,0.0010
3067.50,0.0010
3067.25,0.0010
3067.00,0.0009
3066.75,0.0009
3066.50,0.0009
3066.25,0.0009
3066.00,0.0010
3065.75,0.0011
3065.50,0.0012
3065.25,0.0013
3065.00,0.0013
3064.75,0.0011
3064.50,0.0010
3064.25,0.0010
3064.00,0.0011
3063.75,0.0012
3063.50,0.0014
3063.25,0.0014
3063.00,0.0013
3062.75,0.0013
3062.50,0.0012
3062.25,0.0011
3062.00,0.0011
3061.75,0.0011
3061.50,0.0011
3061.25,0.0011
3061.00,0.0012
3060.75,0.0013
3060.50,0.0013
3060.25,0.0013
3060.00,0.0013
3059.75,0.0013
3059.50,0.0013
3059.25,0.0014
3059.00,0.0014
3058.75,0.0015
3058.50,0.0015
3058.25,0.0015
3058.00,0.0015
3057.75,0.0015
3057.50,0.0016
3057.25,0.0016
3057.00,0.0016
3056.75,0.0015
3056.50,0.0013
3056.25,0.0011
3056.00,0.0010
3055.75,0.0011
3055.50,0.0012
3055.25,0.0013
3055.00,0.0015
3054.75,0.0015
3054.50,0.0015
3054.25,0.0014
3054.00,0.0014
3053.75,0.0014
3053.50,0.0014
3053.25,0.0013
3053.00,0.0012
3052.75,0.0011
3052.50,0.0011
3052.25,0.0011
3052.00,0.0013
3051.75,0.0014
3051.50,0.0015
3051.25,0.0016
3051.00,0.0015
3050.75,0.0014
3050.50,0.0012
3050.25,0.0010
3050.00,0.0010
3049.75,0.0010
3049.50,0.0011
3049.25,0.0011
3049.00,0.0011
3048.75,0.0010
3048.50,0.0008
3048.25,0.0008
3048.00,0.0007
3047.75,0.0007
3047.50,0.0007
3047.25,0.0008
3047.00,0.0008
3046.75,0.0008
3046.50,0.0008
3046.25,0.0008
3046.00,0.0008
3045.75,0.0008
3045.50,0.0007
3045.25,0.0006
3045.00,0.0006
3044.75,0.0006
3044.50,0.0006
3044.25,0.0006
3044.00,0.0005
3043.75,0.0004
3043.50,0.0004
3043.25,0.0003
3043.00,0.0002
3042.75,0.0002
3042.50,0.0002
3042.25,0.0003
3042.00,0.0004
3041.75,0.0006
3041.50,0.0008
3041.25,0.0009
3041.00,0.0009
3040.75,0.0009
3040.50,0.0007
3040.25,0.0005
3040.00,0.0004
3039.75,0.0003
3039.50,0.0002
3039.25,0.0002
3039.00,0.0001
3038.75,0.0001
3038.50,0.0002
3038.25,0.0004
3038.00,0.0005
3037.75,0.0007
3037.50,0.0008
3037.25,0.0008
3037.00,0.0008
3036.75,0.0007
3036.50,0.0007
3036.25,0.0007
3036.00,0.0007
3035.75,0.0008
3035.50,0.0008
3035.25,0.0008
3035.00,0.0008
3034.75,0.0006
3034.50,0.0005
3034.25,0.0003
3034.00,0.0003
3033.75,0.0003
3033.50,0.0004
3033.25,0.0005
3033.00,0.0005
3032.75,0.0005
3032.50,0.0005
3032.25,0.0005
3032.00,0.0006
3031.75,0.0007
3031.50,0.0007
3031.25,0.0008
3031.00,0.0008
3030.75,0.0008
3030.50,0.0008
3030.25,0.0008
3030.00,0.0008
3029.75,0.0007
3029.50,0.0007
3029.25,0.0006
3029.00,0.0005
3028.75,0.0004
3028.50,0.0004
3028.25,0.0005
3028.00,0.0007
3027.75,0.0009
3027.50,0.0012
3027.25,0.0014
3027.00,0.0015
3026.75,0.0014
3026.50,0.0013
3026.25,0.0011
3026.00,0.0009
3025.75,0.0009
3025.50,0.0009
3025.25,0.0009
3025.00,0.0009
3024.75,0.0009
3024.50,0.0010
3024.25,0.0011
3024.00,0.0012
3023.75,0.0013
3023.50,0.0013
3023.25,0.0012
3023.00,0.0012
3022.75,0.0012
3022.50,0.0011
3022.25,0.0010
3022.00,0.0010
3021.75,0.0010
3021.50,0.0011
3021.25,0.0012
3021.00,0.0014
3020.75,0.0015
3020.50,0.0016
3020.25,0.0017
3020.00,0.0017
3019.75,0.0017
3019.50,0.0016
3019.25,0.0015
3019.00,0.0014
3018.75,0.0014
3018.50,0.0014
3018.25,0.0015
3018.00,0.0016
3017.75,0.0016
3017.50,0.0016
3017.25,0.0016
3017.00,0.0017
3016.75,0.0017
3016.50,0.0017
3016.25,0.0016
3016.00,0.0015
3015.75,0.0014
3015.50,0.0014
3015.25,0.0015
3015.00,0.0016
3014.75,0.0017
3014.50,0.0018
3014.25,0.0018
3014.00,0.0018
3013.75,0.0017
3013.50,0.0017
3013.25,0.0016
3013.00,0.0015
3012.75,0.0015
3012.50,0.0014
3012.25,0.0014
3012.00,0.0015
3011.75,0.0015
3011.50,0.0015
3011.25,0.0016
3011.00,0.0016
3010.75,0.0017
3010.50,0.0017
3010.25,0.0016
3010.00,0.0016
3009.75,0.0016
3009.50,0.0016
3009.25,0.0017
3009.00,0.0019
3008.75,0.0019
3008.50,0.0019
3008.25,0.0019
3008.00,0.0018
3007.75,0.0019
3007.50,0.0019
3007.25,0.0020
3007.00,0.0020
3006.75,0.0020
3006.50,0.0020
3006.25,0.0021
3006.00,0.0022
3005.75,0.0022
3005.50,0.0022
3005.25,0.0020
3005.00,0.0018
3004.75,0.0017
3004.50,0.0016
3004.25,0.0017
3004.00,0.0017
3003.75,0.0018
3003.50,0.0018
3003.25,0.0018
3003.00,0.0019
3002.75,0.0019
3002.50,0.0020
3002.25,0.0022
3002.00,0.0023
3001.75,0.0024
3001.50,0.0024
3001.25,0.0024
3001.00,0.0023
3000.75,0.0021
3000.50,0.0019
3000.25,0.0018
3000.00,0.0017
2999.75,0.0017
2999.50,0.0017
2999.25,0.0017
2999.00,0.0018
2998.75,0.0018
2998.50,0.0020
2998.25,0.0021
2998.00,0.0022
2997.75,0.0022
2997.50,0.0022
2997.25,0.0022
2997.00,0.0022
2996.75,0.0023
2996.50,0.0024
2996.25,0.0025
2996.00,0.0026
2995.75,0.0027
2995.50,0.0028
2995.25,0.0028
2995.00,0.0028
2994.75,0.0027
2994.50,0.0026
2994.25,0.0026
2994.00,0.0025
2993.75,0.0025
2993.50,0.0025
2993.25,0.0024
2993.00,0.0025
2992.75,0.0026
2992.50,0.0028
2992.25,0.0029
2992.00,0.0030
2991.75,0.0031
2991.50,0.0032
2991.25,0.0032
2991.00,0.0031
2990.75,0.0030
2990.50,0.0029
2990.25,0.0028
2990.00,0.0028
2989.75,0.0029
2989.50,0.0030
2989.25,0.0032
2989.00,0.0033
2988.75,0.0034
2988.50,0.0035
2988.25,0.0035
2988.00,0.0035
2987.75,0.0035
2987.50,0.0034
2987.25,0.0034
2987.00,0.0034
2986.75,0.0035
2986.50,0.0035
2986.25,0.0036
2986.00,0.0036
2985.75,0.0036
2985.50,0.0037
2985.25,0.0038
2985.00,0.0040
2984.75,0.0041
2984.50,0.0043
2984.25,0.0044
2984.00,0.0044
2983.75,0.0044
2983.50,0.0045
2983.25,0.0046
2983.00,0.0048
2982.75,0.0050
2982.50,0.0051
2982.25,0.0051
2982.00,0.0052
2981.75,0.0053
2981.50,0.0054
2981.25,0.0055
2981.00,0.0056
2980.75,0.0056
2980.50,0.0056
2980.25,0.0057
2980.00,0.0058
2979.75,0.0061
2979.50,0.0065
2979.25,0.0068
2979.00,0.0071
2978.75,0.0074
2978.50,0.0075
2978.25,0.0076
2978.00,0.0076
2977.75,0.0076
2977.50,0.0076
2977.25,0.0077
2977.00,0.0079
2976.75,0.0082
2976.50,0.0085
2976.25,0.0089
2976.00,0.0093
2975.75,0.0096
2975.50,0.0099
2975.25,0.0102
2975.00,0.0105
2974.75,0.0109
2974.50,0.0113
2974.25,0.0116
2974.00,0.0120
2973.75,0.0123
2973.50,0.0125
2973.25,0.0128
2973.00,0.0130
2972.75,0.0133
2972.50,0.0136
2972.25,0.0140
2972.00,0.0145
2971.75,0.0151
2971.50,0.0156
2971.25,0.0160
2971.00,0.0165
2970.75,0.0170
2970.50,0.0175
2970.25,0.0180
2970.00,0.0185
2969.75,0.0190
2969.50,0.0193
2969.25,0.0197
2969.00,0.0202
2968.75,0.0207
2968.50,0.0212
2968.25,0.0217
2968.00,0.0222
2967.75,0.0228
2967.50,0.0234
2967.25,0.0241
2967.00,0.0248
2966.75,0.0254
2966.50,0.0259
2966.25,0.0264
2966.00,0.0268
2965.75,0.0274
2965.50,0.0279
2965.25,0.0284
2965.00,0.0289
2964.75,0.0294
2964.50,0.0300
2964.25,0.0305
2964.00,0.0310
2963.75,0.0313
2963.50,0.0314
2963.25,0.0315
2963.00,0.0316
2962.75,0.0316
2962.50,0.0316
2962.25,0.0317
2962.00,0.0317
2961.75,0.0318
2961.50,0.0318
2961.25,0.0317
2961.00,0.0315
2960.75,0.0312
2960.50,0.0308
2960.25,0.0304
2960.00,0.0300
2959.75,0.0296
2959.50,0.0292
2959.25,0.0288
2959.00,0.0284
2958.75,0.0279
2958.50,0.0274
2958.25,0.0268
2958.00,0.0261
2957.75,0.0255
2957.50,0.0249
2957.25,0.0243
2957.00,0.0237
2956.75,0.0230
2956.50,0.0224
2956.25,0.0218
2956.00,0.0212
2955.75,0.0206
2955.50,0.0201
2955.25,0.0195
2955.00,0.0189
2954.75,0.0183
2954.50,0.0178
2954.25,0.0172
2954.00,0.0167
2953.75,0.0163
2953.50,0.0158
2953.25,0.0154
2953.00,0.0149
2952.75,0.0144
2952.50,0.0139
2952.25,0.0134
2952.00,0.0130
2951.75,0.0128
2951.50,0.0125
2951.25,0.0122
2951.00,0.0120
2950.75,0.0117
2950.50,0.0114
2950.25,0.0111
2950.00,0.0107
2949.75,0.0102
2949.50,0.0098
2949.25,0.0095
2949.00,0.0092
2948.75,0.0089
2948.50,0.0086
2948.25,0.0083
2948.00,0.0081
2947.75,0.0081
2947.50,0.0080
2947.25,0.0080
2947.00,0.0080
2946.75,0.0079
2946.50,0.0077
2946.25,0.0076
2946.00,0.0074
2945.75,0.0072
2945.50,0.0070
2945.25,0.0067
2945.00,0.0065
2944.75,0.0063
2944.50,0.0060
2944.25,0.0058
2944.00,0.0056
2943.75,0.0055
2943.50,0.0054
2943.25,0.0053
2943.00,0.0053
2942.75,0.0053
2942.50,0.0054
2942.25,0.0054
2942.00,0.0054
2941.75,0.0054
2941.50,0.0053
2941.25,0.0052
2941.00,0.0051
2940.75,0.0050
2940.50,0.0050
2940.25,0.0049
2940.00,0.0048
2939.75,0.0048
2939.50,0.0047
2939.25,0.0046
2939.00,0.0045
2938.75,0.0044
2938.50,0.0043
2938.25,0.0042
2938.00,0.0042
2937.75,0.0042
2937.50,0.0042
2937.25,0.0042
2937.00,0.0041
2936.75,0.0040
2936.50,0.0039
2936.25,0.0039
2936.00,0.0038
2935.75,0.0038
2935.50,0.0038
2935.25,0.0038
2935.00,0.0038
2934.75,0.0038
2934.50,0.0038
2934.25,0.0038
2934.00,0.0038
2933.75,0.0038
2933.50,0.0038
2933.25,0.0039
2933.00,0.0039
2932.75,0.0039
2932.50,0.0039
2932.25,0.0037
2932.00,0.0036
2931.75,0.0034
2931.50,0.0033
2931.25,0.0033
2931.00,0.0032
2930.75,0.0031
2930.50,0.0031
2930.25,0.0032
2930.00,0.0033
2929.75,0.0035
2929.50,0.0036
2929.25,0.0038
2929.00,0.0038
2928.75,0.0038
2928.50,0.0036
2928.25,0.0035
2928.00,0.0035
2927.75,0.0035
2927.50,0.0035
2927.25,0.0036
2927.00,0.0035
2926.75,0.0035
2926.50,0.0034
2926.25,0.0034
2926.00,0.0034
2925.75,0.0034
2925.50,0.0035
2925.25,0.0035
2925.00,0.0036
2924.75,0.0036
2924.50,0.0037
2924.25,0.0037
2924.00,0.0038
2923.75,0.0038
2923.50,0.0039
2923.25,0.0039
2923.00,0.0040
2922.75,0.0040
2922.50,0.0040
2922.25,0.0040
2922.00,0.0041
2921.75,0.0041
2921.50,0.0042
2921.25,0.0043
2921.00,0.0044
2920.75,0.0045
2920.50,0.0045
2920.25,0.0046
2920.00,0.0045
2919.75,0.0044
2919.50,0.0044
2919.25,0.0045
2919.00,0.0046
2918.75,0.0047
2918.50,0.0048
2918.25,0.0049
2918.00,0.0049
2917.75,0.0050
2917.50,0.0051
2917.25,0.0051
2917.00,0.0052
2916.75,0.0053
2916.50,0.0053
2916.25,0.0052
2916.00,0.0050
2915.75,0.0048
2915.50,0.0047
2915.25,0.0046
2915.00,0.0047
2914.75,0.0048
2914.50,0.0049
2914.25,0.0050
2914.00,0.0050
2913.75,0.0050
2913.50,0.0050
2913.25,0.0050
2913.00,0.0050
2912.75,0.0050
2912.50,0.0050
2912.25,0.0051
2912.00,0.0051
2911.75,0.0052
2911.50,0.0053
2911.25,0.0053
2911.00,0.0052
2910.75,0.0050
2910.50,0.0049
2910.25,0.0049
2910.00,0.0050
2909.75,0.0051
2909.50,0.0052
2909.25,0.0053
2909.00,0.0053
2908.75,0.0053
2908.50,0.0052
2908.25,0.0052
2908.00,0.0052
2907.75,0.0053
2907.50,0.0054
2907.25,0.0055
2907.00,0.0057
2906.75,0.0058
2906.50,0.0059
2906.25,0.0060
2906.00,0.0061
2905.75,0.0062
2905.50,0.0062
2905.25,0.0062
2905.00,0.0060
2904.75,0.0059
2904.50,0.0057
2904.25,0.0056
2904.00,0.0055
2903.75,0.0055
2903.50,0.0056
2903.25,0.0057
2903.00,0.0058
2902.75,0.0058
2902.50,0.0058
2902.25,0.0058
2902.00,0.0058
2901.75,0.0057
2901.50,0.0057
2901.25,0.0056
2901.00,0.0055
2900.75,0.0055
2900.50,0.0055
2900.25,0.0055
2900.00,0.0055
2899.75,0.0055
2899.50,0.0054
2899.25,0.0052
2899.00,0.0050
2898.75,0.0048
2898.50,0.0047
2898.25,0.0047
2898.00,0.0047
2897.75,0.0048
2897.50,0.0048
2897.25,0.0048
2897.00,0.0047
2896.75,0.0045
2896.50,0.0044
2896.25,0.0042
2896.00,0.0041
2895.75,0.0041
2895.50,0.0041
2895.25,0.0041
2895.00,0.0040
2894.75,0.0039
2894.50,0.0038
2894.25,0.0037
2894.00,0.0037
2893.75,0.0036
2893.50,0.0035
2893.25,0.0034
2893.00,0.0034
2892.75,0.0034
2892.50,0.0035
2892.25,0.0035
2892.00,0.0034
2891.75,0.0034
2891.50,0.0033
2891.25,0.0033
2891.00,0.0032
2890.75,0.0031
2890.50,0.0029
2890.25,0.0028
2890.00,0.0026
2889.75,0.0026
2889.50,0.0025
2889.25,0.0025
2889.00,0.0026
2888.75,0.0026
2888.50,0.0027
2888.25,0.0028
2888.00,0.0028
2887.75,0.0028
2887.50,0.0029
2887.25,0.0029
2887.00,0.0028
2886.75,0.0026
2886.50,0.0024
2886.25,0.0023
2886.00,0.0022
2885.75,0.0022
2885.50,0.0022
2885.25,0.0022
2885.00,0.0023
2884.75,0.0023
2884.50,0.0023
2884.25,0.0023
2884.00,0.0023
2883.75,0.0022
2883.50,0.0022
2883.25,0.0022
2883.00,0.0021
2882.75,0.0022
2882.50,0.0022
2882.25,0.0024
2882.00,0.0025
2881.75,0.0026
2881.50,0.0025
2881.25,0.0024
2881.00,0.0024
2880.75,0.0023
2880.50,0.0024
2880.25,0.0024
2880.00,0.0025
2879.75,0.0025
2879.50,0.0024
2879.25,0.0023
2879.00,0.0023
2878.75,0.0022
2878.50,0.0022
2878.25,0.0022
2878.00,0.0022
2877.75,0.0022
2877.50,0.0022
2877.25,0.0021
2877.00,0.0020
2876.75,0.0020
2876.50,0.0020
2876.25,0.0021
2876.00,0.0022
2875.75,0.0022
2875.50,0.0022
2875.25,0.0022
2875.00,0.0023
2874.75,0.0024
2874.50,0.0024
2874.25,0.0023
2874.00,0.0022
2873.75,0.0020
2873.50,0.0018
2873.25,0.0017
2873.00,0.0017
2872.75,0.0018
2872.50,0.0019
2872.25,0.0019
2872.00,0.0020
2871.75,0.0020
2871.50,0.0020
2871.25,0.0019
2871.00,0.0019
2870.75,0.0019
2870.50,0.0019
2870.25,0.0020
2870.00,0.0020
2869.75,0.0019
2869.50,0.0018
2869.25,0.0018
2869.00,0.0019
2868.75,0.0020
2868.50,0.0021
2868.25,0.0022
2868.00,0.0022
2867.75,0.0022
2867.50,0.0022
2867.25,0.0021
2867.00,0.0020
2866.75,0.0018
2866.50,0.0017
2866.25,0.0016
2866.00,0.0016
2865.75,0.0017
2865.50,0.0019
2865.25,0.0020
2865.00,0.0020
2864.75,0.0019
2864.50,0.0019
2864.25,0.0018
2864.00,0.0018
2863.75,0.0019
2863.50,0.0020
2863.25,0.0021
2863.00,0.0022
2862.75,0.0022
2862.50,0.0021
2862.25,0.0020
2862.00,0.0020
2861.75,0.0020
2861.50,0.0021
2861.25,0.0022
2861.00,0.0022
2860.75,0.0021
2860.50,0.0020
2860.25,0.0019
2860.00,0.0018
2859.75,0.0018
2859.50,0.0018
2859.25,0.0018
2859.00,0.0018
2858.75,0.0017
2858.50,0.0016
2858.25,0.0016
2858.00,0.0017
2857.75,0.0020
2857.50,0.0022
2857.25,0.0024
2857.00,0.0025
2856.75,0.0024
2856.50,0.0023
2856.25,0.0021
2856.00,0.0020
2855.75,0.0020
2855.50,0.0019
2855.25,0.0019
2855.00,0.0019
2854.75,0.0019
2854.50,0.0020
2854.25,0.0021
2854.00,0.0022
2853.75,0.0023
2853.50,0.0023
2853.25,0.0023
2853.00,0.0023
2852.75,0.0023
2852.50,0.0023
2852.25,0.0023
2852.00,0.0022
2851.75,0.0022
2851.50,0.0023
2851.25,0.0024
2851.00,0.0026
2850.75,0.0028
2850.50,0.0030
2850.25,0.0031
2850.00,0.0032
2849.75,0.0031
2849.50,0.0031
2849.25,0.0030
2849.00,0.0029
2848.75,0.0028
2848.50,0.0028
2848.25,0.0027
2848.00,0.0026
2847.75,0.0026
2847.50,0.0026
2847.25,0.0026
2847.00,0.0027
2846.75,0.0028
2846.50,0.0028
2846.25,0.0027
2846.00,0.0026
2845.75,0.0024
2845.50,0.0022
2845.25,0.0021
2845.00,0.0020
2844.75,0.0019
2844.50,0.0019
2844.25,0.0020
2844.00,0.0021
2843.75,0.0022
2843.50,0.0022
2843.25,0.0022
2843.00,0.0023
2842.75,0.0022
2842.50,0.0022
2842.25,0.0021
2842.00,0.0020
2841.75,0.0018
2841.50,0.0017
2841.25,0.0016
2841.00,0.0016
2840.75,0.0017
2840.50,0.0017
2840.25,0.0018
2840.00,0.0018
2839.75,0.0018
2839.50,0.0018
2839.25,0.0018
2839.00,0.0018
2838.75,0.0018
2838.50,0.0018
2838.25,0.0019
2838.00,0.0020
2837.75,0.0022
2837.50,0.0023
2837.25,0.0023
2837.00,0.0022
2836.75,0.0020
2836.50,0.0017
2836.25,0.0015
2836.00,0.0014
2835.75,0.0014
2835.50,0.0015
2835.25,0.0016
2835.00,0.0016
2834.75,0.0016
2834.50,0.0016
2834.25,0.0015
2834.00,0.0015
2833.75,0.0016
2833.50,0.0016
2833.25,0.0017
2833.00,0.0017
2832.75,0.0017
2832.50,0.0017
2832.25,0.0018
2832.00,0.0019
2831.75,0.0020
2831.50,0.0020
2831.25,0.0020
2831.00,0.0020
2830.75,0.0019
2830.50,0.0018
2830.25,0.0018
2830.00,0.0017
2829.75,0.0017
2829.50,0.0017
2829.25,0.0018
2829.00,0.0018
2828.75,0.0019
2828.50,0.0018
2828.25,0.0018
2828.00,0.0016
2827.75,0.0015
2827.50,0.0014
2827.25,0.0013
2827.00,0.0014
2826.75,0.0014
2826.50,0.0014
2826.25,0.0015
2826.00,0.0015
2825.75,0.0016
2825.50,0.0016
2825.25,0.0017
2825.00,0.0017
2824.75,0.0017
2824.50,0.0017
2824.25,0.0017
2824.00,0.0017
2823.75,0.0017
2823.50,0.0016
2823.25,0.0015
2823.00,0.0015
2822.75,0.0014
2822.50,0.0014
2822.25,0.0014
2822.00,0.0015
2821.75,0.0017
2821.50,0.0018
2821.25,0.0019
2821.00,0.0019
2820.75,0.0019
2820.50,0.0019
2820.25,0.0018
2820.00,0.0018
2819.75,0.0018
2819.50,0.0017
2819.25,0.0017
2819.00,0.0017
2818.75,0.0017
2818.50,0.0017
2818.25,0.0016
2818.00,0.0015
2817.75,0.0014
2817.50,0.0013
2817.25,0.0012
2817.00,0.0012
2816.75,0.0012
2816.50,0.0014
2816.25,0.0016
2816.00,0.0017
2815.75,0.0018
2815.50,0.0017
2815.25,0.0017
2815.00,0.0017
2814.75,0.0017
2814.50,0.0017
2814.25,0.0017
2814.00,0.0017
2813.75,0.0017
2813.50,0.0018
2813.25,0.0017
2813.00,0.0017
2812.75,0.0016
2812.50,0.0015
2812.25,0.0015
2812.00,0.0016
2811.75,0.0016
2811.50,0.0017
2811.25,0.0017
2811.00,0.0016
2810.75,0.0016
2810.50,0.0016
2810.25,0.0018
2810.00,0.0020
2809.75,0.0021
2809.50,0.0021
2809.25,0.0021
2809.00,0.0019
2808.75,0.0017
2808.50,0.0015
2808.25,0.0014
2808.00,0.0014
2807.75,0.0015
2807.50,0.0015
2807.25,0.0015
2807.00,0.0015
2806.75,0.0015
2806.50,0.0015
2806.25,0.0015
2806.00,0.0016
2805.75,0.0017
2805.50,0.0017
2805.25,0.0017
2805.00,0.0017
2804.75,0.0017
2804.50,0.0017
2804.25,0.0016
2804.00,0.0015
2803.75,0.0015
2803.50,0.0014
2803.25,0.0013
2803.00,0.0012
2802.75,0.0013
2802.50,0.0014
2802.25,0.0015
2802.00,0.0016
2801.75,0.0017
2801.50,0.0017
2801.25,0.0017
2801.00,0.0017
2800.75,0.0016
2800.50,0.0015
2800.25,0.0015
2800.00,0.0014
2799.75,0.0014
2799.50,0.0014
2799.25,0.0014
2799.00,0.0014
2798.75,0.0014
2798.50,0.0013
2798.25,0.0013
2798.00,0.0013
2797.75,0.0014
2797.50,0.0016
2797.25,0.0017
2797.00,0.0018
2796.75,0.0018
2796.50,0.0018
2796.25,0.0018
2796.00,0.0017
2795.75,0.0016
2795.50,0.0015
2795.25,0.0014
2795.00,0.0014
2794.75,0.0015
2794.50,0.0016
2794.25,0.0018
2794.00,0.0019
2793.75,0.0018
2793.50,0.0018
2793.25,0.0017
2793.00,0.0017
2792.75,0.0017
2792.50,0.0018
2792.25,0.0019
2792.00,0.0019
2791.75,0.0019
2791.50,0.0018
2791.25,0.0018
2791.00,0.0018
2790.75,0.0018
2790.50,0.0018
2790.25,0.0017
2790.00,0.0016
2789.75,0.0015
2789.50,0.0014
2789.25,0.0014
2789.00,0.0014
2788.75,0.0014
2788.50,0.0015
2788.25,0.0015
2788.00,0.0015
2787.75,0.0015
2787.50,0.0014
2787.25,0.0014
2787.00,0.0014
2786.75,0.0015
2786.50,0.0016
2786.25,0.0016
2786.00,0.0016
2785.75,0.0016
2785.50,0.0015
2785.25,0.0014
2785.00,0.0013
2784.75,0.0013
2784.50,0.0013
2784.25,0.0014
2784.00,0.0014
2783.75,0.0014
2783.50,0.0014
2783.25,0.0015
2783.00,0.0015
2782.75,0.0015
2782.50,0.0015
2782.25,0.0015
2782.00,0.0014
2781.75,0.0013
2781.50,0.0012
2781.25,0.0012
2781.00,0.0013
2780.75,0.0014
2780.50,0.0015
2780.25,0.0016
2780.00,0.0017
2779.75,0.0017
2779.50,0.0016
2779.25,0.0015
2779.00,0.0013
2778.75,0.0012
2778.50,0.0012
2778.25,0.0012
2778.00,0.0013
2777.75,0.0013
2777.50,0.0012
2777.25,0.0011
2777.00,0.0010
2776.75,0.0009
2776.50,0.0008
2776.25,0.0009
2776.00,0.0009
2775.75,0.0010
2775.50,0.0010
2775.25,0.0011
2775.00,0.0011
2774.75,0.0012
2774.50,0.0012
2774.25,0.0012
2774.00,0.0012
2773.75,0.0012
2773.50,0.0012
2773.25,0.0012
2773.00,0.0013
2772.75,0.0013
2772.50,0.0013
2772.25,0.0014
2772.00,0.0013
2771.75,0.0013
2771.50,0.0012
2771.25,0.0011
2771.00,0.0010
2770.75,0.0010
2770.50,0.0010
2770.25,0.0011
2770.00,0.0012
2769.75,0.0012
2769.50,0.0012
2769.25,0.0012
2769.00,0.0011
2768.75,0.0011
2768.50,0.0010
2768.25,0.0011
2768.00,0.0011
2767.75,0.0011
2767.50,0.0011
2767.25,0.0011
2767.00,0.0011
2766.75,0.0010
2766.50,0.0010
2766.25,0.0010
2766.00,0.0010
2765.75,0.0010
2765.50,0.0011
2765.25,0.0012
2765.00,0.0012
2764.75,0.0012
2764.50,0.0012
2764.25,0.0013
2764.00,0.0013
2763.75,0.0014
2763.50,0.0015
2763.25,0.0015
2763.00,0.0015
2762.75,0.0014
2762.50,0.0013
2762.25,0.0011
2762.00,0.0010
2761.75,0.0009
2761.50,0.0009
2761.25,0.0009
2761.00,0.0010
2760.75,0.0010
2760.50,0.0011
2760.25,0.0011
2760.00,0.0010
2759.75,0.0010
2759.50,0.0009
2759.25,0.0009
2759.00,0.0010
2758.75,0.0010
2758.50,0.0010
2758.25,0.0009
2758.00,0.0008
2757.75,0.0008
2757.50,0.0009
2757.25,0.0010
2757.00,0.0010
2756.75,0.0011
2756.50,0.0010
2756.25,0.0010
2756.00,0.0009
2755.75,0.0009
2755.50,0.0009
2755.25,0.0009
2755.00,0.0010
2754.75,0.0011
2754.50,0.0012
2754.25,0.0011
2754.00,0.0010
2753.75,0.0009
2753.50,0.0009
2753.25,0.0009
2753.00,0.0009
2752.75,0.0010
2752.50,0.0010
2752.25,0.0010
2752.00,0.0010
2751.75,0.0010
2751.50,0.0009
2751.25,0.0009
2751.00,0.0008
2750.75,0.0007
2750.50,0.0006
2750.25,0.0006
2750.00,0.0006
2749.75,0.0006
2749.50,0.0006
2749.25,0.0007
2749.00,0.0007
2748.75,0.0007
2748.50,0.0008
2748.25,0.0010
2748.00,0.0011
2747.75,0.0012
2747.50,0.0012
2747.25,0.0012
2747.00,0.0011
2746.75,0.0011
2746.50,0.0011
2746.25,0.0010
2746.00,0.0009
2745.75,0.0008
2745.50,0.0008
2745.25,0.0009
2745.00,0.0010
2744.75,0.0010
2744.50,0.0011
2744.25,0.0010
2744.00,0.0010
2743.75,0.0009
2743.50,0.0007
2743.25,0.0007
2743.00,0.0007
2742.75,0.0008
2742.50,0.0009
2742.25,0.0010
2742.00,0.0010
2741.75,0.0011
2741.50,0.0011
2741.25,0.0010
2741.00,0.0010
2740.75,0.0009
2740.50,0.0009
2740.25,0.0009
2740.00,0.0009
2739.75,0.0010
2739.50,0.0010
2739.25,0.0010
2739.00,0.0010
2738.75,0.0010
2738.50,0.0010
2738.25,0.0010
2738.00,0.0010
2737.75,0.0011
2737.50,0.0011
2737.25,0.0011
2737.00,0.0011
2736.75,0.0011
2736.50,0.0011
2736.25,0.0011
2736.00,0.0011
2735.75,0.0011
2735.50,0.0011
2735.25,0.0010
2735.00,0.0010
2734.75,0.0009
2734.50,0.0009
2734.25,0.0010
2734.00,0.0011
2733.75,0.0011
2733.50,0.0011
2733.25,0.0011
2733.00,0.0010
2732.75,0.0009
2732.50,0.0008
2732.25,0.0008
2732.00,0.0008
2731.75,0.0008
2731.50,0.0008
2731.25,0.0009
2731.00,0.0009
2730.75,0.0009
2730.50,0.0008
2730.25,0.0009
2730.00,0.0009
2729.75,0.0010
2729.50,0.0010
2729.25,0.0010
2729.00,0.0010
2728.75,0.0010
2728.50,0.0009
2728.25,0.0009
2728.00,0.0009
2727.75,0.0008
2727.50,0.0008
2727.25,0.0007
2727.00,0.0008
2726.75,0.0009
2726.50,0.0010
2726.25,0.0011
2726.00,0.0012
2725.75,0.0012
2725.50,0.0012
2725.25,0.0012
2725.00,0.0011
2724.75,0.0009
2724.50,0.0008
2724.25,0.0007
2724.00,0.0007
2723.75,0.0007
2723.50,0.0007
2723.25,0.0008
2723.00,0.0009
2722.75,0.0009
2722.50,0.0009
2722.25,0.0009
2722.00,0.0008
2721.75,0.0008
2721.50,0.0007
2721.25,0.0007
2721.00,0.0007
2720.75,0.0008
2720.50,0.0008
2720.25,0.0009
2720.00,0.0010
2719.75,0.0010
2719.50,0.0010
2719.25,0.0010
2719.00,0.0010
2718.75,0.0009
2718.50,0.0009
2718.25,0.0010
2718.00,0.0010
2717.75,0.0011
2717.50,0.0011
2717.25,0.0010
2717.00,0.0010
2716.75,0.0010
2716.50,0.0011
2716.25,0.0011
2716.00,0.0012
2715.75,0.0012
2715.50,0.0012
2715.25,0.0011
2715.00,0.0010
2714.75,0.0010
2714.50,0.0011
2714.25,0.0011
2714.00,0.0012
2713.75,0.0011
2713.50,0.0011
2713.25,0.0010
2713.00,0.0011
2712.75,0.0011
2712.50,0.0011
2712.25,0.0010
2712.00,0.0009
2711.75,0.0009
2711.50,0.0010
2711.25,0.0010
2711.00,0.0011
2710.75,0.0011
2710.50,0.0011
2710.25,0.0010
2710.00,0.0009
2709.75,0.0008
2709.50,0.0008
2709.25,0.0008
2709.00,0.0009
2708.75,0.0010
2708.50,0.0010
2708.25,0.0010
2708.00,0.0010
2707.75,0.0009
2707.50,0.0007
2707.25,0.0007
2707.00,0.0006
2706.75,0.0006
2706.50,0.0007
2706.25,0.0007
2706.00,0.0008
2705.75,0.0008
2705.50,0.0008
2705.25,0.0009
2705.00,0.0009
2704.75,0.0009
2704.50,0.0009
2704.25,0.0009
2704.00,0.0009
2703.75,0.0009
2703.50,0.0010
2703.25,0.0011
2703.00,0.0011
2702.75,0.0012
2702.50,0.0011
2702.25,0.0010
2702.00,0.0008
2701.75,0.0008
2701.50,0.0008
2701.25,0.0009
2701.00,0.0009
2700.75,0.0009
2700.50,0.0008
2700.25,0.0008
2700.00,0.0009
2699.75,0.0010
2699.50,0.0011
2699.25,0.0012
2699.00,0.0012
2698.75,0.0011
2698.50,0.0010
2698.25,0.0009
2698.00,0.0008
2697.75,0.0007
2697.50,0.0007
2697.25,0.0007
2697.00,0.0008
2696.75,0.0009
2696.50,0.0010
2696.25,0.0010
2696.00,0.0009
2695.75,0.0009
2695.50,0.0009
2695.25,0.0010
2695.00,0.0011
2694.75,0.0012
2694.50,0.0012
2694.25,0.0012
2694.00,0.0011
2693.75,0.0010
2693.50,0.0009
2693.25,0.0008
2693.00,0.0007
2692.75,0.0007
2692.50,0.0008
2692.25,0.0010
2692.00,0.0010
2691.75,0.0011
2691.50,0.0010
2691.25,0.0010
2691.00,0.0009
2690.75,0.0008
2690.50,0.0008
2690.25,0.0008
2690.00,0.0009
2689.75,0.0010
2689.50,0.0011
2689.25,0.0012
2689.00,0.0012
2688.75,0.0012
2688.50,0.0012
2688.25,0.0012
2688.00,0.0012
2687.75,0.0012
2687.50,0.0011
2687.25,0.0010
2687.00,0.0010
2686.75,0.0010
2686.50,0.0010
2686.25,0.0011
2686.00,0.0012
2685.75,0.0012
2685.50,0.0011
2685.25,0.0010
2685.00,0.0009
2684.75,0.0007
2684.50,0.0006
2684.25,0.0005
2684.00,0.0006
2683.75,0.0007
2683.50,0.0008
2683.25,0.0009
2683.00,0.0009
2682.75,0.0009
2682.50,0.0009
2682.25,0.0010
2682.00,0.0010
2681.75,0.0011
2681.50,0.0010
2681.25,0.0010
2681.00,0.0009
2680.75,0.0008
2680.50,0.0008
2680.25,0.0008
2680.00,0.0008
2679.75,0.0008
2679.50,0.0008
2679.25,0.0008
2679.00,0.0008
2678.75,0.0008
2678.50,0.0008
2678.25,0.0008
2678.00,0.0008
2677.75,0.0008
2677.50,0.0009
2677.25,0.0009
2677.00,0.0010
2676.75,0.0011
2676.50,0.0011
2676.25,0.0011
2676.00,0.0010
2675.75,0.0009
2675.50,0.0009
2675.25,0.0009
2675.00,0.0009
2674.75,0.0009
2674.50,0.0010
2674.25,0.0010
2674.00,0.0010
2673.75,0.0011
2673.50,0.0011
2673.25,0.0011
2673.00,0.0011
2672.75,0.0012
2672.50,0.0011
2672.25,0.0011
2672.00,0.0010
2671.75,0.0009
2671.50,0.0009
2671.25,0.0009
2671.00,0.0009
2670.75,0.0010
2670.50,0.0010
2670.25,0.0010
2670.00,0.0010
2669.75,0.0010
2669.50,0.0009
2669.25,0.0008
2669.00,0.0008
2668.75,0.0007
2668.50,0.0006
2668.25,0.0005
2668.00,0.0005
2667.75,0.0005
2667.50,0.0006
2667.25,0.0007
2667.00,0.0009
2666.75,0.0009
2666.50,0.0009
2666.25,0.0009
2666.00,0.0008
2665.75,0.0008
2665.50,0.0009
2665.25,0.0010
2665.00,0.0010
2664.75,0.0010
2664.50,0.0009
2664.25,0.0009
2664.00,0.0009
2663.75,0.0009
2663.50,0.0008
2663.25,0.0007
2663.00,0.0006
2662.75,0.0006
2662.50,0.0007
2662.25,0.0008
2662.00,0.0009
2661.75,0.0011
2661.50,0.0011
2661.25,0.0012
2661.00,0.0011
2660.75,0.0010
2660.50,0.0009
2660.25,0.0008
2660.00,0.0008
2659.75,0.0009
2659.50,0.0009
2659.25,0.0009
2659.00,0.0008
2658.75,0.0008
2658.50,0.0008
2658.25,0.0009
2658.00,0.0009
2657.75,0.0010
2657.50,0.0011
2657.25,0.0012
2657.00,0.0012
2656.75,0.0012
2656.50,0.0011
2656.25,0.0010
2656.00,0.0009
2655.75,0.0009
2655.50,0.0009
2655.25,0.0009
2655.00,0.0008
2654.75,0.0008
2654.50,0.0008
2654.25,0.0009
2654.00,0.0010
2653.75,0.0012
2653.50,0.0013
2653.25,0.0013
2653.00,0.0013
2652.75,0.0013
2652.50,0.0013
2652.25,0.0013
2652.00,0.0013
2651.75,0.0012
2651.50,0.0011
2651.25,0.0009
2651.00,0.0008
2650.75,0.0008
2650.50,0.0007
2650.25,0.0007
2650.00,0.0008
2649.75,0.0008
2649.50,0.0009
2649.25,0.0009
2649.00,0.0009
2648.75,0.0008
2648.50,0.0008
2648.25,0.0007
2648.00,0.0007
2647.75,0.0008
2647.50,0.0009
2647.25,0.0009
2647.00,0.0009
2646.75,0.0009
2646.50,0.0009
2646.25,0.0009
2646.00,0.0008
2645.75,0.0008
2645.50,0.0008
2645.25,0.0008
2645.00,0.0007
2644.75,0.0007
2644.50,0.0008
2644.25,0.0009
2644.00,0.0009
2643.75,0.0010
2643.50,0.0009
2643.25,0.0009
2643.00,0.0009
2642.75,0.0008
2642.50,0.0008
2642.25,0.0008
2642.00,0.0007
2641.75,0.0008
2641.50,0.0009
2641.25,0.0010
2641.00,0.0010
2640.75,0.0009
2640.50,0.0009
2640.25,0.0008
2640.00,0.0008
2639.75,0.0009
2639.50,0.0009
2639.25,0.0010
2639.00,0.0010
2638.75,0.0010
2638.50,0.0010
2638.25,0.0010
2638.00,0.0011
2637.75,0.0011
2637.50,0.0011
2637.25,0.0010
2637.00,0.0010
2636.75,0.0009
2636.50,0.0008
2636.25,0.0007
2636.00,0.0006
2635.75,0.0006
2635.50,0.0006
2635.25,0.0006
2635.00,0.0007
2634.75,0.0007
2634.50,0.0008
2634.25,0.0007
2634.00,0.0007
2633.75,0.0008
2633.50,0.0008
2633.25,0.0009
2633.00,0.0009
2632.75,0.0009
2632.50,0.0009
2632.25,0.0009
2632.00,0.0008
2631.75,0.0008
2631.50,0.0007
2631.25,0.0007
2631.00,0.0006
2630.75,0.0006
2630.50,0.0005
2630.25,0.0005
2630.00,0.0004
2629.75,0.0004
2629.50,0.0004
2629.25,0.0004
2629.00,0.0005
2628.75,0.0007
2628.50,0.0008
2628.25,0.0009
2628.00,0.0009
2627.75,0.0009
2627.50,0.0008
2627.25,0.0008
2627.00,0.0008
2626.75,0.0008
2626.50,0.0009
2626.25,0.0010
2626.00,0.0010
2625.75,0.0009
2625.50,0.0009
2625.25,0.0009
2625.00,0.0009
2624.75,0.0008
2624.50,0.0006
2624.25,0.0006
2624.00,0.0006
2623.75,0.0006
2623.50,0.0007
2623.25,0.0007
2623.00,0.0007
2622.75,0.0007
2622.50,0.0007
2622.25,0.0008
2622.00,0.0009
2621.75,0.0010
2621.50,0.0010
2621.25,0.0010
2621.00,0.0009
2620.75,0.0009
2620.50,0.0009
2620.25,0.0008
2620.00,0.0008
2619.75,0.0009
2619.50,0.0010
2619.25,0.0011
2619.00,0.0012
2618.75,0.0012
2618.50,0.0011
2618.25,0.0010
2618.00,0.0010
2617.75,0.0009
2617.50,0.0009
2617.25,0.0009
2617.00,0.0008
2616.75,0.0006
2616.50,0.0005
2616.25,0.0005
2616.00,0.0005
2615.75,0.0007
2615.50,0.0008
2615.25,0.0010
2615.00,0.0011
2614.75,0.0011
2614.50,0.0010
2614.25,0.0009
2614.00,0.0009
2613.75,0.0008
2613.50,0.0007
2613.25,0.0005
2613.00,0.0003
2612.75,0.0002
2612.50,0.0002
2612.25,0.0003
2612.00,0.0004
2611.75,0.0006
2611.50,0.0007
2611.25,0.0009
2611.00,0.0009
2610.75,0.0010
2610.50,0.0010
2610.25,0.0011
2610.00,0.0011
2609.75,0.0012
2609.50,0.0011
2609.25,0.0010
2609.00,0.0010
2608.75,0.0009
2608.50,0.0009
2608.25,0.0007
2608.00,0.0006
2607.75,0.0005
2607.50,0.0006
2607.25,0.0008
2607.00,0.0010
2606.75,0.0012
2606.50,0.0012
2606.25,0.0012
2606.00,0.0011
2605.75,0.0012
2605.50,0.0013
2605.25,0.0013
2605.00,0.0014
2604.75,0.0013
2604.50,0.0011
2604.25,0.0009
2604.00,0.0007
2603.75,0.0005
2603.50,0.0005
2603.25,0.0005
2603.00,0.0007
2602.75,0.0008
2602.50,0.0008
2602.25,0.0007
2602.00,0.0006
2601.75,0.0004
2601.50,0.0003
2601.25,0.0003
2601.00,0.0003
2600.75,0.0003
2600.50,0.0004
2600.25,0.0005
2600.00,0.0006
2599.75,0.0007
2599.50,0.0007
2599.25,0.0006
2599.00,0.0005
2598.75,0.0004
2598.50,0.0004
2598.25,0.0004
2598.00,0.0006
2597.75,0.0007
2597.50,0.0009
2597.25,0.0009
2597.00,0.0009
2596.75,0.0009
2596.50,0.0009
2596.25,0.0008
2596.00,0.0007
2595.75,0.0006
2595.50,0.0003
2595.25,0.0001
2595.00,-0.0001
2594.75,-0.0001
2594.50,0.0001
2594.25,0.0002
2594.00,0.0004
2593.75,0.0005
2593.50,0.0004
2593.25,0.0004
2593.00,0.0004
2592.75,0.0005
2592.50,0.0006
2592.25,0.0006
2592.00,0.0006
2591.75,0.0005
2591.50,0.0005
2591.25,0.0006
2591.00,0.0008
2590.75,0.0009
2590.50,0.0009
2590.25,0.0008
2590.00,0.0007
2589.75,0.0006
2589.50,0.0006
2589.25,0.0007
2589.00,0.0007
2588.75,0.0008
2588.50,0.0008
2588.25,0.0008
2588.00,0.0009
2587.75,0.0010
2587.50,0.0010
2587.25,0.0009
2587.00,0.0006
2586.75,0.0004
2586.50,0.0002
2586.25,0.0002
2586.00,0.0003
2585.75,0.0004
2585.50,0.0005
2585.25,0.0005
2585.00,0.0006
2584.75,0.0006
2584.50,0.0007
2584.25,0.0007
2584.00,0.0006
2583.75,0.0005
2583.50,0.0005
2583.25,0.0005
2583.00,0.0006
2582.75,0.0007
2582.50,0.0006
2582.25,0.0005
2582.00,0.0004
2581.75,0.0003
2581.50,0.0001
2581.25,0.0000
2581.00,0.0000
2580.75,0.0002
2580.50,0.0004
2580.25,0.0006
2580.00,0.0008
2579.75,0.0009
2579.50,0.0010
2579.25,0.0011
2579.00,0.0012
2578.75,0.0013
2578.50,0.0013
2578.25,0.0013
2578.00,0.0013
2577.75,0.0011
2577.50,0.0009
2577.25,0.0007
2577.00,0.0006
2576.75,0.0005
2576.50,0.0005
2576.25,0.0004
2576.00,0.0004
2575.75,0.0004
2575.50,0.0005
2575.25,0.0005
2575.00,0.0006
2574.75,0.0007
2574.50,0.0007
2574.25,0.0008
2574.00,0.0009
2573.75,0.0011
2573.50,0.0011
2573.25,0.0011
2573.00,0.0010
2572.75,0.0008
2572.50,0.0006
2572.25,0.0004
2572.00,0.0004
2571.75,0.0004
2571.50,0.0004
2571.25,0.0003
2571.00,0.0003
2570.75,0.0004
2570.50,0.0005
2570.25,0.0006
2570.00,0.0006
2569.75,0.0005
2569.50,0.0005
2569.25,0.0005
2569.00,0.0006
2568.75,0.0008
2568.50,0.0009
2568.25,0.0008
2568.00,0.0006
2567.75,0.0004
2567.50,0.0002
2567.25,0.0003
2567.00,0.0004
2566.75,0.0005
2566.50,0.0007
2566.25,0.0009
2566.00,0.0010
2565.75,0.0009
2565.50,0.0008
2565.25,0.0006
2565.00,0.0004
2564.75,0.0004
2564.50,0.0005
2564.25,0.0008
2564.00,0.0010
2563.75,0.0012
2563.50,0.0013
2563.25,0.0013
2563.00,0.0011
2562.75,0.0009
2562.50,0.0006
2562.25,0.0005
2562.00,0.0005
2561.75,0.0005
2561.50,0.0006
2561.25,0.0006
2561.00,0.0006
2560.75,0.0005
2560.50,0.0003
2560.25,0.0001
2560.00,0.0000
2559.75,0.0000
2559.50,0.0001
2559.25,0.0003
2559.00,0.0006
2558.75,0.0008
2558.50,0.0009
2558.25,0.0009
2558.00,0.0008
2557.75,0.0007
2557.50,0.0006
2557.25,0.0005
2557.00,0.0004
2556.75,0.0004
2556.50,0.0005
2556.25,0.0006
2556.00,0.0008
2555.75,0.0008
2555.50,0.0008
2555.25,0.0007
2555.00,0.0006
2554.75,0.0004
2554.50,0.0003
2554.25,0.0002
2554.00,0.0003
2553.75,0.0003
2553.50,0.0004
2553.25,0.0004
2553.00,0.0004
2552.75,0.0004
2552.50,0.0004
2552.25,0.0004
2552.00,0.0004
2551.75,0.0005
2551.50,0.0006
2551.25,0.0007
2551.00,0.0008
2550.75,0.0009
2550.50,0.0011
2550.25,0.0013
2550.00,0.0013
2549.75,0.0013
2549.50,0.0010
2549.25,0.0007
2549.00,0.0005
2548.75,0.0003
2548.50,0.0002
2548.25,0.0002
2548.00,0.0003
2547.75,0.0005
2547.50,0.0006
2547.25,0.0006
2547.00,0.0005
2546.75,0.0004
2546.50,0.0005
2546.25,0.0006
2546.00,0.0007
2545.75,0.0007
2545.50,0.0005
2545.25,0.0002
2545.00,-0.0000
2544.75,-0.0002
2544.50,-0.0002
2544.25,-0.0001
2544.00,-0.0000
2543.75,-0.0000
2543.50,-0.0001
2543.25,-0.0001
2543.00,-0.0002
2542.75,-0.0001
2542.50,-0.0000
2542.25,0.0001
2542.00,0.0002
2541.75,0.0003
2541.50,0.0004
2541.25,0.0004
2541.00,0.0004
2540.75,0.0003
2540.50,0.0002
2540.25,0.0002
2540.00,0.0001
2539.75,0.0002
2539.50,0.0002
2539.25,0.0002
2539.00,0.0001
2538.75,-0.0000
2538.50,-0.0001
2538.25,-0.0001
2538.00,0.0000
2537.75,0.0002
2537.50,0.0004
2537.25,0.0006
2537.00,0.0009
2536.75,0.0010
2536.50,0.0011
2536.25,0.0011
2536.00,0.0010
2535.75,0.0009
2535.50,0.0007
2535.25,0.0006
2535.00,0.0005
2534.75,0.0005
2534.50,0.0005
2534.25,0.0004
2534.00,0.0004
2533.75,0.0003
2533.50,0.0003
2533.25,0.0004
2533.00,0.0003
2532.75,0.0002
2532.50,0.0001
2532.25,-0.0000
2532.00,-0.0001
2531.75,-0.0000
2531.50,0.0001
2531.25,0.0002
2531.00,0.0003
2530.75,0.0002
2530.50,0.0001
2530.25,0.0000
2530.00,0.0000
2529.75,0.0001
2529.50,0.0003
2529.25,0.0005
2529.00,0.0005
2528.75,0.0004
2528.50,0.0002
2528.25,0.0000
2528.00,-0.0001
2527.75,-0.0001
2527.50,-0.0001
2527.25,-0.0002
2527.00,-0.0003
2526.75,-0.0004
2526.50,-0.0004
2526.25,-0.0004
2526.00,-0.0004
2525.75,-0.0003
2525.50,-0.0002
2525.25,-0.0001
2525.00,-0.0000
2524.75,-0.0000
2524.50,-0.0001
2524.25,-0.0003
2524.00,-0.0004
2523.75,-0.0005
2523.50,-0.0005
2523.25,-0.0006
2523.00,-0.0006
2522.75,-0.0006
2522.50,-0.0005
2522.25,-0.0005
2522.00,-0.0003
2521.75,-0.0003
2521.50,-0.0004
2521.25,-0.0005
2521.00,-0.0007
2520.75,-0.0009
2520.50,-0.0010
2520.25,-0.0010
2520.00,-0.0008
2519.75,-0.0006
2519.50,-0.0004
2519.25,-0.0002
2519.00,-0.0002
2518.75,-0.0003
2518.50,-0.0004
2518.25,-0.0003
2518.00,-0.0003
2517.75,-0.0002
2517.50,-0.0002
2517.25,-0.0002
2517.00,-0.0003
2516.75,-0.0004
2516.50,-0.0006
2516.25,-0.0008
2516.00,-0.0009
2515.75,-0.0010
2515.50,-0.0009
2515.25,-0.0008
2515.00,-0.0006
2514.75,-0.0005
2514.50,-0.0003
2514.25,-0.0002
2514.00,-0.0000
2513.75,0.0002
2513.50,0.0003
2513.25,0.0002
2513.00,0.0000
2512.75,-0.0003
2512.50,-0.0006
2512.25,-0.0008
2512.00,-0.0008
2511.75,-0.0007
2511.50,-0.0006
2511.25,-0.0007
2511.00,-0.0008
2510.75,-0.0009
2510.50,-0.0010
2510.25,-0.0009
2510.00,-0.0008
2509.75,-0.0007
2509.50,-0.0006
2509.25,-0.0004
2509.00,-0.0002
2508.75,-0.0001
2508.50,-0.0001
2508.25,-0.0001
2508.00,-0.0002
2507.75,-0.0002
2507.50,-0.0001
2507.25,-0.0001
2507.00,-0.0002
2506.75,-0.0003
2506.50,-0.0004
2506.25,-0.0004
2506.00,-0.0004
2505.75,-0.0004
2505.50,-0.0003
2505.25,-0.0002
2505.00,-0.0001
2504.75,0.0000
2504.50,0.0001
2504.25,-0.0000
2504.00,-0.0003
2503.75,-0.0006
2503.50,-0.0007
2503.25,-0.0007
2503.00,-0.0005
2502.75,-0.0003
2502.50,-0.0002
2502.25,-0.0002
2502.00,-0.0002
2501.75,-0.0001
2501.50,-0.0001
2501.25,0.0000
2501.00,0.0002
2500.75,0.0003
2500.50,0.0005
2500.25,0.0005
2500.00,0.0004
2499.75,0.0002
2499.50,0.0000
2499.25,-0.0001
2499.00,-0.0001
2498.75,-0.0001
2498.50,0.0000
2498.25,0.0002
2498.00,0.0003
2497.75,0.0005
2497.50,0.0005
2497.25,0.0005
2497.00,0.0004
2496.75,0.0003
2496.50,0.0003
2496.25,0.0004
2496.00,0.0006
2495.75,0.0009
2495.50,0.0011
2495.25,0.0010
2495.00,0.0008
2494.75,0.0005
2494.50,0.0003
2494.25,0.0002
2494.00,0.0003
2493.75,0.0005
2493.50,0.0006
2493.25,0.0007
2493.00,0.0007
2492.75,0.0006
2492.50,0.0006
2492.25,0.0006
2492.00,0.0006
2491.75,0.0007
2491.50,0.0008
2491.25,0.0008
2491.00,0.0007
2490.75,0.0006
2490.50,0.0005
2490.25,0.0004
2490.00,0.0004
2489.75,0.0004
2489.50,0.0003
2489.25,0.0002
2489.00,0.0001
2488.75,0.0000
2488.50,0.0001
2488.25,0.0002
2488.00,0.0003
2487.75,0.0004
2487.50,0.0006
2487.25,0.0007
2487.00,0.0007
2486.75,0.0005
2486.50,0.0002
2486.25,-0.0001
2486.00,-0.0002
2485.75,-0.0003
2485.50,-0.0001
2485.25,0.0001
2485.00,0.0004
2484.75,0.0007
2484.50,0.0009
2484.25,0.0010
2484.00,0.0010
2483.75,0.0009
2483.50,0.0007
2483.25,0.0006
2483.00,0.0007
2482.75,0.0008
2482.50,0.0010
2482.25,0.0011
2482.00,0.0011
2481.75,0.0010
2481.50,0.0008
2481.25,0.0006
2481.00,0.0005
2480.75,0.0006
2480.50,0.0007
2480.25,0.0008
2480.00,0.0010
2479.75,0.0010
2479.50,0.0011
2479.25,0.0010
2479.00,0.0009
2478.75,0.0006
2478.50,0.0002
2478.25,-0.0001
2478.00,-0.0003
2477.75,-0.0002
2477.50,0.0001
2477.25,0.0004
2477.00,0.0006
2476.75,0.0007
2476.50,0.0006
2476.25,0.0005
2476.00,0.0004
2475.75,0.0004
2475.50,0.0005
2475.25,0.0006
2475.00,0.0006
2474.75,0.0004
2474.50,0.0002
2474.25,-0.0001
2474.00,-0.0003
2473.75,-0.0003
2473.50,-0.0002
2473.25,0.0000
2473.00,0.0002
2472.75,0.0004
2472.50,0.0004
2472.25,0.0005
2472.00,0.0006
2471.75,0.0007
2471.50,0.0008
2471.25,0.0008
2471.00,0.0009
2470.75,0.0009
2470.50,0.0009
2470.25,0.0009
2470.00,0.0009
2469.75,0.0008
2469.50,0.0007
2469.25,0.0007
2469.00,0.0007
2468.75,0.0008
2468.50,0.0008
2468.25,0.0007
2468.00,0.0006
2467.75,0.0005
2467.50,0.0003
2467.25,0.0002
2467.00,-0.0000
2466.75,-0.0001
2466.50,-0.0000
2466.25,0.0002
2466.00,0.0006
2465.75,0.0009
2465.50,0.0011
2465.25,0.0011
2465.00,0.0010
2464.75,0.0008
2464.50,0.0007
2464.25,0.0006
2464.00,0.0004
2463.75,0.0003
2463.50,0.0002
2463.25,0.0001
2463.00,0.0002
2462.75,0.0003
2462.50,0.0005
2462.25,0.0006
2462.00,0.0007
2461.75,0.0008
2461.50,0.0008
2461.25,0.0008
2461.00,0.0007
2460.75,0.0006
2460.50,0.0006
2460.25,0.0006
2460.00,0.0007
2459.75,0.0008
2459.50,0.0007
2459.25,0.0006
2459.00,0.0005
2458.75,0.0004
2458.50,0.0003
2458.25,0.0003
2458.00,0.0003
2457.75,0.0003
2457.50,0.0004
2457.25,0.0005
2457.00,0.0005
2456.75,0.0005
2456.50,0.0005
2456.25,0.0005
2456.00,0.0005
2455.75,0.0006
2455.50,0.0007
2455.25,0.0007
2455.00,0.0007
2454.75,0.0006
2454.50,0.0004
2454.25,0.0003
2454.00,0.0003
2453.75,0.0004
2453.50,0.0005
2453.25,0.0007
2453.00,0.0007
2452.75,0.0007
2452.50,0.0006
2452.25,0.0005
2452.00,0.0003
2451.75,0.0002
2451.50,0.0003
2451.25,0.0004
2451.00,0.0006
2450.75,0.0008
2450.50,0.0011
2450.25,0.0012
2450.00,0.0012
2449.75,0.0011
2449.50,0.0008
2449.25,0.0006
2449.00,0.0004
2448.75,0.0004
2448.50,0.0005
2448.25,0.0006
2448.00,0.0007
2447.75,0.0007
2447.50,0.0007
2447.25,0.0008
2447.00,0.0009
2446.75,0.0009
2446.50,0.0009
2446.25,0.0007
2446.00,0.0005
2445.75,0.0003
2445.50,0.0001
2445.25,-0.0001
2445.00,-0.0001
2444.75,-0.0001
2444.50,-0.0000
2444.25,0.0000
2444.00,0.0001
2443.75,0.0002
2443.50,0.0002
2443.25,0.0002
2443.00,0.0003
2442.75,0.0004
2442.50,0.0005
2442.25,0.0006
2442.00,0.0007
2441.75,0.0008
2441.50,0.0011
2441.25,0.0014
2441.00,0.0016
2440.75,0.0016
2440.50,0.0014
2440.25,0.0011
2440.00,0.0009
2439.75,0.0007
2439.50,0.0007
2439.25,0.0006
2439.00,0.0004
2438.75,0.0003
2438.50,0.0002
2438.25,0.0002
2438.00,0.0003
2437.75,0.0004
2437.50,0.0005
2437.25,0.0005
2437.00,0.0006
2436.75,0.0006
2436.50,0.0007
2436.25,0.0007
2436.00,0.0006
2435.75,0.0006
2435.50,0.0006
2435.25,0.0005
2435.00,0.0005
2434.75,0.0003
2434.50,0.0001
2434.25,-0.0000
2434.00,-0.0001
2433.75,-0.0000
2433.50,0.0001
2433.25,0.0002
2433.00,0.0003
2432.75,0.0004
2432.50,0.0005
2432.25,0.0006
2432.00,0.0006
2431.75,0.0007
2431.50,0.0006
2431.25,0.0004
2431.00,0.0003
2430.75,0.0002
2430.50,0.0003
2430.25,0.0004
2430.00,0.0005
2429.75,0.0005
2429.50,0.0005
2429.25,0.0004
2429.00,0.0004
2428.75,0.0004
2428.50,0.0004
2428.25,0.0003
2428.00,0.0001
2427.75,-0.0000
2427.50,-0.0000
2427.25,0.0001
2427.00,0.0004
2426.75,0.0006
2426.50,0.0008
2426.25,0.0009
2426.00,0.0009
2425.75,0.0009
2425.50,0.0008
2425.25,0.0008
2425.00,0.0008
2424.75,0.0009
2424.50,0.0008
2424.25,0.0007
2424.00,0.0005
2423.75,0.0003
2423.50,0.0002
2423.25,0.0002
2423.00,0.0003
2422.75,0.0004
2422.50,0.0004
2422.25,0.0004
2422.00,0.0003
2421.75,0.0003
2421.50,0.0003
2421.25,0.0004
2421.00,0.0006
2420.75,0.0008
2420.50,0.0009
2420.25,0.0009
2420.00,0.0008
2419.75,0.0006
2419.50,0.0004
2419.25,0.0002
2419.00,0.0001
2418.75,0.0001
2418.50,0.0002
2418.25,0.0004
2418.00,0.0006
2417.75,0.0009
2417.50,0.0011
2417.25,0.0013
2417.00,0.0013
2416.75,0.0012
2416.50,0.0009
2416.25,0.0006
2416.00,0.0004
2415.75,0.0003
2415.50,0.0004
2415.25,0.0005
2415.00,0.0007
2414.75,0.0008
2414.50,0.0008
2414.25,0.0007
2414.00,0.0006
2413.75,0.0005
2413.50,0.0004
2413.25,0.0004
2413.00,0.0004
2412.75,0.0005
2412.50,0.0006
2412.25,0.0008
2412.00,0.0010
2411.75,0.0011
2411.50,0.0011
2411.25,0.0009
2411.00,0.0007
2410.75,0.0005
2410.50,0.0004
2410.25,0.0005
2410.00,0.0005
2409.75,0.0005
2409.50,0.0005
2409.25,0.0004
2409.00,0.0004
2408.75,0.0003
2408.50,0.0003
2408.25,0.0001
2408.00,0.0000
2407.75,0.0000
2407.50,0.0001
2407.25,0.0003
2407.00,0.0005
2406.75,0.0006
2406.50,0.0007
2406.25,0.0007
2406.00,0.0006
2405.75,0.0005
2405.50,0.0004
2405.25,0.0004
2405.00,0.0004
2404.75,0.0004
2404.50,0.0004
2404.25,0.0004
2404.00,0.0003
2403.75,0.0004
2403.50,0.0005
2403.25,0.0007
2403.00,0.0009
2402.75,0.0010
2402.50,0.0010
2402.25,0.0009
2402.00,0.0007
2401.75,0.0006
2401.50,0.0005
2401.25,0.0004
2401.00,0.0004
2400.75,0.0004
2400.50,0.0004
2400.25,0.0003
2400.00,0.0002
2399.75,0.0002
2399.50,0.0002
2399.25,0.0003
2399.00,0.0004
2398.75,0.0005
2398.50,0.0006
2398.25,0.0006
2398.00,0.0005
2397.75,0.0002
2397.50,-0.0000
2397.25,-0.0003
2397.00,-0.0004
2396.75,-0.0004
2396.50,-0.0001
2396.25,0.0001
2396.00,0.0003
2395.75,0.0003
2395.50,0.0002
2395.25,-0.0000
2395.00,-0.0001
2394.75,0.0000
2394.50,0.0002
2394.25,0.0003
2394.00,0.0004
2393.75,0.0005
2393.50,0.0006
2393.25,0.0007
2393.00,0.0006
2392.75,0.0004
2392.50,0.0003
2392.25,0.0002
2392.00,0.0002
2391.75,0.0002
2391.50,0.0003
2391.25,0.0002
2391.00,0.0002
2390.75,0.0001
2390.50,0.0001
2390.25,0.0002
2390.00,0.0004
2389.75,0.0005
2389.50,0.0005
2389.25,0.0005
2389.00,0.0005
2388.75,0.0006
2388.50,0.0007
2388.25,0.0007
2388.00,0.0006
2387.75,0.0006
2387.50,0.0005
2387.25,0.0005
2387.00,0.0005
2386.75,0.0004
2386.50,0.0003
2386.25,0.0002
2386.00,0.0002
2385.75,0.0003
2385.50,0.0004
2385.25,0.0005
2385.00,0.0006
2384.75,0.0006
2384.50,0.0007
2384.25,0.0008
2384.00,0.0008
2383.75,0.0008
2383.50,0.0007
2383.25,0.0006
2383.00,0.0006
2382.75,0.0006
2382.50,0.0006
2382.25,0.0006
2382.00,0.0006
2381.75,0.0007
2381.50,0.0007
2381.25,0.0006
2381.00,0.0006
2380.75,0.0004
2380.50,0.0003
2380.25,0.0002
2380.00,0.0001
2379.75,-0.0000
2379.50,-0.0000
2379.25,0.0002
2379.00,0.0004
2378.75,0.0005
2378.50,0.0004
2378.25,0.0002
2378.00,0.0000
2377.75,-0.0000
2377.50,0.0001
2377.25,0.0004
2377.00,0.0006
2376.75,0.0009
2376.50,0.0011
2376.25,0.0012
2376.00,0.0013
2375.75,0.0013
2375.50,0.0013
2375.25,0.0012
2375.00,0.0011
2374.75,0.0007
2374.50,0.0003
2374.25,0.0001
2374.00,0.0001
2373.75,0.0001
2373.50,0.0001
2373.25,-0.0001
2373.00,-0.0004
2372.75,-0.0006
2372.50,-0.0005
2372.25,-0.0002
2372.00,0.0001
2371.75,0.0003
2371.50,0.0003
2371.25,0.0002
2371.00,0.0001
2370.75,-0.0000
2370.50,-0.0001
2370.25,-0.0002
2370.00,-0.0002
2369.75,-0.0001
2369.50,0.0000
2369.25,0.0002
2369.00,0.0003
2368.75,0.0003
2368.50,0.0003
2368.25,0.0005
2368.00,0.0008
2367.75,0.0011
2367.50,0.0010
2367.25,0.0006
2367.00,-0.0001
2366.75,-0.0007
2366.50,-0.0009
2366.25,-0.0007
2366.00,-0.0000
2365.75,0.0007
2365.50,0.0013
2365.25,0.0017
2365.00,0.0017
2364.75,0.0015
2364.50,0.0013
2364.25,0.0011
2364.00,0.0007
2363.75,0.0005
2363.50,0.0004
2363.25,0.0005
2363.00,0.0008
2362.75,0.0010
2362.50,0.0013
2362.25,0.0016
2362.00,0.0018
2361.75,0.0019
2361.50,0.0019
2361.25,0.0018
2361.00,0.0016
2360.75,0.0014
2360.50,0.0009
2360.25,0.0003
2360.00,-0.0005
2359.75,-0.0010
2359.50,-0.0010
2359.25,-0.0006
2359.00,-0.0001
2358.75,0.0005
2358.50,0.0009
2358.25,0.0010
2358.00,0.0009
2357.75,0.0010
2357.50,0.0013
2357.25,0.0017
2357.00,0.0017
2356.75,0.0013
2356.50,0.0008
2356.25,0.0003
2356.00,0.0002
2355.75,0.0004
2355.50,0.0009
2355.25,0.0011
2355.00,0.0012
2354.75,0.0011
2354.50,0.0010
2354.25,0.0010
2354.00,0.0010
2353.75,0.0010
2353.50,0.0009
2353.25,0.0009
2353.00,0.0010
2352.75,0.0012
2352.50,0.0013
2352.25,0.0015
2352.00,0.0015
2351.75,0.0013
2351.50,0.0010
2351.25,0.0007
2351.00,0.0005
2350.75,0.0005
2350.50,0.0007
2350.25,0.0008
2350.00,0.0010
2349.75,0.0011
2349.50,0.0011
2349.25,0.0010
2349.00,0.0009
2348.75,0.0008
2348.50,0.0007
2348.25,0.0006
2348.00,0.0007
2347.75,0.0007
2347.50,0.0007
2347.25,0.0006
2347.00,0.0005
2346.75,0.0003
2346.50,0.0002
2346.25,0.0002
2346.00,0.0002
2345.75,0.0004
2345.50,0.0006
2345.25,0.0007
2345.00,0.0007
2344.75,0.0007
2344.50,0.0005
2344.25,-0.0000
2344.00,-0.0005
2343.75,-0.0007
2343.50,-0.0006
2343.25,-0.0002
2343.00,0.0003
2342.75,0.0008
2342.50,0.0011
2342.25,0.0010
2342.00,0.0008
2341.75,0.0007
2341.50,0.0007
2341.25,0.0008
2341.00,0.0009
2340.75,0.0010
2340.50,0.0009
2340.25,0.0008
2340.00,0.0007
2339.75,0.0005
2339.50,0.0001
2339.25,-0.0002
2339.00,-0.0004
2338.75,-0.0002
2338.50,-0.0000
2338.25,0.0001
2338.00,0.0002
2337.75,0.0004
2337.50,0.0007
2337.25,0.0010
2337.00,0.0011
2336.75,0.0010
2336.50,0.0008
2336.25,0.0004
2336.00,-0.0001
2335.75,-0.0004
2335.50,-0.0003
2335.25,-0.0000
2335.00,0.0004
2334.75,0.0008
2334.50,0.0011
2334.25,0.0014
2334.00,0.0011
2333.75,0.0005
2333.50,-0.0000
2333.25,-0.0003
2333.00,-0.0003
2332.75,-0.0003
2332.50,-0.0001
2332.25,0.0002
2332.00,0.0003
2331.75,0.0003
2331.50,0.0002
2331.25,-0.0000
2331.00,-0.0003
2330.75,-0.0005
2330.50,-0.0004
2330.25,0.0000
2330.00,0.0005
2329.75,0.0008
2329.50,0.0009
2329.25,0.0008
2329.00,0.0005
2328.75,0.0005
2328.50,0.0007
2328.25,0.0011
2328.00,0.0014
2327.75,0.0016
2327.50,0.0015
2327.25,0.0013
2327.00,0.0010
2326.75,0.0006
2326.50,0.0003
2326.25,0.0004
2326.00,0.0007
2325.75,0.0011
2325.50,0.0015
2325.25,0.0018
2325.00,0.0018
2324.75,0.0014
2324.50,0.0006
2324.25,0.0000
2324.00,-0.0002
2323.75,-0.0002
2323.50,-0.0001
2323.25,0.0003
2323.00,0.0005
2322.75,0.0006
2322.50,0.0006
2322.25,0.0007
2322.00,0.0008
2321.75,0.0010
2321.50,0.0010
2321.25,0.0007
2321.00,0.0001
2320.75,-0.0002
2320.50,-0.0002
2320.25,0.0001
2320.00,0.0005
2319.75,0.0008
2319.50,0.0010
2319.25,0.0009
2319.00,0.0007
2318.75,0.0004
2318.50,0.0002
2318.25,0.0001
2318.00,0.0000
2317.75,0.0001
2317.50,0.0004
2317.25,0.0007
2317.00,0.0009
2316.75,0.0008
2316.50,0.0006
2316.25,0.0004
2316.00,0.0002
2315.75,0.0002
2315.50,0.0004
2315.25,0.0006
2315.00,0.0008
2314.75,0.0008
2314.50,0.0006
2314.25,0.0004
2314.00,0.0002
2313.75,0.0000
2313.50,-0.0001
2313.25,-0.0003
2313.00,-0.0003
2312.75,-0.0003
2312.50,-0.0003
2312.25,-0.0003
2312.00,-0.0002
2311.75,-0.0002
2311.50,-0.0000
2311.25,0.0002
2311.00,0.0004
2310.75,0.0006
2310.50,0.0006
2310.25,0.0005
2310.00,0.0003
2309.75,0.0002
2309.50,0.0003
2309.25,0.0004
2309.00,0.0004
2308.75,0.0003
2308.50,0.0001
2308.25,0.0001
2308.00,0.0001
2307.75,0.0002
2307.50,0.0002
2307.25,0.0003
2307.00,0.0004
2306.75,0.0005
2306.50,0.0006
2306.25,0.0006
2306.00,0.0005
2305.75,0.0004
2305.50,0.0004
2305.25,0.0005
2305.00,0.0005
2304.75,0.0005
2304.50,0.0004
2304.25,0.0003
2304.00,0.0003
2303.75,0.0004
2303.50,0.0005
2303.25,0.0007
2303.00,0.0008
2302.75,0.0009
2302.50,0.0009
2302.25,0.0008
2302.00,0.0007
2301.75,0.0006
2301.50,0.0005
2301.25,0.0004
2301.00,0.0003
2300.75,0.0002
2300.50,0.0001
2300.25,0.0000
2300.00,-0.0000
2299.75,-0.0000
2299.50,0.0000
2299.25,0.0002
2299.00,0.0003
2298.75,0.0004
2298.50,0.0005
2298.25,0.0006
2298.00,0.0007
2297.75,0.0007
2297.50,0.0005
2297.25,0.0003
2297.00,0.0001
2296.75,-0.0001
2296.50,-0.0001
2296.25,-0.0001
2296.00,0.0001
2295.75,0.0002
2295.50,0.0002
2295.25,0.0001
2295.00,0.0001
2294.75,0.0001
2294.50,0.0002
2294.25,0.0004
2294.00,0.0006
2293.75,0.0009
2293.50,0.0011
2293.25,0.0012
2293.00,0.0011
2292.75,0.0009
2292.50,0.0006
2292.25,0.0004
2292.00,0.0004
2291.75,0.0005
2291.50,0.0006
2291.25,0.0008
2291.00,0.0009
2290.75,0.0009
2290.50,0.0009
2290.25,0.0009
2290.00,0.0009
2289.75,0.0009
2289.50,0.0008
2289.25,0.0006
2289.00,0.0004
2288.75,0.0002
2288.50,-0.0000
2288.25,-0.0002
2288.00,-0.0002
2287.75,-0.0002
2287.50,-0.0001
2287.25,0.0002
2287.00,0.0005
2286.75,0.0006
2286.50,0.0005
2286.25,0.0004
2286.00,0.0003
2285.75,0.0002
2285.50,0.0003
2285.25,0.0004
2285.00,0.0004
2284.75,0.0003
2284.50,0.0001
2284.25,-0.0002
2284.00,-0.0004
2283.75,-0.0005
2283.50,-0.0003
2283.25,0.0001
2283.00,0.0004
2282.75,0.0006
2282.50,0.0007
2282.25,0.0007
2282.00,0.0005
2281.75,0.0002
2281.50,-0.0001
2281.25,-0.0004
2281.00,-0.0005
2280.75,-0.0004
2280.50,-0.0001
2280.25,0.0002
2280.00,0.0004
2279.75,0.0004
2279.50,0.0003
2279.25,0.0003
2279.00,0.0002
2278.75,0.0002
2278.50,0.0003
2278.25,0.0002
2278.00,0.0002
2277.75,-0.0000
2277.50,-0.0003
2277.25,-0.0004
2277.00,-0.0005
2276.75,-0.0003
2276.50,-0.0001
2276.25,0.0000
2276.00,0.0000
2275.75,-0.0000
2275.50,-0.0000
2275.25,0.0001
2275.00,0.0003
2274.75,0.0007
2274.50,0.0010
2274.25,0.0013
2274.00,0.0015
2273.75,0.0015
2273.50,0.0013
2273.25,0.0010
2273.00,0.0005
2272.75,0.0000
2272.50,-0.0003
2272.25,-0.0004
2272.00,-0.0001
2271.75,0.0004
2271.50,0.0008
2271.25,0.0011
2271.00,0.0011
2270.75,0.0008
2270.50,0.0004
2270.25,0.0001
2270.00,-0.0001
2269.75,-0.0002
2269.50,-0.0002
2269.25,-0.0002
2269.00,-0.0002
2268.75,-0.0001
2268.50,0.0001
2268.25,0.0001
2268.00,0.0000
2267.75,-0.0002
2267.50,-0.0004
2267.25,-0.0006
2267.00,-0.0007
2266.75,-0.0006
2266.50,-0.0005
2266.25,-0.0003
2266.00,0.0001
2265.75,0.0003
2265.50,0.0005
2265.25,0.0005
2265.00,0.0005
2264.75,0.0006
2264.50,0.0005
2264.25,0.0004
2264.00,0.0001
2263.75,-0.0003
2263.50,-0.0007
2263.25,-0.0010
2263.00,-0.0010
2262.75,-0.0008
2262.50,-0.0004
2262.25,-0.0000
2262.00,0.0003
2261.75,0.0006
2261.50,0.0007
2261.25,0.0007
2261.00,0.0007
2260.75,0.0006
2260.50,0.0005
2260.25,0.0003
2260.00,0.0000
2259.75,-0.0002
2259.50,-0.0002
2259.25,-0.0001
2259.00,-0.0000
2258.75,0.0000
2258.50,-0.0001
2258.25,-0.0002
2258.00,-0.0003
2257.75,-0.0003
2257.50,-0.0003
2257.25,-0.0003
2257.00,-0.0004
2256.75,-0.0004
2256.50,-0.0004
2256.25,-0.0003
2256.00,-0.0002
2255.75,-0.0000
2255.50,0.0001
2255.25,0.0003
2255.00,0.0005
2254.75,0.0007
2254.50,0.0007
2254.25,0.0005
2254.00,-0.0001
2253.75,-0.0007
2253.50,-0.0013
2253.25,-0.0016
2253.00,-0.0016
2252.75,-0.0013
2252.50,-0.0009
2252.25,-0.0005
2252.00,-0.0002
2251.75,0.0000
2251.50,0.0000
2251.25,-0.0002
2251.00,-0.0005
2250.75,-0.0007
2250.50,-0.0007
2250.25,-0.0005
2250.00,-0.0003
2249.75,-0.0001
2249.50,-0.0001
2249.25,-0.0001
2249.00,-0.0002
2248.75,-0.0003
2248.50,-0.0003
2248.25,-0.0002
2248.00,-0.0001
2247.75,0.0000
2247.50,0.0000
2247.25,-0.0001
2247.00,-0.0003
2246.75,-0.0006
2246.50,-0.0008
2246.25,-0.0009
2246.00,-0.0008
2245.75,-0.0005
2245.50,-0.0001
2245.25,0.0003
2245.00,0.0006
2244.75,0.0008
2244.50,0.0009
2244.25,0.0009
2244.00,0.0007
2243.75,0.0005
2243.50,0.0002
2243.25,-0.0002
2243.00,-0.0005
2242.75,-0.0007
2242.50,-0.0007
2242.25,-0.0005
2242.00,-0.0001
2241.75,0.0002
2241.50,0.0002
2241.25,-0.0000
2241.00,-0.0003
2240.75,-0.0003
2240.50,-0.0002
2240.25,-0.0001
2240.00,-0.0001
2239.75,-0.0002
2239.50,-0.0001
2239.25,0.0001
2239.00,0.0003
2238.75,0.0004
2238.50,0.0004
2238.25,0.0004
2238.00,0.0003
2237.75,0.0003
2237.50,0.0002
2237.25,-0.0001
2237.00,-0.0003
2236.75,-0.0006
2236.50,-0.0007
2236.25,-0.0007
2236.00,-0.0008
2235.75,-0.0010
2235.50,-0.0012
2235.25,-0.0014
2235.00,-0.0013
2234.75,-0.0012
2234.50,-0.0009
2234.25,-0.0008
2234.00,-0.0006
2233.75,-0.0004
2233.50,-0.0001
2233.25,0.0002
2233.00,0.0006
2232.75,0.0007
2232.50,0.0007
2232.25,0.0005
2232.00,0.0004
2231.75,0.0004
2231.50,0.0005
2231.25,0.0005
2231.00,0.0003
2230.75,0.0001
2230.50,-0.0001
2230.25,-0.0001
2230.00,-0.0001
2229.75,-0.0001
2229.50,-0.0001
2229.25,-0.0002
2229.00,-0.0003
2228.75,-0.0004
2228.50,-0.0004
2228.25,-0.0004
2228.00,-0.0004
2227.75,-0.0004
2227.50,-0.0005
2227.25,-0.0006
2227.00,-0.0005
2226.75,-0.0002
2226.50,0.0000
2226.25,0.0001
2226.00,-0.0001
2225.75,-0.0004
2225.50,-0.0005
2225.25,-0.0005
2225.00,-0.0003
2224.75,-0.0001
2224.50,-0.0000
2224.25,-0.0001
2224.00,-0.0001
2223.75,-0.0002
2223.50,-0.0002
2223.25,-0.0000
2223.00,0.0002
2222.75,0.0003
2222.50,0.0003
2222.25,0.0000
2222.00,-0.0003
2221.75,-0.0006
2221.50,-0.0008
2221.25,-0.0009
2221.00,-0.0010
2220.75,-0.0011
2220.50,-0.0011
2220.25,-0.0011
2220.00,-0.0010
2219.75,-0.0008
2219.50,-0.0005
2219.25,-0.0003
2219.00,-0.0004
2218.75,-0.0008
2218.50,-0.0014
2218.25,-0.0020
2218.00,-0.0021
2217.75,-0.0019
2217.50,-0.0015
2217.25,-0.0011
2217.00,-0.0008
2216.75,-0.0007
2216.50,-0.0007
2216.25,-0.0006
2216.00,-0.0006
2215.75,-0.0006
2215.50,-0.0006
2215.25,-0.0006
2215.00,-0.0005
2214.75,-0.0004
2214.50,-0.0002
2214.25,-0.0000
2214.00,-0.0000
2213.75,-0.0001
2213.50,-0.0003
2213.25,-0.0006
2213.00,-0.0010
2212.75,-0.0014
2212.50,-0.0018
2212.25,-0.0020
2212.00,-0.0021
2211.75,-0.0019
2211.50,-0.0016
2211.25,-0.0012
2211.00,-0.0007
2210.75,-0.0004
2210.50,-0.0003
2210.25,-0.0004
2210.00,-0.0006
2209.75,-0.0008
2209.50,-0.0009
2209.25,-0.0009
2209.00,-0.0009
2208.75,-0.0010
2208.50,-0.0012
2208.25,-0.0015
2208.00,-0.0018
2207.75,-0.0021
2207.50,-0.0022
2207.25,-0.0020
2207.00,-0.0017
2206.75,-0.0015
2206.50,-0.0013
2206.25,-0.0012
2206.00,-0.0012
2205.75,-0.0013
2205.50,-0.0014
2205.25,-0.0014
2205.00,-0.0011
2204.75,-0.0007
2204.50,-0.0003
2204.25,-0.0001
2204.00,-0.0003
2203.75,-0.0007
2203.50,-0.0010
2203.25,-0.0011
2203.00,-0.0012
2202.75,-0.0013
2202.50,-0.0015
2202.25,-0.0016
2202.00,-0.0016
2201.75,-0.0014
2201.50,-0.0011
2201.25,-0.0009
2201.00,-0.0008
2200.75,-0.0010
2200.50,-0.0013
2200.25,-0.0014
2200.00,-0.0014
2199.75,-0.0012
2199.50,-0.0011
2199.25,-0.0012
2199.00,-0.0012
2198.75,-0.0013
2198.50,-0.0012
2198.25,-0.0012
2198.00,-0.0011
2197.75,-0.0012
2197.50,-0.0013
2197.25,-0.0015
2197.00,-0.0016
2196.75,-0.0016
2196.50,-0.0014
2196.25,-0.0012
2196.00,-0.0011
2195.75,-0.0010
2195.50,-0.0009
2195.25,-0.0007
2195.00,-0.0003
2194.75,-0.0000
2194.50,0.0001
2194.25,-0.0001
2194.00,-0.0004
2193.75,-0.0008
2193.50,-0.0012
2193.25,-0.0014
2193.00,-0.0016
2192.75,-0.0019
2192.50,-0.0022
2192.25,-0.0023
2192.00,-0.0020
2191.75,-0.0015
2191.50,-0.0009
2191.25,-0.0006
2191.00,-0.0005
2190.75,-0.0005
2190.50,-0.0006
2190.25,-0.0006
2190.00,-0.0006
2189.75,-0.0006
2189.50,-0.0005
2189.25,-0.0004
2189.00,-0.0003
2188.75,-0.0002
2188.50,-0.0002
2188.25,-0.0005
2188.00,-0.0011
2187.75,-0.0017
2187.50,-0.0023
2187.25,-0.0026
2187.00,-0.0026
2186.75,-0.0025
2186.50,-0.0022
2186.25,-0.0019
2186.00,-0.0017
2185.75,-0.0015
2185.50,-0.0014
2185.25,-0.0014
2185.00,-0.0014
2184.75,-0.0013
2184.50,-0.0012
2184.25,-0.0009
2184.00,-0.0005
2183.75,-0.0001
2183.50,0.0000
2183.25,-0.0000
2183.00,-0.0003
2182.75,-0.0005
2182.50,-0.0007
2182.25,-0.0009
2182.00,-0.0012
2181.75,-0.0016
2181.50,-0.0021
2181.25,-0.0024
2181.00,-0.0024
2180.75,-0.0020
2180.50,-0.0016
2180.25,-0.0014
2180.00,-0.0013
2179.75,-0.0014
2179.50,-0.0014
2179.25,-0.0013
2179.00,-0.0014
2178.75,-0.0014
2178.50,-0.0014
2178.25,-0.0012
2178.00,-0.0010
2177.75,-0.0007
2177.50,-0.0005
2177.25,-0.0005
2177.00,-0.0003
2176.75,0.0000
2176.50,0.0004
2176.25,0.0007
2176.00,0.0006
2175.75,0.0002
2175.50,-0.0003
2175.25,-0.0008
2175.00,-0.0011
2174.75,-0.0012
2174.50,-0.0014
2174.25,-0.0014
2174.00,-0.0015
2173.75,-0.0014
2173.50,-0.0014
2173.25,-0.0013
2173.00,-0.0013
2172.75,-0.0012
2172.50,-0.0010
2172.25,-0.0008
2172.00,-0.0006
2171.75,-0.0006
2171.50,-0.0006
2171.25,-0.0006
2171.00,-0.0006
2170.75,-0.0006
2170.50,-0.0008
2170.25,-0.0012
2170.00,-0.0015
2169.75,-0.0016
2169.50,-0.0014
2169.25,-0.0009
2169.00,-0.0004
2168.75,-0.0002
2168.50,-0.0003
2168.25,-0.0007
2168.00,-0.0011
2167.75,-0.0013
2167.50,-0.0013
2167.25,-0.0009
2167.00,-0.0005
2166.75,-0.0001
2166.50,0.0000
2166.25,-0.0003
2166.00,-0.0008
2165.75,-0.0012
2165.50,-0.0014
2165.25,-0.0013
2165.00,-0.0011
2164.75,-0.0009
2164.50,-0.0006
2164.25,-0.0004
2164.00,-0.0002
2163.75,-0.0002
2163.50,-0.0005
2163.25,-0.0008
2163.00,-0.0011
2162.75,-0.0013
2162.50,-0.0013
2162.25,-0.0013
2162.00,-0.0013
2161.75,-0.0013
2161.50,-0.0013
2161.25,-0.0015
2161.00,-0.0017
2160.75,-0.0021
2160.50,-0.0026
2160.25,-0.0028
2160.00,-0.0029
2159.75,-0.0029
2159.50,-0.0028
2159.25,-0.0026
2159.00,-0.0024
2158.75,-0.0020
2158.50,-0.0015
2158.25,-0.0010
2158.00,-0.0007
2157.75,-0.0007
2157.50,-0.0010
2157.25,-0.0013
2157.00,-0.0016
2156.75,-0.0018
2156.50,-0.0017
2156.25,-0.0017
2156.00,-0.0017
2155.75,-0.0017
2155.50,-0.0017
2155.25,-0.0016
2155.00,-0.0015
2154.75,-0.0014
2154.50,-0.0012
2154.25,-0.0010
2154.00,-0.0007
2153.75,-0.0003
2153.50,-0.0000
2153.25,0.0001
2153.00,0.0002
2152.75,0.0001
2152.50,-0.0002
2152.25,-0.0007
2152.00,-0.0012
2151.75,-0.0016
2151.50,-0.0018
2151.25,-0.0015
2151.00,-0.0010
2150.75,-0.0003
2150.50,0.0003
2150.25,0.0004
2150.00,0.0001
2149.75,-0.0004
2149.50,-0.0008
2149.25,-0.0010
2149.00,-0.0008
2148.75,-0.0005
2148.50,-0.0003
2148.25,-0.0003
2148.00,-0.0005
2147.75,-0.0009
2147.50,-0.0013
2147.25,-0.0017
2147.00,-0.0021
2146.75,-0.0022
2146.50,-0.0022
2146.25,-0.0020
2146.00,-0.0015
2145.75,-0.0009
2145.50,-0.0004
2145.25,-0.0001
2145.00,-0.0002
2144.75,-0.0006
2144.50,-0.0011
2144.25,-0.0014
2144.00,-0.0015
2143.75,-0.0014
2143.50,-0.0012
2143.25,-0.0009
2143.00,-0.0006
2142.75,-0.0003
2142.50,-0.0002
2142.25,-0.0002
2142.00,-0.0005
2141.75,-0.0009
2141.50,-0.0013
2141.25,-0.0016
2141.00,-0.0019
2140.75,-0.0020
2140.50,-0.0021
2140.25,-0.0019
2140.00,-0.0015
2139.75,-0.0012
2139.50,-0.0010
2139.25,-0.0010
2139.00,-0.0011
2138.75,-0.0013
2138.50,-0.0013
2138.25,-0.0011
2138.00,-0.0006
2137.75,-0.0002
2137.50,0.0001
2137.25,-0.0000
2137.00,-0.0004
2136.75,-0.0008
2136.50,-0.0011
2136.25,-0.0012
2136.00,-0.0013
2135.75,-0.0015
2135.50,-0.0017
2135.25,-0.0018
2135.00,-0.0018
2134.75,-0.0015
2134.50,-0.0010
2134.25,-0.0006
2134.00,-0.0002
2133.75,-0.0000
2133.50,-0.0001
2133.25,-0.0002
2133.00,-0.0002
2132.75,-0.0000
2132.50,0.0002
2132.25,0.0004
2132.00,0.0005
2131.75,0.0004
2131.50,0.0003
2131.25,-0.0000
2131.00,-0.0004
2130.75,-0.0009
2130.50,-0.0014
2130.25,-0.0018
2130.00,-0.0020
2129.75,-0.0019
2129.50,-0.0017
2129.25,-0.0014
2129.00,-0.0010
2128.75,-0.0006
2128.50,-0.0005
2128.25,-0.0005
2128.00,-0.0009
2127.75,-0.0013
2127.50,-0.0016
2127.25,-0.0017
2127.00,-0.0016
2126.75,-0.0014
2126.50,-0.0011
2126.25,-0.0010
2126.00,-0.0008
2125.75,-0.0007
2125.50,-0.0005
2125.25,-0.0004
2125.00,-0.0003
2124.75,-0.0003
2124.50,-0.0004
2124.25,-0.0005
2124.00,-0.0008
2123.75,-0.0011
2123.50,-0.0013
2123.25,-0.0014
2123.00,-0.0013
2122.75,-0.0009
2122.50,-0.0005
2122.25,-0.0001
2122.00,0.0002
2121.75,0.0004
2121.50,0.0005
2121.25,0.0005
2121.00,0.0004
2120.75,-0.0000
2120.50,-0.0006
2120.25,-0.0012
2120.00,-0.0016
2119.75,-0.0016
2119.50,-0.0013
2119.25,-0.0011
2119.00,-0.0011
2118.75,-0.0011
2118.50,-0.0011
2118.25,-0.0008
2118.00,-0.0004
2117.75,-0.0001
2117.50,-0.0002
2117.25,-0.0005
2117.00,-0.0010
2116.75,-0.0014
2116.50,-0.0015
2116.25,-0.0013
2116.00,-0.0009
2115.75,-0.0006
2115.50,-0.0004
2115.25,-0.0005
2115.00,-0.0008
2114.75,-0.0010
2114.50,-0.0010
2114.25,-0.0008
2114.00,-0.0005
2113.75,-0.0003
2113.50,-0.0002
2113.25,-0.0001
2113.00,-0.0000
2112.75,-0.0001
2112.50,-0.0004
2112.25,-0.0008
2112.00,-0.0012
2111.75,-0.0015
2111.50,-0.0015
2111.25,-0.0015
2111.00,-0.0015
2110.75,-0.0016
2110.50,-0.0017
2110.25,-0.0017
2110.00,-0.0016
2109.75,-0.0013
2109.50,-0.0010
2109.25,-0.0008
2109.00,-0.0007
2108.75,-0.0007
2108.50,-0.0006
2108.25,-0.0006
2108.00,-0.0006
2107.75,-0.0006
2107.50,-0.0008
2107.25,-0.0009
2107.00,-0.0009
2106.75,-0.0008
2106.50,-0.0005
2106.25,-0.0003
2106.00,-0.0001
2105.75,-0.0001
2105.50,-0.0001
2105.25,-0.0001
2105.00,-0.0000
2104.75,-0.0000
2104.50,-0.0001
2104.25,-0.0003
2104.00,-0.0005
2103.75,-0.0008
2103.50,-0.0010
2103.25,-0.0010
2103.00,-0.0008
2102.75,-0.0005
2102.50,-0.0002
2102.25,-0.0000
2102.00,0.0000
2101.75,-0.0000
2101.50,0.0000
2101.25,0.0001
2101.00,0.0002
2100.75,0.0001
2100.50,-0.0001
2100.25,-0.0004
2100.00,-0.0005
2099.75,-0.0005
2099.50,-0.0005
2099.25,-0.0006
2099.00,-0.0006
2098.75,-0.0007
2098.50,-0.0007
2098.25,-0.0006
2098.00,-0.0006
2097.75,-0.0006
2097.50,-0.0006
2097.25,-0.0005
2097.00,-0.0004
2096.75,-0.0003
2096.50,-0.0001
2096.25,-0.0000
2096.00,-0.0001
2095.75,-0.0003
2095.50,-0.0007
2095.25,-0.0009
2095.00,-0.0010
2094.75,-0.0011
2094.50,-0.0011
2094.25,-0.0011
2094.00,-0.0010
2093.75,-0.0008
2093.50,-0.0006
2093.25,-0.0004
2093.00,-0.0004
2092.75,-0.0004
2092.50,-0.0005
2092.25,-0.0006
2092.00,-0.0007
2091.75,-0.0008
2091.50,-0.0010
2091.25,-0.0012
2091.00,-0.0012
2090.75,-0.0010
2090.50,-0.0005
2090.25,0.0001
2090.00,0.0004
2089.75,0.0005
2089.50,0.0002
2089.25,-0.0002
2089.00,-0.0006
2088.75,-0.0009
2088.50,-0.0009
2088.25,-0.0010
2088.00,-0.0011
2087.75,-0.0013
2087.50,-0.0015
2087.25,-0.0014
2087.00,-0.0011
2086.75,-0.0006
2086.50,-0.0003
2086.25,-0.0001
2086.00,-0.0003
2085.75,-0.0005
2085.50,-0.0007
2085.25,-0.0008
2085.00,-0.0007
2084.75,-0.0007
2084.50,-0.0008
2084.25,-0.0011
2084.00,-0.0013
2083.75,-0.0014
2083.50,-0.0014
2083.25,-0.0013
2083.00,-0.0011
2082.75,-0.0010
2082.50,-0.0010
2082.25,-0.0010
2082.00,-0.0011
2081.75,-0.0011
2081.50,-0.0010
2081.25,-0.0009
2081.00,-0.0008
2080.75,-0.0006
2080.50,-0.0004
2080.25,-0.0002
2080.00,-0.0001
2079.75,-0.0002
2079.50,-0.0005
2079.25,-0.0008
2079.00,-0.0011
2078.75,-0.0012
2078.50,-0.0010
2078.25,-0.0008
2078.00,-0.0007
2077.75,-0.0007
2077.50,-0.0008
2077.25,-0.0009
2077.00,-0.0010
2076.75,-0.0011
2076.50,-0.0013
2076.25,-0.0014
2076.00,-0.0013
2075.75,-0.0012
2075.50,-0.0010
2075.25,-0.0009
2075.00,-0.0010
2074.75,-0.0012
2074.50,-0.0014
2074.25,-0.0014
2074.00,-0.0013
2073.75,-0.0011
2073.50,-0.0010
2073.25,-0.0009
2073.00,-0.0010
2072.75,-0.0012
2072.50,-0.0014
2072.25,-0.0016
2072.00,-0.0017
2071.75,-0.0016
2071.50,-0.0013
2071.25,-0.0011
2071.00,-0.0010
2070.75,-0.0011
2070.50,-0.0013
2070.25,-0.0013
2070.00,-0.0012
2069.75,-0.0010
2069.50,-0.0009
2069.25,-0.0008
2069.00,-0.0007
2068.75,-0.0007
2068.50,-0.0008
2068.25,-0.0009
2068.00,-0.0011
2067.75,-0.0011
2067.50,-0.0011
2067.25,-0.0012
2067.00,-0.0014
2066.75,-0.0016
2066.50,-0.0018
2066.25,-0.0019
2066.00,-0.0017
2065.75,-0.0013
2065.50,-0.0007
2065.25,-0.0001
2065.00,0.0002
2064.75,0.0002
2064.50,-0.0001
2064.25,-0.0003
2064.00,-0.0003
2063.75,-0.0002
2063.50,-0.0001
2063.25,-0.0002
2063.00,-0.0005
2062.75,-0.0011
2062.50,-0.0018
2062.25,-0.0022
2062.00,-0.0023
2061.75,-0.0021
2061.50,-0.0016
2061.25,-0.0012
2061.00,-0.0009
2060.75,-0.0007
2060.50,-0.0005
2060.25,-0.0003
2060.00,-0.0002
2059.75,-0.0004
2059.50,-0.0008
2059.25,-0.0012
2059.00,-0.0013
2058.75,-0.0013
2058.50,-0.0010
2058.25,-0.0006
2058.00,-0.0003
2057.75,-0.0003
2057.50,-0.0005
2057.25,-0.0009
2057.00,-0.0013
2056.75,-0.0015
2056.50,-0.0014
2056.25,-0.0011
2056.00,-0.0006
2055.75,-0.0003
2055.50,-0.0004
2055.25,-0.0007
2055.00,-0.0011
2054.75,-0.0012
2054.50,-0.0011
2054.25,-0.0008
2054.00,-0.0004
2053.75,-0.0002
2053.50,-0.0001
2053.25,-0.0001
2053.00,-0.0001
2052.75,-0.0001
2052.50,-0.0001
2052.25,-0.0003
2052.00,-0.0005
2051.75,-0.0009
2051.50,-0.0011
2051.25,-0.0012
2051.00,-0.0011
2050.75,-0.0010
2050.50,-0.0008
2050.25,-0.0006
2050.00,-0.0006
2049.75,-0.0007
2049.50,-0.0008
2049.25,-0.0009
2049.00,-0.0009
2048.75,-0.0008
2048.50,-0.0008
2048.25,-0.0008
2048.00,-0.0010
2047.75,-0.0012
2047.50,-0.0015
2047.25,-0.0017
2047.00,-0.0018
2046.75,-0.0017
2046.50,-0.0015
2046.25,-0.0013
2046.00,-0.0012
2045.75,-0.0015
2045.50,-0.0019
2045.25,-0.0024
2045.00,-0.0026
2044.75,-0.0023
2044.50,-0.0018
2044.25,-0.0013
2044.00,-0.0012
2043.75,-0.0014
2043.50,-0.0017
2043.25,-0.0020
2043.00,-0.0021
2042.75,-0.0022
2042.50,-0.0022
2042.25,-0.0021
2042.00,-0.0020
2041.75,-0.0018
2041.50,-0.0017
2041.25,-0.0018
2041.00,-0.0021
2040.75,-0.0026
2040.50,-0.0031
2040.25,-0.0032
2040.00,-0.0028
2039.75,-0.0022
2039.50,-0.0014
2039.25,-0.0009
2039.00,-0.0008
2038.75,-0.0011
2038.50,-0.0015
2038.25,-0.0018
2038.00,-0.0019
2037.75,-0.0018
2037.50,-0.0017
2037.25,-0.0017
2037.00,-0.0018
2036.75,-0.0020
2036.50,-0.0023
2036.25,-0.0025
2036.00,-0.0026
2035.75,-0.0026
2035.50,-0.0024
2035.25,-0.0020
2035.00,-0.0016
2034.75,-0.0012
2034.50,-0.0011
2034.25,-0.0012
2034.00,-0.0015
2033.75,-0.0017
2033.50,-0.0019
2033.25,-0.0020
2033.00,-0.0020
2032.75,-0.0021
2032.50,-0.0020
2032.25,-0.0019
2032.00,-0.0018
2031.75,-0.0019
2031.50,-0.0023
2031.25,-0.0027
2031.00,-0.0030
2030.75,-0.0031
2030.50,-0.0030
2030.25,-0.0027
2030.00,-0.0023
2029.75,-0.0020
2029.50,-0.0018
2029.25,-0.0018
2029.00,-0.0022
2028.75,-0.0028
2028.50,-0.0034
2028.25,-0.0037
2028.00,-0.0037
2027.75,-0.0034
2027.50,-0.0028
2027.25,-0.0021
2027.00,-0.0014
2026.75,-0.0010
2026.50,-0.0010
2026.25,-0.0013
2026.00,-0.0017
2025.75,-0.0021
2025.50,-0.0024
2025.25,-0.0025
2025.00,-0.0024
2024.75,-0.0022
2024.50,-0.0019
2024.25,-0.0015
2024.00,-0.0012
2023.75,-0.0011
2023.50,-0.0015
2023.25,-0.0020
2023.00,-0.0027
2022.75,-0.0034
2022.50,-0.0039
2022.25,-0.0041
2022.00,-0.0039
2021.75,-0.0034
2021.50,-0.0026
2021.25,-0.0019
2021.00,-0.0014
2020.75,-0.0010
2020.50,-0.0006
2020.25,-0.0003
2020.00,-0.0002
2019.75,-0.0005
2019.50,-0.0010
2019.25,-0.0016
2019.00,-0.0019
2018.75,-0.0019
2018.50,-0.0019
2018.25,-0.0017
2018.00,-0.0014
2017.75,-0.0011
2017.50,-0.0009
2017.25,-0.0007
2017.00,-0.0007
2016.75,-0.0008
2016.50,-0.0010
2016.25,-0.0014
2016.00,-0.0018
2015.75,-0.0022
2015.50,-0.0025
2015.25,-0.0026
2015.00,-0.0025
2014.75,-0.0021
2014.50,-0.0018
2014.25,-0.0014
2014.00,-0.0012
2013.75,-0.0010
2013.50,-0.0011
2013.25,-0.0013
2013.00,-0.0015
2012.75,-0.0015
2012.50,-0.0013
2012.25,-0.0009
2012.00,-0.0007
2011.75,-0.0007
2011.50,-0.0009
2011.25,-0.0010
2011.00,-0.0011
2010.75,-0.0011
2010.50,-0.0011
2010.25,-0.0011
2010.00,-0.0009
2009.75,-0.0008
2009.50,-0.0007
2009.25,-0.0005
2009.00,-0.0004
2008.75,-0.0004
2008.50,-0.0005
2008.25,-0.0007
2008.00,-0.0008
2007.75,-0.0006
2007.50,-0.0004
2007.25,-0.0003
2007.00,-0.0005
2006.75,-0.0009
2006.50,-0.0013
2006.25,-0.0014
2006.00,-0.0013
2005.75,-0.0010
2005.50,-0.0007
2005.25,-0.0005
2005.00,-0.0004
2004.75,-0.0003
2004.50,-0.0003
2004.25,-0.0003
2004.00,-0.0004
2003.75,-0.0005
2003.50,-0.0005
2003.25,-0.0003
2003.00,-0.0001
2002.75,0.0001
2002.50,-0.0000
2002.25,-0.0004
2002.00,-0.0009
2001.75,-0.0014
2001.50,-0.0017
2001.25,-0.0017
2001.00,-0.0015
2000.75,-0.0012
2000.50,-0.0009
2000.25,-0.0006
2000.00,-0.0004
1999.75,-0.0002
1999.50,0.0001
1999.25,0.0004
1999.00,0.0007
1998.75,0.0009
1998.50,0.0010
1998.25,0.0010
1998.00,0.0008
1997.75,0.0005
1997.50,0.0001
1997.25,-0.0002
1997.00,-0.0004
1996.75,-0.0004
1996.50,-0.0003
1996.25,-0.0001
1996.00,-0.0000
1995.75,-0.0001
1995.50,-0.0004
1995.25,-0.0008
1995.00,-0.0011
1994.75,-0.0012
1994.50,-0.0008
1994.25,-0.0004
1994.00,-0.0000
1993.75,0.0000
1993.50,-0.0002
1993.25,-0.0004
1993.00,-0.0006
1992.75,-0.0007
1992.50,-0.0009
1992.25,-0.0010
1992.00,-0.0010
1991.75,-0.0009
1991.50,-0.0006
1991.25,-0.0003
1991.00,0.0001
1990.75,0.0002
1990.50,0.0002
1990.25,0.0001
1990.00,-0.0001
1989.75,-0.0002
1989.50,-0.0002
1989.25,-0.0003
1989.00,-0.0004
1988.75,-0.0006
1988.50,-0.0007
1988.25,-0.0006
1988.00,-0.0005
1987.75,-0.0003
1987.50,-0.0001
1987.25,0.0001
1987.00,0.0003
1986.75,0.0003
1986.50,0.0002
1986.25,0.0002
1986.00,0.0002
1985.75,0.0005
1985.50,0.0008
1985.25,0.0011
1985.00,0.0012
1984.75,0.0010
1984.50,0.0008
1984.25,0.0007
1984.00,0.0007
1983.75,0.0007
1983.50,0.0006
1983.25,0.0004
1983.00,0.0001
1982.75,-0.0000
1982.50,0.0000
1982.25,-0.0000
1982.00,-0.0002
1981.75,-0.0006
1981.50,-0.0010
1981.25,-0.0013
1981.00,-0.0013
1980.75,-0.0010
1980.50,-0.0007
1980.25,-0.0004
1980.00,-0.0003
1979.75,-0.0001
1979.50,0.0002
1979.25,0.0007
1979.00,0.0013
1978.75,0.0017
1978.50,0.0017
1978.25,0.0013
1978.00,0.0008
1977.75,0.0002
1977.50,-0.0003
1977.25,-0.0005
1977.00,-0.0005
1976.75,-0.0001
1976.50,0.0003
1976.25,0.0008
1976.00,0.0011
1975.75,0.0011
1975.50,0.0009
1975.25,0.0007
1975.00,0.0005
1974.75,0.0003
1974.50,0.0003
1974.25,0.0002
1974.00,0.0002
1973.75,0.0001
1973.50,0.0003
1973.25,0.0006
1973.00,0.0010
1972.75,0.0012
1972.50,0.0012
1972.25,0.0010
1972.00,0.0007
1971.75,0.0005
1971.50,0.0007
1971.25,0.0009
1971.00,0.0011
1970.75,0.0011
1970.50,0.0009
1970.25,0.0006
1970.00,0.0003
1969.75,0.0001
1969.50,-0.0001
1969.25,-0.0003
1969.00,-0.0004
1968.75,-0.0003
1968.50,0.0001
1968.25,0.0006
1968.00,0.0010
1967.75,0.0011
1967.50,0.0011
1967.25,0.0009
1967.00,0.0008
1966.75,0.0009
1966.50,0.0009
1966.25,0.0009
1966.00,0.0006
1965.75,0.0002
1965.50,-0.0001
1965.25,-0.0001
1965.00,0.0002
1964.75,0.0005
1964.50,0.0008
1964.25,0.0008
1964.00,0.0005
1963.75,0.0002
1963.50,-0.0001
1963.25,-0.0005
1963.00,-0.0007
1962.75,-0.0007
1962.50,-0.0005
1962.25,-0.0002
1962.00,0.0001
1961.75,0.0002
1961.50,0.0000
1961.25,-0.0002
1961.00,-0.0004
1960.75,-0.0003
1960.50,0.0001
1960.25,0.0007
1960.00,0.0013
1959.75,0.0018
1959.50,0.0020
1959.25,0.0020
1959.00,0.0020
1958.75,0.0020
1958.50,0.0018
1958.25,0.0012
1958.00,0.0005
1957.75,-0.0002
1957.50,-0.0005
1957.25,-0.0003
1957.00,0.0001
1956.75,0.0004
1956.50,0.0006
1956.25,0.0006
1956.00,0.0008
1955.75,0.0011
1955.50,0.0014
1955.25,0.0016
1955.00,0.0017
1954.75,0.0015
1954.50,0.0012
1954.25,0.0008
1954.00,0.0003
1953.75,-0.0001
1953.50,-0.0002
1953.25,0.0000
1953.00,0.0005
1952.75,0.0009
1952.50,0.0011
1952.25,0.0009
1952.00,0.0005
1951.75,0.0001
1951.50,-0.0001
1951.25,-0.0002
1951.00,-0.0001
1950.75,0.0002
1950.50,0.0005
1950.25,0.0007
1950.00,0.0007
1949.75,0.0006
1949.50,0.0004
1949.25,0.0002
1949.00,0.0001
1948.75,0.0002
1948.50,0.0003
1948.25,0.0004
1948.00,0.0004
1947.75,0.0005
1947.50,0.0008
1947.25,0.0011
1947.00,0.0013
1946.75,0.0014
1946.50,0.0013
1946.25,0.0014
1946.00,0.0016
1945.75,0.0018
1945.50,0.0018
1945.25,0.0016
1945.00,0.0013
1944.75,0.0011
1944.50,0.0009
1944.25,0.0009
1944.00,0.0009
1943.75,0.0008
1943.50,0.0007
1943.25,0.0007
1943.00,0.0009
1942.75,0.0013
1942.50,0.0018
1942.25,0.0020
1942.00,0.0020
1941.75,0.0018
1941.50,0.0017
1941.25,0.0016
1941.00,0.0015
1940.75,0.0014
1940.50,0.0012
1940.25,0.0011
1940.00,0.0009
1939.75,0.0006
1939.50,0.0003
1939.25,0.0002
1939.00,0.0005
1938.75,0.0011
1938.50,0.0018
1938.25,0.0024
1938.00,0.0026
1937.75,0.0025
1937.50,0.0020
1937.25,0.0015
1937.00,0.0011
1936.75,0.0007
1936.50,0.0004
1936.25,0.0002
1936.00,0.0002
1935.75,0.0002
1935.50,0.0001
1935.25,0.0001
1935.00,0.0001
1934.75,0.0003
1934.50,0.0006
1934.25,0.0007
1934.00,0.0006
1933.75,0.0004
1933.50,0.0001
1933.25,0.0001
1933.00,0.0002
1932.75,0.0004
1932.50,0.0006
1932.25,0.0007
1932.00,0.0008
1931.75,0.0010
1931.50,0.0011
1931.25,0.0011
1931.00,0.0011
1930.75,0.0011
1930.50,0.0009
1930.25,0.0008
1930.00,0.0005
1929.75,0.0004
1929.50,0.0005
1929.25,0.0007
1929.00,0.0011
1928.75,0.0014
1928.50,0.0016
1928.25,0.0016
1928.00,0.0015
1927.75,0.0014
1927.50,0.0014
1927.25,0.0014
1927.00,0.0014
1926.75,0.0014
1926.50,0.0013
1926.25,0.0012
1926.00,0.0010
1925.75,0.0008
1925.50,0.0007
1925.25,0.0006
1925.00,0.0007
1924.75,0.0008
1924.50,0.0011
1924.25,0.0014
1924.00,0.0017
1923.75,0.0019
1923.50,0.0020
1923.25,0.0019
1923.00,0.0017
1922.75,0.0013
1922.50,0.0009
1922.25,0.0005
1922.00,0.0003
1921.75,0.0002
1921.50,0.0003
1921.25,0.0004
1921.00,0.0006
1920.75,0.0008
1920.50,0.0009
1920.25,0.0009
1920.00,0.0010
1919.75,0.0010
1919.50,0.0011
1919.25,0.0012
1919.00,0.0012
1918.75,0.0011
1918.50,0.0010
1918.25,0.0010
1918.00,0.0011
1917.75,0.0011
1917.50,0.0010
1917.25,0.0007
1917.00,0.0004
1916.75,0.0003
1916.50,0.0004
1916.25,0.0005
1916.00,0.0005
1915.75,0.0004
1915.50,0.0003
1915.25,0.0003
1915.00,0.0005
1914.75,0.0007
1914.50,0.0009
1914.25,0.0009
1914.00,0.0009
1913.75,0.0008
1913.50,0.0009
1913.25,0.0010
1913.00,0.0011
1912.75,0.0012
1912.50,0.0013
1912.25,0.0014
1912.00,0.0016
1911.75,0.0018
1911.50,0.0018
1911.25,0.0017
1911.00,0.0014
1910.75,0.0011
1910.50,0.0008
1910.25,0.0006
1910.00,0.0005
1909.75,0.0003
1909.50,0.0003
1909.25,0.0005
1909.00,0.0007
1908.75,0.0010
1908.50,0.0013
1908.25,0.0016
1908.00,0.0018
1907.75,0.0018
1907.50,0.0016
1907.25,0.0013
1907.00,0.0011
1906.75,0.0009
1906.50,0.0008
1906.25,0.0006
1906.00,0.0004
1905.75,0.0003
1905.50,0.0003
1905.25,0.0005
1905.00,0.0007
1904.75,0.0008
1904.50,0.0007
1904.25,0.0007
1904.00,0.0007
1903.75,0.0008
1903.50,0.0009
1903.25,0.0011
1903.00,0.0011
1902.75,0.0010
1902.50,0.0009
1902.25,0.0007
1902.00,0.0004
1901.75,0.0002
1901.50,-0.0000
1901.25,-0.0001
1901.00,0.0001
1900.75,0.0004
1900.50,0.0008
1900.25,0.0012
1900.00,0.0014
1899.75,0.0015
1899.50,0.0014
1899.25,0.0012
1899.00,0.0010
1898.75,0.0008
1898.50,0.0007
1898.25,0.0007
1898.00,0.0008
1897.75,0.0008
1897.50,0.0008
1897.25,0.0007
1897.00,0.0007
1896.75,0.0007
1896.50,0.0008
1896.25,0.0009
1896.00,0.0010
1895.75,0.0010
1895.50,0.0010
1895.25,0.0009
1895.00,0.0007
1894.75,0.0005
1894.50,0.0005
1894.25,0.0006
1894.00,0.0009
1893.75,0.0012
1893.50,0.0014
1893.25,0.0014
1893.00,0.0012
1892.75,0.0010
1892.50,0.0008
1892.25,0.0007
1892.00,0.0008
1891.75,0.0010
1891.50,0.0011
1891.25,0.0011
1891.00,0.0009
1890.75,0.0006
1890.50,0.0004
1890.25,0.0002
1890.00,0.0002
1889.75,0.0002
1889.50,0.0003
1889.25,0.0003
1889.00,0.0004
1888.75,0.0006
1888.50,0.0008
1888.25,0.0010
1888.00,0.0011
1887.75,0.0010
1887.50,0.0009
1887.25,0.0006
1887.00,0.0005
1886.75,0.0004
1886.50,0.0006
1886.25,0.0010
1886.00,0.0013
1885.75,0.0015
1885.50,0.0014
1885.25,0.0013
1885.00,0.0010
1884.75,0.0008
1884.50,0.0006
1884.25,0.0005
1884.00,0.0005
1883.75,0.0004
1883.50,0.0003
1883.25,0.0001
1883.00,0.0000
1882.75,0.0001
1882.50,0.0004
1882.25,0.0007
1882.00,0.0010
1881.75,0.0012
1881.50,0.0013
1881.25,0.0013
1881.00,0.0012
1880.75,0.0011
1880.50,0.0010
1880.25,0.0010
1880.00,0.0010
1879.75,0.0010
1879.50,0.0011
1879.25,0.0012
1879.00,0.0013
1878.75,0.0014
1878.50,0.0014
1878.25,0.0015
1878.00,0.0015
1877.75,0.0016
1877.50,0.0016
1877.25,0.0013
1877.00,0.0009
1876.75,0.0004
1876.50,0.0002
1876.25,0.0001
1876.00,0.0003
1875.75,0.0004
1875.50,0.0005
1875.25,0.0005
1875.00,0.0006
1874.75,0.0007
1874.50,0.0007
1874.25,0.0006
1874.00,0.0005
1873.75,0.0004
1873.50,0.0004
1873.25,0.0005
1873.00,0.0006
1872.75,0.0007
1872.50,0.0007
1872.25,0.0006
1872.00,0.0005
1871.75,0.0004
1871.50,0.0004
1871.25,0.0005
1871.00,0.0008
1870.75,0.0011
1870.50,0.0013
1870.25,0.0012
1870.00,0.0010
1869.75,0.0008
1869.50,0.0008
1869.25,0.0008
1869.00,0.0009
1868.75,0.0009
1868.50,0.0007
1868.25,0.0003
1868.00,-0.0000
1867.75,-0.0002
1867.50,-0.0001
1867.25,0.0001
1867.00,0.0003
1866.75,0.0005
1866.50,0.0006
1866.25,0.0006
1866.00,0.0006
1865.75,0.0006
1865.50,0.0006
1865.25,0.0007
1865.00,0.0008
1864.75,0.0009
1864.50,0.0010
1864.25,0.0010
1864.00,0.0010
1863.75,0.0010
1863.50,0.0011
1863.25,0.0013
1863.00,0.0015
1862.75,0.0016
1862.50,0.0016
1862.25,0.0014
1862.00,0.0012
1861.75,0.0009
1861.50,0.0007
1861.25,0.0005
1861.00,0.0005
1860.75,0.0006
1860.50,0.0007
1860.25,0.0008
1860.00,0.0008
1859.75,0.0010
1859.50,0.0012
1859.25,0.0014
1859.00,0.0017
1858.75,0.0018
1858.50,0.0017
1858.25,0.0015
1858.00,0.0011
1857.75,0.0008
1857.50,0.0005
1857.25,0.0003
1857.00,0.0003
1856.75,0.0003
1856.50,0.0005
1856.25,0.0006
1856.00,0.0008
1855.75,0.0009
1855.50,0.0010
1855.25,0.0012
1855.00,0.0014
1854.75,0.0015
1854.50,0.0015
1854.25,0.0014
1854.00,0.0012
1853.75,0.0009
1853.50,0.0007
1853.25,0.0006
1853.00,0.0006
1852.75,0.0006
1852.50,0.0007
1852.25,0.0007
1852.00,0.0007
1851.75,0.0007
1851.50,0.0007
1851.25,0.0008
1851.00,0.0010
1850.75,0.0011
1850.50,0.0012
1850.25,0.0011
1850.00,0.0010
1849.75,0.0009
1849.50,0.0008
1849.25,0.0007
1849.00,0.0008
1848.75,0.0010
1848.50,0.0012
1848.25,0.0013
1848.00,0.0013
1847.75,0.0012
1847.50,0.0009
1847.25,0.0007
1847.00,0.0006
1846.75,0.0006
1846.50,0.0007
1846.25,0.0008
1846.00,0.0009
1845.75,0.0010
1845.50,0.0011
1845.25,0.0011
1845.00,0.0011
1844.75,0.0011
1844.50,0.0013
1844.25,0.0015
1844.00,0.0016
1843.75,0.0015
1843.50,0.0014
1843.25,0.0013
1843.00,0.0012
1842.75,0.0010
1842.50,0.0007
1842.25,0.0006
1842.00,0.0006
1841.75,0.0007
1841.50,0.0009
1841.25,0.0010
1841.00,0.0011
1840.75,0.0011
1840.50,0.0012
1840.25,0.0012
1840.00,0.0012
1839.75,0.0012
1839.50,0.0012
1839.25,0.0011
1839.00,0.0009
1838.75,0.0008
1838.50,0.0007
1838.25,0.0008
1838.00,0.0008
1837.75,0.0009
1837.50,0.0009
1837.25,0.0009
1837.00,0.0009
1836.75,0.0009
1836.50,0.0009
1836.25,0.0009
1836.00,0.0008
1835.75,0.0008
1835.50,0.0008
1835.25,0.0009
1835.00,0.0010
1834.75,0.0012
1834.50,0.0012
1834.25,0.0011
1834.00,0.0011
1833.75,0.0011
1833.50,0.0013
1833.25,0.0014
1833.00,0.0014
1832.75,0.0014
1832.50,0.0013
1832.25,0.0012
1832.00,0.0012
1831.75,0.0013
1831.50,0.0014
1831.25,0.0015
1831.00,0.0016
1830.75,0.0016
1830.50,0.0017
1830.25,0.0016
1830.00,0.0016
1829.75,0.0016
1829.50,0.0015
1829.25,0.0014
1829.00,0.0012
1828.75,0.0010
1828.50,0.0008
1828.25,0.0007
1828.00,0.0006
1827.75,0.0006
1827.50,0.0006
1827.25,0.0006
1827.00,0.0008
1826.75,0.0009
1826.50,0.0010
1826.25,0.0011
1826.00,0.0011
1825.75,0.0011
1825.50,0.0011
1825.25,0.0011
1825.00,0.0011
1824.75,0.0012
1824.50,0.0013
1824.25,0.0013
1824.00,0.0013
1823.75,0.0012
1823.50,0.0011
1823.25,0.0010
1823.00,0.0010
1822.75,0.0012
1822.50,0.0015
1822.25,0.0018
1822.00,0.0019
1821.75,0.0018
1821.50,0.0016
1821.25,0.0014
1821.00,0.0013
1820.75,0.0013
1820.50,0.0013
1820.25,0.0013
1820.00,0.0011
1819.75,0.0010
1819.50,0.0009
1819.25,0.0009
1819.00,0.0011
1818.75,0.0012
1818.50,0.0012
1818.25,0.0012
1818.00,0.0011
1817.75,0.0009
1817.50,0.0008
1817.25,0.0008
1817.00,0.0009
1816.75,0.0010
1816.50,0.0011
1816.25,0.0011
1816.00,0.0012
1815.75,0.0013
1815.50,0.0013
1815.25,0.0013
1815.00,0.0013
1814.75,0.0011
1814.50,0.0010
1814.25,0.0009
1814.00,0.0009
1813.75,0.0011
1813.50,0.0013
1813.25,0.0014
1813.00,0.0015
1812.75,0.0014
1812.50,0.0012
1812.25,0.0012
1812.00,0.0012
1811.75,0.0012
1811.50,0.0013
1811.25,0.0012
1811.00,0.0011
1810.75,0.0011
1810.50,0.0012
1810.25,0.0013
1810.00,0.0013
1809.75,0.0013
1809.50,0.0013
1809.25,0.0013
1809.00,0.0014
1808.75,0.0013
1808.50,0.0012
1808.25,0.0010
1808.00,0.0009
1807.75,0.0009
1807.50,0.0010
1807.25,0.0011
1807.00,0.0011
1806.75,0.0012
1806.50,0.0012
1806.25,0.0013
1806.00,0.0013
1805.75,0.0013
1805.50,0.0013
1805.25,0.0012
1805.00,0.0011
1804.75,0.0010
1804.50,0.0009
1804.25,0.0009
1804.00,0.0010
1803.75,0.0011
1803.50,0.0011
1803.25,0.0011
1803.00,0.0010
1802.75,0.0010
1802.50,0.0011
1802.25,0.0013
1802.00,0.0015
1801.75,0.0015
1801.50,0.0015
1801.25,0.0013
1801.00,0.0012
1800.75,0.0011
1800.50,0.0010
1800.25,0.0010
1800.00,0.0011
1799.75,0.0013
1799.50,0.0014
1799.25,0.0015
1799.00,0.0015
1798.75,0.0014
1798.50,0.0014
1798.25,0.0014
1798.00,0.0015
1797.75,0.0015
1797.50,0.0015
1797.25,0.0015
1797.00,0.0014
1796.75,0.0012
1796.50,0.0011
1796.25,0.0010
1796.00,0.0009
1795.75,0.0008
1795.50,0.0009
1795.25,0.0011
1795.00,0.0012
1794.75,0.0012
1794.50,0.0012
1794.25,0.0012
1794.00,0.0012
1793.75,0.0012
1793.50,0.0011
1793.25,0.0010
1793.00,0.0011
1792.75,0.0013
1792.50,0.0016
1792.25,0.0018
1792.00,0.0019
1791.75,0.0018
1791.50,0.0017
1791.25,0.0015
1791.00,0.0014
1790.75,0.0014
1790.50,0.0013
1790.25,0.0013
1790.00,0.0013
1789.75,0.0013
1789.50,0.0014
1789.25,0.0015
1789.00,0.0015
1788.75,0.0015
1788.50,0.0015
1788.25,0.0014
1788.00,0.0014
1787.75,0.0014
1787.50,0.0014
1787.25,0.0014
1787.00,0.0014
1786.75,0.0014
1786.50,0.0014
1786.25,0.0014
1786.00,0.0014
1785.75,0.0015
1785.50,0.0016
1785.25,0.0016
1785.00,0.0016
1784.75,0.0015
1784.50,0.0013
1784.25,0.0013
1784.00,0.0013
1783.75,0.0014
1783.50,0.0015
1783.25,0.0016
1783.00,0.0015
1782.75,0.0014
1782.50,0.0014
1782.25,0.0014
1782.00,0.0014
1781.75,0.0015
1781.50,0.0015
1781.25,0.0014
1781.00,0.0014
1780.75,0.0016
1780.50,0.0017
1780.25,0.0018
1780.00,0.0017
1779.75,0.0015
1779.50,0.0014
1779.25,0.0013
1779.00,0.0013
1778.75,0.0014
1778.50,0.0014
1778.25,0.0015
1778.00,0.0016
1777.75,0.0016
1777.50,0.0016
1777.25,0.0016
1777.00,0.0016
1776.75,0.0015
1776.50,0.0015
1776.25,0.0015
1776.00,0.0016
1775.75,0.0016
1775.50,0.0016
1775.25,0.0015
1775.00,0.0013
1774.75,0.0012
1774.50,0.0012
1774.25,0.0013
1774.00,0.0014
1773.75,0.0015
1773.50,0.0015
1773.25,0.0014
1773.00,0.0013
1772.75,0.0013
1772.50,0.0014
1772.25,0.0015
1772.00,0.0015
1771.75,0.0015
1771.50,0.0014
1771.25,0.0013
1771.00,0.0013
1770.75,0.0015
1770.50,0.0016
1770.25,0.0016
1770.00,0.0017
1769.75,0.0017
1769.50,0.0016
1769.25,0.0016
1769.00,0.0015
1768.75,0.0015
1768.50,0.0013
1768.25,0.0012
1768.00,0.0011
1767.75,0.0011
1767.50,0.0012
1767.25,0.0012
1767.00,0.0013
1766.75,0.0013
1766.50,0.0013
1766.25,0.0014
1766.00,0.0014
1765.75,0.0015
1765.50,0.0015
1765.25,0.0016
1765.00,0.0016
1764.75,0.0016
1764.50,0.0016
1764.25,0.0016
1764.00,0.0016
1763.75,0.0016
1763.50,0.0017
1763.25,0.0017
1763.00,0.0017
1762.75,0.0018
1762.50,0.0017
1762.25,0.0016
1762.00,0.0014
1761.75,0.0012
1761.50,0.0012
1761.25,0.0013
1761.00,0.0014
1760.75,0.0015
1760.50,0.0015
1760.25,0.0016
1760.00,0.0016
1759.75,0.0016
1759.50,0.0016
1759.25,0.0016
1759.00,0.0016
1758.75,0.0015
1758.50,0.0014
1758.25,0.0013
1758.00,0.0013
1757.75,0.0014
1757.50,0.0016
1757.25,0.0018
1757.00,0.0020
1756.75,0.0021
1756.50,0.0020
1756.25,0.0018
1756.00,0.0017
1755.75,0.0016
1755.50,0.0015
1755.25,0.0015
1755.00,0.0016
1754.75,0.0016
1754.50,0.0016
1754.25,0.0016
1754.00,0.0016
1753.75,0.0016
1753.50,0.0016
1753.25,0.0016
1753.00,0.0015
1752.75,0.0015
1752.50,0.0016
1752.25,0.0016
1752.00,0.0017
1751.75,0.0017
1751.50,0.0019
1751.25,0.0020
1751.00,0.0018
1750.75,0.0016
1750.50,0.0015
1750.25,0.0014
1750.00,0.0014
1749.75,0.0015
1749.50,0.0015
1749.25,0.0016
1749.00,0.0017
1748.75,0.0018
1748.50,0.0018
1748.25,0.0018
1748.00,0.0017
1747.75,0.0017
1747.50,0.0018
1747.25,0.0018
1747.00,0.0017
1746.75,0.0017
1746.50,0.0016
1746.25,0.0016
1746.00,0.0016
1745.75,0.0016
1745.50,0.0016
1745.25,0.0016
1745.00,0.0016
1744.75,0.0017
1744.50,0.0017
1744.25,0.0017
1744.00,0.0017
1743.75,0.0018
1743.50,0.0018
1743.25,0.0018
1743.00,0.0017
1742.75,0.0015
1742.50,0.0015
1742.25,0.0015
1742.00,0.0015
1741.75,0.0016
1741.50,0.0017
1741.25,0.0017
1741.00,0.0018
1740.75,0.0018
1740.50,0.0017
1740.25,0.0015
1740.00,0.0013
1739.75,0.0012
1739.50,0.0012
1739.25,0.0014
1739.00,0.0015
1738.75,0.0015
1738.50,0.0015
1738.25,0.0015
1738.00,0.0016
1737.75,0.0016
1737.50,0.0016
1737.25,0.0016
1737.00,0.0017
1736.75,0.0017
1736.50,0.0018
1736.25,0.0019
1736.00,0.0020
1735.75,0.0020
1735.50,0.0020
1735.25,0.0018
1735.00,0.0017
1734.75,0.0015
1734.50,0.0014
1734.25,0.0016
1734.00,0.0018
1733.75,0.0019
1733.50,0.0018
1733.25,0.0016
1733.00,0.0015
1732.75,0.0014
1732.50,0.0015
1732.25,0.0016
1732.00,0.0017
1731.75,0.0017
1731.50,0.0018
1731.25,0.0018
1731.00,0.0019
1730.75,0.0019
1730.50,0.0019
1730.25,0.0019
1730.00,0.0018
1729.75,0.0018
1729.50,0.0018
1729.25,0.0018
1729.00,0.0020
1728.75,0.0021
1728.50,0.0022
1728.25,0.0022
1728.00,0.0021
1727.75,0.0019
1727.50,0.0017
1727.25,0.0017
1727.00,0.0017
1726.75,0.0017
1726.50,0.0018
1726.25,0.0018
1726.00,0.0018
1725.75,0.0017
1725.50,0.0017
1725.25,0.0017
1725.00,0.0017
1724.75,0.0017
1724.50,0.0017
1724.25,0.0016
1724.00,0.0016
1723.75,0.0016
1723.50,0.0017
1723.25,0.0017
1723.00,0.0018
1722.75,0.0018
1722.50,0.0018
1722.25,0.0019
1722.00,0.0019
1721.75,0.0020
1721.50,0.0020
1721.25,0.0020
1721.00,0.0020
1720.75,0.0020
1720.50,0.0020
1720.25,0.0019
1720.00,0.0018
1719.75,0.0017
1719.50,0.0016
1719.25,0.0017
1719.00,0.0019
1718.75,0.0021
1718.50,0.0023
1718.25,0.0023
1718.00,0.0020
1717.75,0.0016
1717.50,0.0011
1717.25,0.0009
1717.00,0.0011
1716.75,0.0014
1716.50,0.0018
1716.25,0.0021
1716.00,0.0023
1715.75,0.0025
1715.50,0.0026
1715.25,0.0025
1715.00,0.0022
1714.75,0.0018
1714.50,0.0015
1714.25,0.0015
1714.00,0.0017
1713.75,0.0018
1713.50,0.0019
1713.25,0.0018
1713.00,0.0017
1712.75,0.0017
1712.50,0.0017
1712.25,0.0018
1712.00,0.0019
1711.75,0.0020
1711.50,0.0021
1711.25,0.0022
1711.00,0.0022
1710.75,0.0021
1710.50,0.0019
1710.25,0.0017
1710.00,0.0017
1709.75,0.0018
1709.50,0.0019
1709.25,0.0020
1709.00,0.0020
1708.75,0.0018
1708.50,0.0017
1708.25,0.0015
1708.00,0.0014
1707.75,0.0014
1707.50,0.0015
1707.25,0.0016
1707.00,0.0017
1706.75,0.0018
1706.50,0.0018
1706.25,0.0018
1706.00,0.0018
1705.75,0.0019
1705.50,0.0020
1705.25,0.0021
1705.00,0.0021
1704.75,0.0021
1704.50,0.0020
1704.25,0.0020
1704.00,0.0021
1703.75,0.0021
1703.50,0.0022
1703.25,0.0022
1703.00,0.0022
1702.75,0.0021
1702.50,0.0020
1702.25,0.0018
1702.00,0.0016
1701.75,0.0015
1701.50,0.0014
1701.25,0.0014
1701.00,0.0014
1700.75,0.0014
1700.50,0.0015
1700.25,0.0021
1700.00,0.0026
1699.75,0.0024
1699.50,0.0021
1699.25,0.0019
1699.00,0.0018
1698.75,0.0018
1698.50,0.0017
1698.25,0.0016
1698.00,0.0015
1697.75,0.0015
1697.50,0.0015
1697.25,0.0017
1697.00,0.0018
1696.75,0.0019
1696.50,0.0018
1696.25,0.0016
1696.00,0.0017
1695.75,0.0017
1695.50,0.0017
1695.25,0.0018
1695.00,0.0019
1694.75,0.0019
1694.50,0.0019
1694.25,0.0018
1694.00,0.0017
1693.75,0.0015
1693.50,0.0015
1693.25,0.0015
1693.00,0.0017
1692.75,0.0020
1692.50,0.0022
1692.25,0.0024
1692.00,0.0024
1691.75,0.0024
1691.50,0.0023
1691.25,0.0022
1691.00,0.0021
1690.75,0.0020
1690.50,0.0019
1690.25,0.0019
1690.00,0.0018
1689.75,0.0018
1689.50,0.0018
1689.25,0.0018
1689.00,0.0019
1688.75,0.0019
1688.50,0.0020
1688.25,0.0021
1688.00,0.0023
1687.75,0.0024
1687.50,0.0024
1687.25,0.0024
1687.00,0.0022
1686.75,0.0020
1686.50,0.0019
1686.25,0.0018
1686.00,0.0018
1685.75,0.0017
1685.50,0.0016
1685.25,0.0015
1685.00,0.0017
1684.75,0.0021
1684.50,0.0026
1684.25,0.0027
1684.00,0.0025
1683.75,0.0022
1683.50,0.0020
1683.25,0.0018
1683.00,0.0018
1682.75,0.0019
1682.50,0.0019
1682.25,0.0018
1682.00,0.0018
1681.75,0.0018
1681.50,0.0019
1681.25,0.0021
1681.00,0.0022
1680.75,0.0022
1680.50,0.0021
1680.25,0.0021
1680.00,0.0021
1679.75,0.0021
1679.50,0.0021
1679.25,0.0021
1679.00,0.0020
1678.75,0.0019
1678.50,0.0019
1678.25,0.0020
1678.00,0.0021
1677.75,0.0023
1677.50,0.0025
1677.25,0.0025
1677.00,0.0024
1676.75,0.0022
1676.50,0.0020
1676.25,0.0018
1676.00,0.0016
1675.75,0.0017
1675.50,0.0019
1675.25,0.0021
1675.00,0.0022
1674.75,0.0021
1674.50,0.0019
1674.25,0.0018
1674.00,0.0018
1673.75,0.0019
1673.50,0.0020
1673.25,0.0020
1673.00,0.0021
1672.75,0.0021
1672.50,0.0022
1672.25,0.0022
1672.00,0.0023
1671.75,0.0024
1671.50,0.0024
1671.25,0.0023
1671.00,0.0022
1670.75,0.0022
1670.50,0.0022
1670.25,0.0023
1670.00,0.0023
1669.75,0.0024
1669.50,0.0023
1669.25,0.0023
1669.00,0.0024
1668.75,0.0024
1668.50,0.0024
1668.25,0.0023
1668.00,0.0023
1667.75,0.0023
1667.50,0.0023
1667.25,0.0023
1667.00,0.0022
1666.75,0.0021
1666.50,0.0021
1666.25,0.0021
1666.00,0.0021
1665.75,0.0021
1665.50,0.0021
1665.25,0.0020
1665.00,0.0019
1664.75,0.0019
1664.50,0.0019
1664.25,0.0020
1664.00,0.0021
1663.75,0.0021
1663.50,0.0020
1663.25,0.0019
1663.00,0.0017
1662.75,0.0017
1662.50,0.0019
1662.25,0.0023
1662.00,0.0025
1661.75,0.0026
1661.50,0.0026
1661.25,0.0025
1661.00,0.0024
1660.75,0.0022
1660.50,0.0021
1660.25,0.0021
1660.00,0.0021
1659.75,0.0021
1659.50,0.0021
1659.25,0.0021
1659.00,0.0022
1658.75,0.0022
1658.50,0.0023
1658.25,0.0024
1658.00,0.0024
1657.75,0.0023
1657.50,0.0022
1657.25,0.0021
1657.00,0.0020
1656.75,0.0020
1656.50,0.0019
1656.25,0.0019
1656.00,0.0019
1655.75,0.0019
1655.50,0.0019
1655.25,0.0019
1655.00,0.0020
1654.75,0.0021
1654.50,0.0023
1654.25,0.0024
1654.00,0.0023
1653.75,0.0021
1653.50,0.0018
1653.25,0.0016
1653.00,0.0015
1652.75,0.0017
1652.50,0.0020
1652.25,0.0022
1652.00,0.0023
1651.75,0.0023
1651.50,0.0023
1651.25,0.0023
1651.00,0.0023
1650.75,0.0024
1650.50,0.0025
1650.25,0.0026
1650.00,0.0027
1649.75,0.0027
1649.50,0.0026
1649.25,0.0025
1649.00,0.0024
1648.75,0.0023
1648.50,0.0022
1648.25,0.0022
1648.00,0.0021
1647.75,0.0020
1647.50,0.0020
1647.25,0.0020
1647.00,0.0020
1646.75,0.0021
1646.50,0.0022
1646.25,0.0025
1646.00,0.0030
1645.75,0.0032
1645.50,0.0030
1645.25,0.0027
1645.00,0.0025
1644.75,0.0024
1644.50,0.0024
1644.25,0.0024
1644.00,0.0025
1643.75,0.0025
1643.50,0.0026
1643.25,0.0026
1643.00,0.0026
1642.75,0.0026
1642.50,0.0026
1642.25,0.0026
1642.00,0.0027
1641.75,0.0027
1641.50,0.0027
1641.25,0.0027
1641.00,0.0027
1640.75,0.0027
1640.50,0.0027
1640.25,0.0027
1640.00,0.0026
1639.75,0.0025
1639.50,0.0025
1639.25,0.0025
1639.00,0.0026
1638.75,0.0026
1638.50,0.0026
1638.25,0.0026
1638.00,0.0026
1637.75,0.0026
1637.50,0.0026
1637.25,0.0025
1637.00,0.0025
1636.75,0.0025
1636.50,0.0025
1636.25,0.0026
1636.00,0.0029
1635.75,0.0033
1635.50,0.0035
1635.25,0.0030
1635.00,0.0023
1634.75,0.0021
1634.50,0.0022
1634.25,0.0023
1634.00,0.0024
1633.75,0.0024
1633.50,0.0025
1633.25,0.0025
1633.00,0.0025
1632.75,0.0025
1632.50,0.0026
1632.25,0.0026
1632.00,0.0027
1631.75,0.0026
1631.50,0.0026
1631.25,0.0026
1631.00,0.0025
1630.75,0.0024
1630.50,0.0023
1630.25,0.0024
1630.00,0.0025
1629.75,0.0027
1629.50,0.0028
1629.25,0.0029
1629.00,0.0028
1628.75,0.0028
1628.50,0.0027
1628.25,0.0026
1628.00,0.0024
1627.75,0.0022
1627.50,0.0021
1627.25,0.0021
1627.00,0.0022
1626.75,0.0023
1626.50,0.0024
1626.25,0.0025
1626.00,0.0025
1625.75,0.0025
1625.50,0.0025
1625.25,0.0025
1625.00,0.0026
1624.75,0.0026
1624.50,0.0026
1624.25,0.0025
1624.00,0.0024
1623.75,0.0022
1623.50,0.0020
1623.25,0.0018
1623.00,0.0018
1622.75,0.0019
1622.50,0.0021
1622.25,0.0023
1622.00,0.0024
1621.75,0.0026
1621.50,0.0026
1621.25,0.0026
1621.00,0.0025
1620.75,0.0024
1620.50,0.0024
1620.25,0.0024
1620.00,0.0024
1619.75,0.0023
1619.50,0.0023
1619.25,0.0023
1619.00,0.0023
1618.75,0.0025
1618.50,0.0027
1618.25,0.0029
1618.00,0.0030
1617.75,0.0030
1617.50,0.0028
1617.25,0.0025
1617.00,0.0020
1616.75,0.0014
1616.50,0.0010
1616.25,0.0011
1616.00,0.0015
1615.75,0.0019
1615.50,0.0022
1615.25,0.0024
1615.00,0.0026
1614.75,0.0027
1614.50,0.0027
1614.25,0.0026
1614.00,0.0025
1613.75,0.0025
1613.50,0.0026
1613.25,0.0027
1613.00,0.0028
1612.75,0.0027
1612.50,0.0027
1612.25,0.0026
1612.00,0.0027
1611.75,0.0027
1611.50,0.0028
1611.25,0.0028
1611.00,0.0027
1610.75,0.0027
1610.50,0.0027
1610.25,0.0027
1610.00,0.0027
1609.75,0.0027
1609.50,0.0028
1609.25,0.0028
1609.00,0.0029
1608.75,0.0029
1608.50,0.0028
1608.25,0.0027
1608.00,0.0026
1607.75,0.0026
1607.50,0.0027
1607.25,0.0028
1607.00,0.0030
1606.75,0.0031
1606.50,0.0031
1606.25,0.0030
1606.00,0.0029
1605.75,0.0028
1605.50,0.0027
1605.25,0.0027
1605.00,0.0026
1604.75,0.0026
1604.50,0.0026
1604.25,0.0026
1604.00,0.0026
1603.75,0.0026
1603.50,0.0026
1603.25,0.0026
1603.00,0.0025
1602.75,0.0025
1602.50,0.0026
1602.25,0.0027
1602.00,0.0028
1601.75,0.0029
1601.50,0.0028
1601.25,0.0028
1601.00,0.0028
1600.75,0.0028
1600.50,0.0028
1600.25,0.0028
1600.00,0.0029
1599.75,0.0029
1599.50,0.0029
1599.25,0.0030
1599.00,0.0030
1598.75,0.0031
1598.50,0.0031
1598.25,0.0031
1598.00,0.0031
1597.75,0.0032
1597.50,0.0033
1597.25,0.0035
1597.00,0.0037
1596.75,0.0038
1596.50,0.0038
1596.25,0.0038
1596.00,0.0038
1595.75,0.0037
1595.50,0.0036
1595.25,0.0036
1595.00,0.0035
1594.75,0.0033
1594.50,0.0032
1594.25,0.0030
1594.00,0.0030
1593.75,0.0030
1593.50,0.0030
1593.25,0.0030
1593.00,0.0031
1592.75,0.0031
1592.50,0.0032
1592.25,0.0031
1592.00,0.0031
1591.75,0.0030
1591.50,0.0030
1591.25,0.0031
1591.00,0.0033
1590.75,0.0034
1590.50,0.0034
1590.25,0.0034
1590.00,0.0032
1589.75,0.0030
1589.50,0.0029
1589.25,0.0029
1589.00,0.0031
1588.75,0.0032
1588.50,0.0033
1588.25,0.0033
1588.00,0.0033
1587.75,0.0033
1587.50,0.0032
1587.25,0.0032
1587.00,0.0031
1586.75,0.0030
1586.50,0.0030
1586.25,0.0031
1586.00,0.0031
1585.75,0.0032
1585.50,0.0032
1585.25,0.0032
1585.00,0.0032
1584.75,0.0033
1584.50,0.0034
1584.25,0.0034
1584.00,0.0034
1583.75,0.0033
1583.50,0.0031
1583.25,0.0030
1583.00,0.0030
1582.75,0.0031
1582.50,0.0033
1582.25,0.0035
1582.00,0.0036
1581.75,0.0037
1581.50,0.0036
1581.25,0.0037
1581.00,0.0037
1580.75,0.0038
1580.50,0.0039
1580.25,0.0039
1580.00,0.0039
1579.75,0.0039
1579.50,0.0039
1579.25,0.0039
1579.00,0.0038
1578.75,0.0038
1578.50,0.0038
1578.25,0.0038
1578.00,0.0038
1577.75,0.0038
1577.50,0.0038
1577.25,0.0038
1577.00,0.0037
1576.75,0.0036
1576.50,0.0034
1576.25,0.0029
1576.00,0.0023
1575.75,0.0022
1575.50,0.0025
1575.25,0.0029
1575.00,0.0031
1574.75,0.0033
1574.50,0.0034
1574.25,0.0034
1574.00,0.0034
1573.75,0.0034
1573.50,0.0034
1573.25,0.0035
1573.00,0.0035
1572.75,0.0036
1572.50,0.0036
1572.25,0.0036
1572.00,0.0035
1571.75,0.0034
1571.50,0.0034
1571.25,0.0034
1571.00,0.0034
1570.75,0.0034
1570.50,0.0033
1570.25,0.0032
1570.00,0.0030
1569.75,0.0026
1569.50,0.0022
1569.25,0.0020
1569.00,0.0020
1568.75,0.0021
1568.50,0.0023
1568.25,0.0024
1568.00,0.0026
1567.75,0.0028
1567.50,0.0029
1567.25,0.0030
1567.00,0.0031
1566.75,0.0032
1566.50,0.0033
1566.25,0.0034
1566.00,0.0035
1565.75,0.0034
1565.50,0.0033
1565.25,0.0031
1565.00,0.0029
1564.75,0.0026
1564.50,0.0024
1564.25,0.0023
1564.00,0.0024
1563.75,0.0025
1563.50,0.0026
1563.25,0.0028
1563.00,0.0028
1562.75,0.0028
1562.50,0.0029
1562.25,0.0029
1562.00,0.0029
1561.75,0.0029
1561.50,0.0029
1561.25,0.0028
1561.00,0.0026
1560.75,0.0024
1560.50,0.0023
1560.25,0.0025
1560.00,0.0027
1559.75,0.0029
1559.50,0.0032
1559.25,0.0035
1559.00,0.0039
1558.75,0.0045
1558.50,0.0052
1558.25,0.0054
1558.00,0.0048
1557.75,0.0038
1557.50,0.0030
1557.25,0.0027
1557.00,0.0026
1556.75,0.0025
1556.50,0.0025
1556.25,0.0026
1556.00,0.0026
1555.75,0.0027
1555.50,0.0028
1555.25,0.0029
1555.00,0.0029
1554.75,0.0029
1554.50,0.0028
1554.25,0.0027
1554.00,0.0027
1553.75,0.0028
1553.50,0.0028
1553.25,0.0028
1553.00,0.0027
1552.75,0.0027
1552.50,0.0026
1552.25,0.0026
1552.00,0.0027
1551.75,0.0028
1551.50,0.0028
1551.25,0.0029
1551.00,0.0029
1550.75,0.0029
1550.50,0.0029
1550.25,0.0029
1550.00,0.0029
1549.75,0.0029
1549.50,0.0029
1549.25,0.0030
1549.00,0.0031
1548.75,0.0031
1548.50,0.0031
1548.25,0.0031
1548.00,0.0030
1547.75,0.0030
1547.50,0.0030
1547.25,0.0030
1547.00,0.0031
1546.75,0.0031
1546.50,0.0031
1546.25,0.0031
1546.00,0.0032
1545.75,0.0033
1545.50,0.0033
1545.25,0.0032
1545.00,0.0029
1544.75,0.0028
1544.50,0.0028
1544.25,0.0030
1544.00,0.0032
1543.75,0.0033
1543.50,0.0034
1543.25,0.0034
1543.00,0.0035
1542.75,0.0037
1542.50,0.0039
1542.25,0.0041
1542.00,0.0043
1541.75,0.0043
1541.50,0.0043
1541.25,0.0043
1541.00,0.0042
1540.75,0.0042
1540.50,0.0043
1540.25,0.0045
1540.00,0.0048
1539.75,0.0049
1539.50,0.0047
1539.25,0.0044
1539.00,0.0038
1538.75,0.0033
1538.50,0.0030
1538.25,0.0029
1538.00,0.0030
1537.75,0.0032
1537.50,0.0033
1537.25,0.0033
1537.00,0.0034
1536.75,0.0034
1536.50,0.0033
1536.25,0.0033
1536.00,0.0033
1535.75,0.0033
1535.50,0.0033
1535.25,0.0033
1535.00,0.0032
1534.75,0.0030
1534.50,0.0028
1534.25,0.0026
1534.00,0.0024
1533.75,0.0022
1533.50,0.0021
1533.25,0.0023
1533.00,0.0025
1532.75,0.0027
1532.50,0.0028
1532.25,0.0029
1532.00,0.0029
1531.75,0.0029
1531.50,0.0029
1531.25,0.0029
1531.00,0.0029
1530.75,0.0029
1530.50,0.0028
1530.25,0.0027
1530.00,0.0026
1529.75,0.0026
1529.50,0.0026
1529.25,0.0027
1529.00,0.0027
1528.75,0.0027
1528.50,0.0027
1528.25,0.0026
1528.00,0.0025
1527.75,0.0024
1527.50,0.0024
1527.25,0.0025
1527.00,0.0025
1526.75,0.0026
1526.50,0.0026
1526.25,0.0027
1526.00,0.0027
1525.75,0.0027
1525.50,0.0027
1525.25,0.0027
1525.00,0.0027
1524.75,0.0027
1524.50,0.0027
1524.25,0.0026
1524.00,0.0025
1523.75,0.0024
1523.50,0.0023
1523.25,0.0023
1523.00,0.0025
1522.75,0.0029
1522.50,0.0033
1522.25,0.0035
1522.00,0.0035
1521.75,0.0034
1521.50,0.0033
1521.25,0.0032
1521.00,0.0031
1520.75,0.0030
1520.50,0.0030
1520.25,0.0030
1520.00,0.0029
1519.75,0.0028
1519.50,0.0026
1519.25,0.0025
1519.00,0.0024
1518.75,0.0024
1518.50,0.0023
1518.25,0.0022
1518.00,0.0022
1517.75,0.0023
1517.50,0.0025
1517.25,0.0027
1517.00,0.0029
1516.75,0.0030
1516.50,0.0029
1516.25,0.0027
1516.00,0.0026
1515.75,0.0025
1515.50,0.0024
1515.25,0.0025
1515.00,0.0026
1514.75,0.0027
1514.50,0.0027
1514.25,0.0026
1514.00,0.0025
1513.75,0.0024
1513.50,0.0024
1513.25,0.0024
1513.00,0.0024
1512.75,0.0025
1512.50,0.0025
1512.25,0.0025
1512.00,0.0024
1511.75,0.0022
1511.50,0.0021
1511.25,0.0020
1511.00,0.0020
1510.75,0.0020
1510.50,0.0021
1510.25,0.0022
1510.00,0.0023
1509.75,0.0024
1509.50,0.0026
1509.25,0.0027
1509.00,0.0027
1508.75,0.0026
1508.50,0.0023
1508.25,0.0021
1508.00,0.0018
1507.75,0.0017
1507.50,0.0017
1507.25,0.0021
1507.00,0.0028
1506.75,0.0031
1506.50,0.0028
1506.25,0.0023
1506.00,0.0019
1505.75,0.0017
1505.50,0.0017
1505.25,0.0019
1505.00,0.0020
1504.75,0.0021
1504.50,0.0021
1504.25,0.0021
1504.00,0.0021
1503.75,0.0021
1503.50,0.0021
1503.25,0.0022
1503.00,0.0023
1502.75,0.0024
1502.50,0.0023
1502.25,0.0022
1502.00,0.0020
1501.75,0.0019
1501.50,0.0019
1501.25,0.0020
1501.00,0.0021
1500.75,0.0022
1500.50,0.0022
1500.25,0.0022
1500.00,0.0022
1499.75,0.0022
1499.50,0.0023
1499.25,0.0024
1499.00,0.0026
1498.75,0.0027
1498.50,0.0026
1498.25,0.0025
1498.00,0.0023
1497.75,0.0021
1497.50,0.0019
1497.25,0.0017
1497.00,0.0017
1496.75,0.0018
1496.50,0.0022
1496.25,0.0026
1496.00,0.0028
1495.75,0.0026
1495.50,0.0024
1495.25,0.0023
1495.00,0.0023
1494.75,0.0023
1494.50,0.0022
1494.25,0.0021
1494.00,0.0020
1493.75,0.0020
1493.50,0.0023
1493.25,0.0025
1493.00,0.0027
1492.75,0.0028
1492.50,0.0027
1492.25,0.0025
1492.00,0.0024
1491.75,0.0024
1491.50,0.0024
1491.25,0.0026
1491.00,0.0028
1490.75,0.0031
1490.50,0.0033
1490.25,0.0034
1490.00,0.0034
1489.75,0.0033
1489.50,0.0032
1489.25,0.0031
1489.00,0.0029
1488.75,0.0028
1488.50,0.0028
1488.25,0.0028
1488.00,0.0029
1487.75,0.0030
1487.50,0.0030
1487.25,0.0029
1487.00,0.0027
1486.75,0.0026
1486.50,0.0026
1486.25,0.0026
1486.00,0.0027
1485.75,0.0028
1485.50,0.0029
1485.25,0.0029
1485.00,0.0029
1484.75,0.0028
1484.50,0.0028
1484.25,0.0029
1484.00,0.0030
1483.75,0.0031
1483.50,0.0032
1483.25,0.0033
1483.00,0.0034
1482.75,0.0034
1482.50,0.0033
1482.25,0.0032
1482.00,0.0031
1481.75,0.0031
1481.50,0.0031
1481.25,0.0031
1481.00,0.0031
1480.75,0.0031
1480.50,0.0031
1480.25,0.0031
1480.00,0.0032
1479.75,0.0033
1479.50,0.0033
1479.25,0.0033
1479.00,0.0033
1478.75,0.0033
1478.50,0.0034
1478.25,0.0035
1478.00,0.0035
1477.75,0.0035
1477.50,0.0035
1477.25,0.0034
1477.00,0.0034
1476.75,0.0034
1476.50,0.0034
1476.25,0.0034
1476.00,0.0035
1475.75,0.0035
1475.50,0.0035
1475.25,0.0035
1475.00,0.0035
1474.75,0.0034
1474.50,0.0034
1474.25,0.0034
1474.00,0.0035
1473.75,0.0036
1473.50,0.0038
1473.25,0.0037
1473.00,0.0036
1472.75,0.0034
1472.50,0.0033
1472.25,0.0032
1472.00,0.0032
1471.75,0.0033
1471.50,0.0034
1471.25,0.0035
1471.00,0.0036
1470.75,0.0036
1470.50,0.0035
1470.25,0.0035
1470.00,0.0036
1469.75,0.0036
1469.50,0.0037
1469.25,0.0037
1469.00,0.0037
1468.75,0.0036
1468.50,0.0036
1468.25,0.0037
1468.00,0.0037
1467.75,0.0038
1467.50,0.0038
1467.25,0.0039
1467.00,0.0038
1466.75,0.0038
1466.50,0.0037
1466.25,0.0036
1466.00,0.0036
1465.75,0.0037
1465.50,0.0038
1465.25,0.0040
1465.00,0.0043
1464.75,0.0045
1464.50,0.0045
1464.25,0.0044
1464.00,0.0042
1463.75,0.0041
1463.50,0.0040
1463.25,0.0040
1463.00,0.0041
1462.75,0.0041
1462.50,0.0042
1462.25,0.0042
1462.00,0.0043
1461.75,0.0043
1461.50,0.0042
1461.25,0.0042
1461.00,0.0042
1460.75,0.0043
1460.50,0.0042
1460.25,0.0042
1460.00,0.0041
1459.75,0.0040
1459.50,0.0039
1459.25,0.0040
1459.00,0.0041
1458.75,0.0042
1458.50,0.0043
1458.25,0.0044
1458.00,0.0046
1457.75,0.0048
1457.50,0.0050
1457.25,0.0052
1457.00,0.0053
1456.75,0.0051
1456.50,0.0045
1456.25,0.0042
1456.00,0.0042
1455.75,0.0044
1455.50,0.0045
1455.25,0.0046
1455.00,0.0046
1454.75,0.0047
1454.50,0.0048
1454.25,0.0048
1454.00,0.0048
1453.75,0.0047
1453.50,0.0046
1453.25,0.0045
1453.00,0.0045
1452.75,0.0046
1452.50,0.0047
1452.25,0.0048
1452.00,0.0050
1451.75,0.0051
1451.50,0.0051
1451.25,0.0052
1451.00,0.0053
1450.75,0.0053
1450.50,0.0053
1450.25,0.0052
1450.00,0.0051
1449.75,0.0050
1449.50,0.0050
1449.25,0.0050
1449.00,0.0051
1448.75,0.0053
1448.50,0.0054
1448.25,0.0055
1448.00,0.0057
1447.75,0.0058
1447.50,0.0059
1447.25,0.0058
1447.00,0.0058
1446.75,0.0057
1446.50,0.0057
1446.25,0.0058
1446.00,0.0059
1445.75,0.0061
1445.50,0.0062
1445.25,0.0062
1445.00,0.0061
1444.75,0.0060
1444.50,0.0059
1444.25,0.0058
1444.00,0.0059
1443.75,0.0059
1443.50,0.0060
1443.25,0.0060
1443.00,0.0060
1442.75,0.0060
1442.50,0.0059
1442.25,0.0059
1442.00,0.0058
1441.75,0.0058
1441.50,0.0057
1441.25,0.0056
1441.00,0.0055
1440.75,0.0054
1440.50,0.0054
1440.25,0.0054
1440.00,0.0054
1439.75,0.0054
1439.50,0.0054
1439.25,0.0054
1439.00,0.0054
1438.75,0.0054
1438.50,0.0055
1438.25,0.0055
1438.00,0.0055
1437.75,0.0054
1437.50,0.0053
1437.25,0.0052
1437.00,0.0051
1436.75,0.0051
1436.50,0.0051
1436.25,0.0052
1436.00,0.0052
1435.75,0.0051
1435.50,0.0050
1435.25,0.0049
1435.00,0.0048
1434.75,0.0047
1434.50,0.0047
1434.25,0.0047
1434.00,0.0048
1433.75,0.0049
1433.50,0.0051
1433.25,0.0052
1433.00,0.0052
1432.75,0.0052
1432.50,0.0051
1432.25,0.0049
1432.00,0.0049
1431.75,0.0049
1431.50,0.0050
1431.25,0.0051
1431.00,0.0051
1430.75,0.0050
1430.50,0.0049
1430.25,0.0048
1430.00,0.0048
1429.75,0.0049
1429.50,0.0049
1429.25,0.0050
1429.00,0.0050
1428.75,0.0051
1428.50,0.0052
1428.25,0.0054
1428.00,0.0056
1427.75,0.0058
1427.50,0.0059
1427.25,0.0059
1427.00,0.0059
1426.75,0.0058
1426.50,0.0058
1426.25,0.0059
1426.00,0.0060
1425.75,0.0061
1425.50,0.0062
1425.25,0.0062
1425.00,0.0061
1424.75,0.0061
1424.50,0.0061
1424.25,0.0061
1424.00,0.0062
1423.75,0.0064
1423.50,0.0065
1423.25,0.0067
1423.00,0.0068
1422.75,0.0069
1422.50,0.0070
1422.25,0.0071
1422.00,0.0072
1421.75,0.0073
1421.50,0.0075
1421.25,0.0077
1421.00,0.0078
1420.75,0.0080
1420.50,0.0081
1420.25,0.0082
1420.00,0.0082
1419.75,0.0084
1419.50,0.0086
1419.25,0.0087
1419.00,0.0088
1418.75,0.0089
1418.50,0.0091
1418.25,0.0092
1418.00,0.0094
1417.75,0.0095
1417.50,0.0097
1417.25,0.0099
1417.00,0.0101
1416.75,0.0102
1416.50,0.0104
1416.25,0.0105
1416.00,0.0106
1415.75,0.0106
1415.50,0.0107
1415.25,0.0107
1415.00,0.0108
1414.75,0.0109
1414.50,0.0110
1414.25,0.0112
1414.00,0.0114
1413.75,0.0115
1413.50,0.0117
1413.25,0.0118
1413.00,0.0118
1412.75,0.0118
1412.50,0.0118
1412.25,0.0117
1412.00,0.0117
1411.75,0.0118
1411.50,0.0118
1411.25,0.0118
1411.00,0.0118
1410.75,0.0117
1410.50,0.0116
1410.25,0.0115
1410.00,0.0114
1409.75,0.0114
1409.50,0.0114
1409.25,0.0113
1409.00,0.0112
1408.75,0.0111
1408.50,0.0110
1408.25,0.0111
1408.00,0.0112
1407.75,0.0113
1407.50,0.0114
1407.25,0.0113
1407.00,0.0112
1406.75,0.0111
1406.50,0.0110
1406.25,0.0110
1406.00,0.0109
1405.75,0.0108
1405.50,0.0107
1405.25,0.0105
1405.00,0.0102
1404.75,0.0101
1404.50,0.0100
1404.25,0.0101
1404.00,0.0102
1403.75,0.0103
1403.50,0.0104
1403.25,0.0104
1403.00,0.0104
1402.75,0.0103
1402.50,0.0101
1402.25,0.0100
1402.00,0.0099
1401.75,0.0099
1401.50,0.0100
1401.25,0.0100
1401.00,0.0100
1400.75,0.0099
1400.50,0.0097
1400.25,0.0096
1400.00,0.0096
1399.75,0.0096
1399.50,0.0095
1399.25,0.0092
1399.00,0.0090
1398.75,0.0088
1398.50,0.0087
1398.25,0.0086
1398.00,0.0086
1397.75,0.0086
1397.50,0.0087
1397.25,0.0087
1397.00,0.0085
1396.75,0.0083
1396.50,0.0081
1396.25,0.0079
1396.00,0.0078
1395.75,0.0077
1395.50,0.0077
1395.25,0.0076
1395.00,0.0076
1394.75,0.0075
1394.50,0.0073
1394.25,0.0071
1394.00,0.0069
1393.75,0.0067
1393.50,0.0067
1393.25,0.0066
1393.00,0.0066
1392.75,0.0065
1392.50,0.0064
1392.25,0.0063
1392.00,0.0061
1391.75,0.0060
1391.50,0.0058
1391.25,0.0057
1391.00,0.0056
1390.75,0.0055
1390.50,0.0054
1390.25,0.0053
1390.00,0.0053
1389.75,0.0053
1389.50,0.0053
1389.25,0.0053
1389.00,0.0053
1388.75,0.0054
1388.50,0.0053
1388.25,0.0052
1388.00,0.0051
1387.75,0.0051
1387.50,0.0050
1387.25,0.0050
1387.00,0.0049
1386.75,0.0048
1386.50,0.0047
1386.25,0.0047
1386.00,0.0047
1385.75,0.0047
1385.50,0.0048
1385.25,0.0049
1385.00,0.0049
1384.75,0.0048
1384.50,0.0047
1384.25,0.0045
1384.00,0.0044
1383.75,0.0043
1383.50,0.0043
1383.25,0.0043
1383.00,0.0044
1382.75,0.0044
1382.50,0.0044
1382.25,0.0044
1382.00,0.0044
1381.75,0.0044
1381.50,0.0044
1381.25,0.0043
1381.00,0.0043
1380.75,0.0043
1380.50,0.0043
1380.25,0.0043
1380.00,0.0043
1379.75,0.0043
1379.50,0.0042
1379.25,0.0042
1379.00,0.0041
1378.75,0.0040
1378.50,0.0039
1378.25,0.0038
1378.00,0.0038
1377.75,0.0039
1377.50,0.0040
1377.25,0.0041
1377.00,0.0041
1376.75,0.0041
1376.50,0.0041
1376.25,0.0040
1376.00,0.0039
1375.75,0.0039
1375.50,0.0038
1375.25,0.0038
1375.00,0.0038
1374.75,0.0038
1374.50,0.0039
1374.25,0.0040
1374.00,0.0040
1373.75,0.0040
1373.50,0.0040
1373.25,0.0041
1373.00,0.0042
1372.75,0.0042
1372.50,0.0043
1372.25,0.0042
1372.00,0.0041
1371.75,0.0040
1371.50,0.0039
1371.25,0.0039
1371.00,0.0040
1370.75,0.0040
1370.50,0.0041
1370.25,0.0040
1370.00,0.0039
1369.75,0.0039
1369.50,0.0038
1369.25,0.0039
1369.00,0.0039
1368.75,0.0039
1368.50,0.0040
1368.25,0.0039
1368.00,0.0039
1367.75,0.0038
1367.50,0.0037
1367.25,0.0036
1367.00,0.0035
1366.75,0.0036
1366.50,0.0036
1366.25,0.0036
1366.00,0.0036
1365.75,0.0036
1365.50,0.0035
1365.25,0.0034
1365.00,0.0034
1364.75,0.0035
1364.50,0.0036
1364.25,0.0037
1364.00,0.0037
1363.75,0.0036
1363.50,0.0036
1363.25,0.0036
1363.00,0.0037
1362.75,0.0039
1362.50,0.0039
1362.25,0.0038
1362.00,0.0037
1361.75,0.0036
1361.50,0.0034
1361.25,0.0033
1361.00,0.0033
1360.75,0.0033
1360.50,0.0034
1360.25,0.0035
1360.00,0.0036
1359.75,0.0037
1359.50,0.0037
1359.25,0.0037
1359.00,0.0037
1358.75,0.0036
1358.50,0.0036
1358.25,0.0036
1358.00,0.0036
1357.75,0.0036
1357.50,0.0036
1357.25,0.0036
1357.00,0.0036
1356.75,0.0035
1356.50,0.0034
1356.25,0.0034
1356.00,0.0034
1355.75,0.0034
1355.50,0.0035
1355.25,0.0036
1355.00,0.0036
1354.75,0.0036
1354.50,0.0036
1354.25,0.0036
1354.00,0.0036
1353.75,0.0036
1353.50,0.0036
1353.25,0.0036
1353.00,0.0036
1352.75,0.0035
1352.50,0.0035
1352.25,0.0035
1352.00,0.0036
1351.75,0.0036
1351.50,0.0037
1351.25,0.0036
1351.00,0.0036
1350.75,0.0035
1350.50,0.0034
1350.25,0.0034
1350.00,0.0034
1349.75,0.0033
1349.50,0.0032
1349.25,0.0031
1349.00,0.0030
1348.75,0.0031
1348.50,0.0032
1348.25,0.0033
1348.00,0.0034
1347.75,0.0034
1347.50,0.0035
1347.25,0.0036
1347.00,0.0036
1346.75,0.0036
1346.50,0.0036
1346.25,0.0036
1346.00,0.0036
1345.75,0.0036
1345.50,0.0036
1345.25,0.0036
1345.00,0.0035
1344.75,0.0035
1344.50,0.0035
1344.25,0.0035
1344.00,0.0036
1343.75,0.0036
1343.50,0.0036
1343.25,0.0036
1343.00,0.0036
1342.75,0.0036
1342.50,0.0036
1342.25,0.0035
1342.00,0.0034
1341.75,0.0033
1341.50,0.0033
1341.25,0.0033
1341.00,0.0033
1340.75,0.0034
1340.50,0.0034
1340.25,0.0033
1340.00,0.0033
1339.75,0.0033
1339.50,0.0033
1339.25,0.0033
1339.00,0.0034
1338.75,0.0035
1338.50,0.0035
1338.25,0.0034
1338.00,0.0034
1337.75,0.0033
1337.50,0.0033
1337.25,0.0034
1337.00,0.0035
1336.75,0.0035
1336.50,0.0035
1336.25,0.0034
1336.00,0.0034
1335.75,0.0033
1335.50,0.0033
1335.25,0.0033
1335.00,0.0034
1334.75,0.0034
1334.50,0.0035
1334.25,0.0035
1334.00,0.0035
1333.75,0.0035
1333.50,0.0036
1333.25,0.0036
1333.00,0.0036
1332.75,0.0036
1332.50,0.0036
1332.25,0.0035
1332.00,0.0034
1331.75,0.0033
1331.50,0.0032
1331.25,0.0033
1331.00,0.0034
1330.75,0.0034
1330.50,0.0035
1330.25,0.0035
1330.00,0.0035
1329.75,0.0034
1329.50,0.0033
1329.25,0.0033
1329.00,0.0033
1328.75,0.0033
1328.50,0.0033
1328.25,0.0033
1328.00,0.0034
1327.75,0.0035
1327.50,0.0036
1327.25,0.0037
1327.00,0.0037
1326.75,0.0038
1326.50,0.0038
1326.25,0.0038
1326.00,0.0038
1325.75,0.0037
1325.50,0.0036
1325.25,0.0035
1325.00,0.0035
1324.75,0.0035
1324.50,0.0035
1324.25,0.0035
1324.00,0.0035
1323.75,0.0035
1323.50,0.0036
1323.25,0.0037
1323.00,0.0038
1322.75,0.0039
1322.50,0.0040
1322.25,0.0041
1322.00,0.0041
1321.75,0.0041
1321.50,0.0040
1321.25,0.0040
1321.00,0.0039
1320.75,0.0039
1320.50,0.0039
1320.25,0.0040
1320.00,0.0040
1319.75,0.0040
1319.50,0.0040
1319.25,0.0041
1319.00,0.0041
1318.75,0.0041
1318.50,0.0042
1318.25,0.0043
1318.00,0.0043
1317.75,0.0044
1317.50,0.0043
1317.25,0.0042
1317.00,0.0041
1316.75,0.0040
1316.50,0.0040
1316.25,0.0040
1316.00,0.0041
1315.75,0.0041
1315.50,0.0042
1315.25,0.0043
1315.00,0.0044
1314.75,0.0044
1314.50,0.0044
1314.25,0.0044
1314.00,0.0044
1313.75,0.0044
1313.50,0.0043
1313.25,0.0043
1313.00,0.0043
1312.75,0.0043
1312.50,0.0043
1312.25,0.0043
1312.00,0.0043
1311.75,0.0043
1311.50,0.0043
1311.25,0.0043
1311.00,0.0043
1310.75,0.0043
1310.50,0.0044
1310.25,0.0044
1310.00,0.0045
1309.75,0.0046
1309.50,0.0047
1309.25,0.0047
1309.00,0.0047
1308.75,0.0047
1308.50,0.0047
1308.25,0.0047
1308.00,0.0047
1307.75,0.0048
1307.50,0.0048
1307.25,0.0048
1307.00,0.0047
1306.75,0.0047
1306.50,0.0047
1306.25,0.0047
1306.00,0.0047
1305.75,0.0048
1305.50,0.0049
1305.25,0.0050
1305.00,0.0051
1304.75,0.0052
1304.50,0.0053
1304.25,0.0053
1304.00,0.0053
1303.75,0.0054
1303.50,0.0054
1303.25,0.0054
1303.00,0.0053
1302.75,0.0053
1302.50,0.0052
1302.25,0.0051
1302.00,0.0052
1301.75,0.0052
1301.50,0.0053
1301.25,0.0054
1301.00,0.0054
1300.75,0.0053
1300.50,0.0053
1300.25,0.0053
1300.00,0.0054
1299.75,0.0055
1299.50,0.0056
1299.25,0.0056
1299.00,0.0057
1298.75,0.0057
1298.50,0.0057
1298.25,0.0058
1298.00,0.0059
1297.75,0.0060
1297.50,0.0062
1297.25,0.0062
1297.00,0.0062
1296.75,0.0061
1296.50,0.0060
1296.25,0.0060
1296.00,0.0060
1295.75,0.0060
1295.50,0.0060
1295.25,0.0060
1295.00,0.0060
1294.75,0.0061
1294.50,0.0062
1294.25,0.0063
1294.00,0.0063
1293.75,0.0064
1293.50,0.0064
1293.25,0.0064
1293.00,0.0065
1292.75,0.0066
1292.50,0.0067
1292.25,0.0068
1292.00,0.0069
1291.75,0.0069
1291.50,0.0070
1291.25,0.0070
1291.00,0.0072
1290.75,0.0072
1290.50,0.0073
1290.25,0.0072
1290.00,0.0072
1289.75,0.0072
1289.50,0.0072
1289.25,0.0073
1289.00,0.0074
1288.75,0.0074
1288.50,0.0075
1288.25,0.0076
1288.00,0.0076
1287.75,0.0076
1287.50,0.0076
1287.25,0.0076
1287.00,0.0075
1286.75,0.0075
1286.50,0.0075
1286.25,0.0077
1286.00,0.0080
1285.75,0.0083
1285.50,0.0085
1285.25,0.0087
1285.00,0.0088
1284.75,0.0088
1284.50,0.0089
1284.25,0.0089
1284.00,0.0090
1283.75,0.0090
1283.50,0.0090
1283.25,0.0091
1283.00,0.0091
1282.75,0.0092
1282.50,0.0092
1282.25,0.0093
1282.00,0.0095
1281.75,0.0097
1281.50,0.0099
1281.25,0.0101
1281.00,0.0103
1280.75,0.0105
1280.50,0.0106
1280.25,0.0107
1280.00,0.0108
1279.75,0.0109
1279.50,0.0111
1279.25,0.0113
1279.00,0.0116
1278.75,0.0120
1278.50,0.0124
1278.25,0.0126
1278.00,0.0128
1277.75,0.0130
1277.50,0.0131
1277.25,0.0132
1277.00,0.0134
1276.75,0.0136
1276.50,0.0139
1276.25,0.0142
1276.00,0.0145
1275.75,0.0148
1275.50,0.0151
1275.25,0.0155
1275.00,0.0159
1274.75,0.0163
1274.50,0.0167
1274.25,0.0172
1274.00,0.0177
1273.75,0.0182
1273.50,0.0189
1273.25,0.0195
1273.00,0.0200
1272.75,0.0205
1272.50,0.0210
1272.25,0.0216
1272.00,0.0223
1271.75,0.0232
1271.50,0.0241
1271.25,0.0250
1271.00,0.0259
1270.75,0.0269
1270.50,0.0280
1270.25,0.0292
1270.00,0.0304
1269.75,0.0317
1269.50,0.0330
1269.25,0.0343
1269.00,0.0357
1268.75,0.0374
1268.50,0.0393
1268.25,0.0416
1268.00,0.0440
1267.75,0.0464
1267.50,0.0488
1267.25,0.0513
1267.00,0.0539
1266.75,0.0568
1266.50,0.0600
1266.25,0.0633
1266.00,0.0668
1265.75,0.0705
1265.50,0.0742
1265.25,0.0780
1265.00,0.0819
1264.75,0.0859
1264.50,0.0901
1264.25,0.0944
1264.00,0.0988
1263.75,0.1032
1263.50,0.1076
1263.25,0.1120
1263.00,0.1165
1262.75,0.1210
1262.50,0.1254
1262.25,0.1296
1262.00,0.1335
1261.75,0.1372
1261.50,0.1406
1261.25,0.1438
1261.00,0.1469
1260.75,0.1500
1260.50,0.1529
1260.25,0.1555
1260.00,0.1576
1259.75,0.1593
1259.50,0.1604
1259.25,0.1613
1259.00,0.1619
1258.75,0.1623
1258.50,0.1625
1258.25,0.1625
1258.00,0.1621
1257.75,0.1613
1257.50,0.1602
1257.25,0.1587
1257.00,0.1570
1256.75,0.1551
1256.50,0.1530
1256.25,0.1507
1256.00,0.1483
1255.75,0.1458
1255.50,0.1433
1255.25,0.1408
1255.00,0.1383
1254.75,0.1358
1254.50,0.1333
1254.25,0.1307
1254.00,0.1281
1253.75,0.1254
1253.50,0.1227
1253.25,0.1199
1253.00,0.1170
1252.75,0.1140
1252.50,0.1110
1252.25,0.1078
1252.00,0.1044
1251.75,0.1009
1251.50,0.0974
1251.25,0.0938
1251.00,0.0901
1250.75,0.0863
1250.50,0.0825
1250.25,0.0788
1250.00,0.0752
1249.75,0.0717
1249.50,0.0682
1249.25,0.0649
1249.00,0.0617
1248.75,0.0586
1248.50,0.0557
1248.25,0.0531
1248.00,0.0506
1247.75,0.0483
1247.50,0.0461
1247.25,0.0440
1247.00,0.0420
1246.75,0.0402
1246.50,0.0385
1246.25,0.0369
1246.00,0.0354
1245.75,0.0340
1245.50,0.0327
1245.25,0.0315
1245.00,0.0303
1244.75,0.0292
1244.50,0.0282
1244.25,0.0273
1244.00,0.0265
1243.75,0.0258
1243.50,0.0252
1243.25,0.0245
1243.00,0.0238
1242.75,0.0232
1242.50,0.0226
1242.25,0.0220
1242.00,0.0216
1241.75,0.0212
1241.50,0.0208
1241.25,0.0205
1241.00,0.0202
1240.75,0.0199
1240.50,0.0195
1240.25,0.0190
1240.00,0.0185
1239.75,0.0181
1239.50,0.0178
1239.25,0.0175
1239.00,0.0172
1238.75,0.0170
1238.50,0.0168
1238.25,0.0167
1238.00,0.0165
1237.75,0.0164
1237.50,0.0163
1237.25,0.0161
1237.00,0.0159
1236.75,0.0156
1236.50,0.0153
1236.25,0.0150
1236.00,0.0148
1235.75,0.0147
1235.50,0.0146
1235.25,0.0146
1235.00,0.0146
1234.75,0.0145
1234.50,0.0143
1234.25,0.0142
1234.00,0.0140
1233.75,0.0138
1233.50,0.0137
1233.25,0.0136
1233.00,0.0136
1232.75,0.0136
1232.50,0.0137
1232.25,0.0138
1232.00,0.0139
1231.75,0.0141
1231.50,0.0142
1231.25,0.0141
1231.00,0.0140
1230.75,0.0139
1230.50,0.0138
1230.25,0.0137
1230.00,0.0136
1229.75,0.0136
1229.50,0.0136
1229.25,0.0136
1229.00,0.0136
1228.75,0.0136
1228.50,0.0136
1228.25,0.0137
1228.00,0.0138
1227.75,0.0138
1227.50,0.0138
1227.25,0.0138
1227.00,0.0137
1226.75,0.0136
1226.50,0.0136
1226.25,0.0136
1226.00,0.0136
1225.75,0.0137
1225.50,0.0137
1225.25,0.0138
1225.00,0.0139
1224.75,0.0142
1224.50,0.0144
1224.25,0.0146
1224.00,0.0146
1223.75,0.0146
1223.50,0.0147
1223.25,0.0147
1223.00,0.0146
1222.75,0.0146
1222.50,0.0147
1222.25,0.0147
1222.00,0.0148
1221.75,0.0149
1221.50,0.0151
1221.25,0.0152
1221.00,0.0153
1220.75,0.0154
1220.50,0.0154
1220.25,0.0154
1220.00,0.0154
1219.75,0.0154
1219.50,0.0154
1219.25,0.0155
1219.00,0.0158
1218.75,0.0161
1218.50,0.0164
1218.25,0.0166
1218.00,0.0167
1217.75,0.0166
1217.50,0.0166
1217.25,0.0165
1217.00,0.0166
1216.75,0.0168
1216.50,0.0169
1216.25,0.0170
1216.00,0.0171
1215.75,0.0172
1215.50,0.0174
1215.25,0.0175
1215.00,0.0177
1214.75,0.0179
1214.50,0.0180
1214.25,0.0181
1214.00,0.0182
1213.75,0.0183
1213.50,0.0185
1213.25,0.0186
1213.00,0.0187
1212.75,0.0188
1212.50,0.0188
1212.25,0.0189
1212.00,0.0190
1211.75,0.0192
1211.50,0.0194
1211.25,0.0198
1211.00,0.0201
1210.75,0.0205
1210.50,0.0207
1210.25,0.0207
1210.00,0.0207
1209.75,0.0206
1209.50,0.0205
1209.25,0.0206
1209.00,0.0208
1208.75,0.0211
1208.50,0.0212
1208.25,0.0213
1208.00,0.0212
1207.75,0.0211
1207.50,0.0211
1207.25,0.0212
1207.00,0.0214
1206.75,0.0216
1206.50,0.0217
1206.25,0.0218
1206.00,0.0219
1205.75,0.0219
1205.50,0.0221
1205.25,0.0223
1205.00,0.0225
1204.75,0.0226
1204.50,0.0228
1204.25,0.0229
1204.00,0.0230
1203.75,0.0233
1203.50,0.0236
1203.25,0.0238
1203.00,0.0239
1202.75,0.0239
1202.50,0.0239
1202.25,0.0238
1202.00,0.0238
1201.75,0.0239
1201.50,0.0239
1201.25,0.0240
1201.00,0.0241
1200.75,0.0242
1200.50,0.0243
1200.25,0.0245
1200.00,0.0247
1199.75,0.0248
1199.50,0.0249
1199.25,0.0249
1199.00,0.0250
1198.75,0.0251
1198.50,0.0253
1198.25,0.0255
1198.00,0.0258
1197.75,0.0259
1197.50,0.0260
1197.25,0.0259
1197.00,0.0258
1196.75,0.0258
1196.50,0.0258
1196.25,0.0259
1196.00,0.0261
1195.75,0.0263
1195.50,0.0266
1195.25,0.0268
1195.00,0.0268
1194.75,0.0268
1194.50,0.0267
1194.25,0.0266
1194.00,0.0265
1193.75,0.0265
1193.50,0.0265
1193.25,0.0265
1193.00,0.0265
1192.75,0.0266
1192.50,0.0268
1192.25,0.0269
1192.00,0.0270
1191.75,0.0271
1191.50,0.0272
1191.25,0.0274
1191.00,0.0275
1190.75,0.0276
1190.50,0.0277
1190.25,0.0276
1190.00,0.0276
1189.75,0.0275
1189.50,0.0275
1189.25,0.0275
1189.00,0.0275
1188.75,0.0276
1188.50,0.0277
1188.25,0.0278
1188.00,0.0279
1187.75,0.0280
1187.50,0.0281
1187.25,0.0282
1187.00,0.0283
1186.75,0.0282
1186.50,0.0282
1186.25,0.0281
1186.00,0.0280
1185.75,0.0280
1185.50,0.0280
1185.25,0.0281
1185.00,0.0282
1184.75,0.0284
1184.50,0.0287
1184.25,0.0288
1184.00,0.0289
1183.75,0.0288
1183.50,0.0287
1183.25,0.0286
1183.00,0.0285
1182.75,0.0284
1182.50,0.0283
1182.25,0.0282
1182.00,0.0282
1181.75,0.0282
1181.50,0.0283
1181.25,0.0284
1181.00,0.0284
1180.75,0.0285
1180.50,0.0286
1180.25,0.0286
1180.00,0.0287
1179.75,0.0287
1179.50,0.0288
1179.25,0.0289
1179.00,0.0290
1178.75,0.0290
1178.50,0.0290
1178.25,0.0290
1178.00,0.0290
1177.75,0.0290
1177.50,0.0289
1177.25,0.0290
1177.00,0.0290
1176.75,0.0292
1176.50,0.0294
1176.25,0.0295
1176.00,0.0296
1175.75,0.0295
1175.50,0.0293
1175.25,0.0292
1175.00,0.0291
1174.75,0.0291
1174.50,0.0292
1174.25,0.0293
1174.00,0.0294
1173.75,0.0294
1173.50,0.0294
1173.25,0.0293
1173.00,0.0294
1172.75,0.0295
1172.50,0.0297
1172.25,0.0299
1172.00,0.0300
1171.75,0.0299
1171.50,0.0298
1171.25,0.0297
1171.00,0.0298
1170.75,0.0299
1170.50,0.0301
1170.25,0.0302
1170.00,0.0302
1169.75,0.0303
1169.50,0.0303
1169.25,0.0303
1169.00,0.0302
1168.75,0.0302
1168.50,0.0301
1168.25,0.0301
1168.00,0.0301
1167.75,0.0300
1167.50,0.0300
1167.25,0.0299
1167.00,0.0299
1166.75,0.0299
1166.50,0.0299
1166.25,0.0300
1166.00,0.0301
1165.75,0.0302
1165.50,0.0303
1165.25,0.0304
1165.00,0.0305
1164.75,0.0306
1164.50,0.0306
1164.25,0.0306
1164.00,0.0307
1163.75,0.0307
1163.50,0.0308
1163.25,0.0309
1163.00,0.0308
1162.75,0.0307
1162.50,0.0306
1162.25,0.0305
1162.00,0.0305
1161.75,0.0305
1161.50,0.0304
1161.25,0.0304
1161.00,0.0304
1160.75,0.0304
1160.50,0.0305
1160.25,0.0306
1160.00,0.0308
1159.75,0.0309
1159.50,0.0310
1159.25,0.0310
1159.00,0.0311
1158.75,0.0312
1158.50,0.0313
1158.25,0.0315
1158.00,0.0316
1157.75,0.0318
1157.50,0.0318
1157.25,0.0318
1157.00,0.0318
1156.75,0.0318
1156.50,0.0318
1156.25,0.0319
1156.00,0.0320
1155.75,0.0322
1155.50,0.0323
1155.25,0.0323
1155.00,0.0324
1154.75,0.0325
1154.50,0.0325
1154.25,0.0326
1154.00,0.0327
1153.75,0.0327
1153.50,0.0326
1153.25,0.0325
1153.00,0.0324
1152.75,0.0324
1152.50,0.0324
1152.25,0.0325
1152.00,0.0326
1151.75,0.0328
1151.50,0.0330
1151.25,0.0333
1151.00,0.0335
1150.75,0.0337
1150.50,0.0338
1150.25,0.0339
1150.00,0.0341
1149.75,0.0342
1149.50,0.0344
1149.25,0.0345
1149.00,0.0346
1148.75,0.0346
1148.50,0.0346
1148.25,0.0346
1148.00,0.0346
1147.75,0.0347
1147.50,0.0348
1147.25,0.0350
1147.00,0.0351
1146.75,0.0352
1146.50,0.0352
1146.25,0.0353
1146.00,0.0354
1145.75,0.0355
1145.50,0.0357
1145.25,0.0359
1145.00,0.0361
1144.75,0.0362
1144.50,0.0364
1144.25,0.0366
1144.00,0.0368
1143.75,0.0370
1143.50,0.0372
1143.25,0.0373
1143.00,0.0375
1142.75,0.0377
1142.50,0.0379
1142.25,0.0380
1142.00,0.0381
1141.75,0.0381
1141.50,0.0381
1141.25,0.0380
1141.00,0.0381
1140.75,0.0383
1140.50,0.0384
1140.25,0.0386
1140.00,0.0389
1139.75,0.0392
1139.50,0.0396
1139.25,0.0401
1139.00,0.0404
1138.75,0.0407
1138.50,0.0408
1138.25,0.0409
1138.00,0.0411
1137.75,0.0413
1137.50,0.0415
1137.25,0.0417
1137.00,0.0419
1136.75,0.0421
1136.50,0.0422
1136.25,0.0422
1136.00,0.0422
1135.75,0.0422
1135.50,0.0425
1135.25,0.0429
1135.00,0.0434
1134.75,0.0438
1134.50,0.0442
1134.25,0.0443
1134.00,0.0443
1133.75,0.0444
1133.50,0.0445
1133.25,0.0447
1133.00,0.0451
1132.75,0.0454
1132.50,0.0457
1132.25,0.0460
1132.00,0.0462
1131.75,0.0465
1131.50,0.0469
1131.25,0.0473
1131.00,0.0478
1130.75,0.0483
1130.50,0.0487
1130.25,0.0491
1130.00,0.0493
1129.75,0.0494
1129.50,0.0494
1129.25,0.0496
1129.00,0.0498
1128.75,0.0502
1128.50,0.0507
1128.25,0.0511
1128.00,0.0516
1127.75,0.0520
1127.50,0.0524
1127.25,0.0528
1127.00,0.0532
1126.75,0.0535
1126.50,0.0539
1126.25,0.0542
1126.00,0.0546
1125.75,0.0550
1125.50,0.0554
1125.25,0.0558
1125.00,0.0562
1124.75,0.0566
1124.50,0.0570
1124.25,0.0575
1124.00,0.0580
1123.75,0.0586
1123.50,0.0592
1123.25,0.0600
1123.00,0.0607
1122.75,0.0614
1122.50,0.0619
1122.25,0.0624
1122.00,0.0629
1121.75,0.0634
1121.50,0.0639
1121.25,0.0645
1121.00,0.0650
1120.75,0.0656
1120.50,0.0662
1120.25,0.0669
1120.00,0.0675
1119.75,0.0681
1119.50,0.0686
1119.25,0.0691
1119.00,0.0695
1118.75,0.0701
1118.50,0.0708
1118.25,0.0715
1118.00,0.0724
1117.75,0.0733
1117.50,0.0742
1117.25,0.0750
1117.00,0.0758
1116.75,0.0765
1116.50,0.0771
1116.25,0.0777
1116.00,0.0785
1115.75,0.0793
1115.50,0.0803
1115.25,0.0814
1115.00,0.0823
1114.75,0.0831
1114.50,0.0837
1114.25,0.0844
1114.00,0.0852
1113.75,0.0861
1113.50,0.0872
1113.25,0.0883
1113.00,0.0894
1112.75,0.0903
1112.50,0.0912
1112.25,0.0919
1112.00,0.0927
1111.75,0.0935
1111.50,0.0944
1111.25,0.0956
1111.00,0.0969
1110.75,0.0982
1110.50,0.0995
1110.25,0.1006
1110.00,0.1017
1109.75,0.1027
1109.50,0.1037
1109.25,0.1047
1109.00,0.1057
1108.75,0.1067
1108.50,0.1078
1108.25,0.1090
1108.00,0.1102
1107.75,0.1113
1107.50,0.1123
1107.25,0.1133
1107.00,0.1145
1106.75,0.1157
1106.50,0.1171
1106.25,0.1185
1106.00,0.1200
1105.75,0.1215
1105.50,0.1230
1105.25,0.1243
1105.00,0.1255
1104.75,0.1266
1104.50,0.1277
1104.25,0.1288
1104.00,0.1301
1103.75,0.1314
1103.50,0.1328
1103.25,0.1341
1103.00,0.1355
1102.75,0.1368
1102.50,0.1382
1102.25,0.1396
1102.00,0.1410
1101.75,0.1423
1101.50,0.1436
1101.25,0.1449
1101.00,0.1461
1100.75,0.1475
1100.50,0.1489
1100.25,0.1505
1100.00,0.1521
1099.75,0.1537
1099.50,0.1552
1099.25,0.1567
1099.00,0.1581
1098.75,0.1595
1098.50,0.1610
1098.25,0.1625
1098.00,0.1639
1097.75,0.1652
1097.50,0.1665
1097.25,0.1678
1097.00,0.1691
1096.75,0.1704
1096.50,0.1718
1096.25,0.1733
1096.00,0.1749
1095.75,0.1764
1095.50,0.1779
1095.25,0.1793
1095.00,0.1807
1094.75,0.1822
1094.50,0.1838
1094.25,0.1854
1094.00,0.1869
1093.75,0.1883
1093.50,0.1897
1093.25,0.1912
1093.00,0.1927
1092.75,0.1942
1092.50,0.1956
1092.25,0.1971
1092.00,0.1986
1091.75,0.2001
1091.50,0.2016
1091.25,0.2031
1091.00,0.2044
1090.75,0.2057
1090.50,0.2072
1090.25,0.2087
1090.00,0.2103
1089.75,0.2118
1089.50,0.2132
1089.25,0.2144
1089.00,0.2156
1088.75,0.2167
1088.50,0.2180
1088.25,0.2193
1088.00,0.2207
1087.75,0.2220
1087.50,0.2233
1087.25,0.2246
1087.00,0.2259
1086.75,0.2273
1086.50,0.2286
1086.25,0.2300
1086.00,0.2313
1085.75,0.2325
1085.50,0.2338
1085.25,0.2351
1085.00,0.2363
1084.75,0.2374
1084.50,0.2383
1084.25,0.2392
1084.00,0.2401
1083.75,0.2412
1083.50,0.2424
1083.25,0.2436
1083.00,0.2447
1082.75,0.2456
1082.50,0.2464
1082.25,0.2472
1082.00,0.2480
1081.75,0.2488
1081.50,0.2497
1081.25,0.2508
1081.00,0.2521
1080.75,0.2534
1080.50,0.2545
1080.25,0.2552
1080.00,0.2556
1079.75,0.2560
1079.50,0.2564
1079.25,0.2569
1079.00,0.2576
1078.75,0.2583
1078.50,0.2590
1078.25,0.2597
1078.00,0.2604
1077.75,0.2611
1077.50,0.2617
1077.25,0.2622
1077.00,0.2627
1076.75,0.2633
1076.50,0.2639
1076.25,0.2645
1076.00,0.2651
1075.75,0.2655
1075.50,0.2660
1075.25,0.2665
1075.00,0.2671
1074.75,0.2676
1074.50,0.2682
1074.25,0.2686
1074.00,0.2689
1073.75,0.2692
1073.50,0.2695
1073.25,0.2701
1073.00,0.2708
1072.75,0.2716
1072.50,0.2723
1072.25,0.2726
1072.00,0.2727
1071.75,0.2727
1071.50,0.2728
1071.25,0.2730
1071.00,0.2735
1070.75,0.2739
1070.50,0.2744
1070.25,0.2748
1070.00,0.2751
1069.75,0.2754
1069.50,0.2757
1069.25,0.2761
1069.00,0.2763
1068.75,0.2765
1068.50,0.2766
1068.25,0.2767
1068.00,0.2770
1067.75,0.2773
1067.50,0.2775
1067.25,0.2776
1067.00,0.2777
1066.75,0.2779
1066.50,0.2782
1066.25,0.2786
1066.00,0.2791
1065.75,0.2796
1065.50,0.2799
1065.25,0.2800
1065.00,0.2800
1064.75,0.2799
1064.50,0.2798
1064.25,0.2798
1064.00,0.2797
1063.75,0.2796
1063.50,0.2796
1063.25,0.2796
1063.00,0.2796
1062.75,0.2797
1062.50,0.2797
1062.25,0.2796
1062.00,0.2795
1061.75,0.2795
1061.50,0.2794
1061.25,0.2795
1061.00,0.2795
1060.75,0.2796
1060.50,0.2797
1060.25,0.2797
1060.00,0.2796
1059.75,0.2796
1059.50,0.2796
1059.25,0.2797
1059.00,0.2799
1058.75,0.2802
1058.50,0.2804
1058.25,0.2806
1058.00,0.2805
1057.75,0.2803
1057.50,0.2799
1057.25,0.2795
1057.00,0.2791
1056.75,0.2787
1056.50,0.2785
1056.25,0.2784
1056.00,0.2783
1055.75,0.2781
1055.50,0.2778
1055.25,0.2774
1055.00,0.2768
1054.75,0.2764
1054.50,0.2761
1054.25,0.2761
1054.00,0.2762
1053.75,0.2764
1053.50,0.2765
1053.25,0.2763
1053.00,0.2760
1052.75,0.2757
1052.50,0.2754
1052.25,0.2751
1052.00,0.2747
1051.75,0.2742
1051.50,0.2737
1051.25,0.2734
1051.00,0.2731
1050.75,0.2729
1050.50,0.2726
1050.25,0.2724
1050.00,0.2721
1049.75,0.2719
1049.50,0.2717
1049.25,0.2713
1049.00,0.2709
1048.75,0.2706
1048.50,0.2703
1048.25,0.2701
1048.00,0.2699
1047.75,0.2696
1047.50,0.2694
1047.25,0.2693
1047.00,0.2693
1046.75,0.2693
1046.50,0.2693
1046.25,0.2690
1046.00,0.2687
1045.75,0.2683
1045.50,0.2680
1045.25,0.2679
1045.00,0.2680
1044.75,0.2681
1044.50,0.2681
1044.25,0.2679
1044.00,0.2677
1043.75,0.2675
1043.50,0.2672
1043.25,0.2669
1043.00,0.2667
1042.75,0.2666
1042.50,0.2666
1042.25,0.2668
1042.00,0.2669
1041.75,0.2670
1041.50,0.2669
1041.25,0.2669
1041.00,0.2668
1040.75,0.2668
1040.50,0.2669
1040.25,0.2670
1040.00,0.2672
1039.75,0.2674
1039.50,0.2674
1039.25,0.2674
1039.00,0.2673
1038.75,0.2673
1038.50,0.2672
1038.25,0.2672
1038.00,0.2672
1037.75,0.2673
1037.50,0.2677
1037.25,0.2682
1037.00,0.2689
1036.75,0.2695
1036.50,0.2701
1036.25,0.2705
1036.00,0.2709
1035.75,0.2714
1035.50,0.2719
1035.25,0.2724
1035.00,0.2727
1034.75,0.2728
1034.50,0.2729
1034.25,0.2730
1034.00,0.2733
1033.75,0.2737
1033.50,0.2743
1033.25,0.2749
1033.00,0.2755
1032.75,0.2759
1032.50,0.2763
1032.25,0.2767
1032.00,0.2773
1031.75,0.2782
1031.50,0.2793
1031.25,0.2804
1031.00,0.2814
1030.75,0.2821
1030.50,0.2827
1030.25,0.2833
1030.00,0.2838
1029.75,0.2844
1029.50,0.2850
1029.25,0.2856
1029.00,0.2862
1028.75,0.2869
1028.50,0.2877
1028.25,0.2884
1028.00,0.2892
1027.75,0.2900
1027.50,0.2911
1027.25,0.2923
1027.00,0.2938
1026.75,0.2953
1026.50,0.2967
1026.25,0.2978
1026.00,0.2987
1025.75,0.2997
1025.50,0.3008
1025.25,0.3021
1025.00,0.3035
1024.75,0.3048
1024.50,0.3060
1024.25,0.3071
1024.00,0.3081
1023.75,0.3091
1023.50,0.3103
1023.25,0.3116
1023.00,0.3132
1022.75,0.3149
1022.50,0.3166
1022.25,0.3182
1022.00,0.3196
1021.75,0.3211
1021.50,0.3225
1021.25,0.3240
1021.00,0.3254
1020.75,0.3269
1020.50,0.3285
1020.25,0.3300
1020.00,0.3316
1019.75,0.3332
1019.50,0.3346
1019.25,0.3360
1019.00,0.3375
1018.75,0.3392
1018.50,0.3411
1018.25,0.3431
1018.00,0.3450
1017.75,0.3466
1017.50,0.3481
1017.25,0.3496
1017.00,0.3510
1016.75,0.3525
1016.50,0.3539
1016.25,0.3553
1016.00,0.3566
1015.75,0.3579
1015.50,0.3594
1015.25,0.3609
1015.00,0.3624
1014.75,0.3635
1014.50,0.3641
1014.25,0.3644
1014.00,0.3644
1013.75,0.3645
1013.50,0.3647
1013.25,0.3648
1013.00,0.3648
1012.75,0.3645
1012.50,0.3640
1012.25,0.3635
1012.00,0.3629
1011.75,0.3621
1011.50,0.3612
1011.25,0.3600
1011.00,0.3587
1010.75,0.3571
1010.50,0.3553
1010.25,0.3531
1010.00,0.3505
1009.75,0.3478
1009.50,0.3449
1009.25,0.3419
1009.00,0.3387
1008.75,0.3352
1008.50,0.3316
1008.25,0.3279
1008.00,0.3240
1007.75,0.3201
1007.50,0.3159
1007.25,0.3114
1007.00,0.3068
1006.75,0.3021
1006.50,0.2975
1006.25,0.2929
1006.00,0.2882
1005.75,0.2832
1005.50,0.2781
1005.25,0.2729
1005.00,0.2678
1004.75,0.2629
1004.50,0.2583
1004.25,0.2538
1004.00,0.2494
1003.75,0.2449
1003.50,0.2402
1003.25,0.2353
1003.00,0.2302
1002.75,0.2250
1002.50,0.2198
1002.25,0.2146
1002.00,0.2097
1001.75,0.2050
1001.50,0.2005
1001.25,0.1962
1001.00,0.1920
1000.75,0.1879
1000.50,0.1838
1000.25,0.1796
1000.00,0.1754
999.75,0.1711
999.50,0.1668
999.25,0.1627
999.00,0.1588
998.75,0.1551
998.50,0.1516
998.25,0.1482
998.00,0.1450
997.75,0.1419
997.50,0.1388
997.25,0.1358
997.00,0.1330
996.75,0.1303
996.50,0.1278
996.25,0.1252
996.00,0.1225
995.75,0.1197
995.50,0.1169
995.25,0.1142
995.00,0.1116
994.75,0.1093
994.50,0.1070
994.25,0.1047
994.00,0.1026
993.75,0.1006
993.50,0.0986
993.25,0.0967
993.00,0.0948
992.75,0.0930
992.50,0.0912
992.25,0.0894
992.00,0.0876
991.75,0.0858
991.50,0.0841
991.25,0.0826
991.00,0.0811
990.75,0.0797
990.50,0.0784
990.25,0.0770
990.00,0.0755
989.75,0.0740
989.50,0.0725
989.25,0.0712
989.00,0.0700
988.75,0.0689
988.50,0.0677
988.25,0.0667
988.00,0.0656
987.75,0.0645
987.50,0.0633
987.25,0.0621
987.00,0.0610
986.75,0.0601
986.50,0.0592
986.25,0.0584
986.00,0.0575
985.75,0.0566
985.50,0.0558
985.25,0.0549
985.00,0.0542
984.75,0.0535
984.50,0.0528
984.25,0.0522
984.00,0.0514
983.75,0.0506
983.50,0.0498
983.25,0.0489
983.00,0.0479
982.75,0.0470
982.50,0.0462
982.25,0.0455
982.00,0.0448
981.75,0.0443
981.50,0.0438
981.25,0.0434
981.00,0.0431
980.75,0.0428
980.50,0.0424
980.25,0.0419
980.00,0.0413
979.75,0.0406
979.50,0.0399
979.25,0.0393
979.00,0.0389
978.75,0.0386
978.50,0.0383
978.25,0.0380
978.00,0.0375
977.75,0.0369
977.50,0.0363
977.25,0.0355
977.00,0.0348
976.75,0.0343
976.50,0.0339
976.25,0.0338
976.00,0.0338
975.75,0.0337
975.50,0.0334
975.25,0.0328
975.00,0.0322
974.75,0.0317
974.50,0.0314
974.25,0.0311
974.00,0.0309
973.75,0.0307
973.50,0.0304
973.25,0.0302
973.00,0.0299
972.75,0.0295
972.50,0.0292
972.25,0.0288
972.00,0.0285
971.75,0.0283
971.50,0.0281
971.25,0.0281
971.00,0.0280
970.75,0.0279
970.50,0.0276
970.25,0.0274
970.00,0.0271
969.75,0.0270
969.50,0.0269
969.25,0.0267
969.00,0.0265
968.75,0.0261
968.50,0.0257
968.25,0.0253
968.00,0.0250
967.75,0.0250
967.50,0.0250
967.25,0.0251
967.00,0.0250
966.75,0.0248
966.50,0.0244
966.25,0.0241
966.00,0.0240
965.75,0.0240
965.50,0.0240
965.25,0.0240
965.00,0.0239
964.75,0.0237
964.50,0.0235
964.25,0.0233
964.00,0.0231
963.75,0.0229
963.50,0.0228
963.25,0.0227
963.00,0.0226
962.75,0.0225
962.50,0.0224
962.25,0.0224
962.00,0.0224
961.75,0.0224
961.50,0.0223
961.25,0.0223
961.00,0.0223
960.75,0.0223
960.50,0.0223
960.25,0.0222
960.00,0.0221
959.75,0.0219
959.50,0.0217
959.25,0.0215
959.00,0.0214
958.75,0.0212
958.50,0.0211
958.25,0.0211
958.00,0.0212
957.75,0.0213
957.50,0.0214
957.25,0.0214
957.00,0.0213
956.75,0.0213
956.50,0.0214
956.25,0.0216
956.00,0.0216
955.75,0.0215
955.50,0.0213
955.25,0.0210
955.00,0.0206
954.75,0.0204
954.50,0.0202
954.25,0.0200
954.00,0.0197
953.75,0.0195
953.50,0.0193
953.25,0.0192
953.00,0.0192
952.75,0.0192
952.50,0.0190
952.25,0.0188
952.00,0.0185
951.75,0.0183
951.50,0.0181
951.25,0.0178
951.00,0.0175
950.75,0.0172
950.50,0.0169
950.25,0.0168
950.00,0.0169
949.75,0.0170
949.50,0.0172
949.25,0.0172
949.00,0.0171
948.75,0.0169
948.50,0.0168
948.25,0.0168
948.00,0.0167
947.75,0.0166
947.50,0.0165
947.25,0.0162
947.00,0.0161
946.75,0.0161
946.50,0.0162
946.25,0.0162
946.00,0.0162
945.75,0.0161
945.50,0.0161
945.25,0.0160
945.00,0.0159
944.75,0.0157
944.50,0.0155
944.25,0.0153
944.00,0.0153
943.75,0.0154
943.50,0.0155
943.25,0.0155
943.00,0.0155
942.75,0.0156
942.50,0.0155
942.25,0.0154
942.00,0.0153
941.75,0.0153
941.50,0.0152
941.25,0.0152
941.00,0.0152
940.75,0.0152
940.50,0.0153
940.25,0.0154
940.00,0.0154
939.75,0.0153
939.50,0.0152
939.25,0.0150
939.00,0.0149
938.75,0.0148
938.50,0.0147
938.25,0.0146
938.00,0.0145
937.75,0.0145
937.50,0.0145
937.25,0.0146
937.00,0.0146
936.75,0.0147
936.50,0.0148
936.25,0.0149
936.00,0.0150
935.75,0.0150
935.50,0.0150
935.25,0.0151
935.00,0.0151
934.75,0.0151
934.50,0.0151
934.25,0.0151
934.00,0.0151
933.75,0.0150
933.50,0.0150
933.25,0.0151
933.00,0.0152
932.75,0.0154
932.50,0.0155
932.25,0.0156
932.00,0.0157
931.75,0.0158
931.50,0.0160
931.25,0.0164
931.00,0.0168
930.75,0.0171
930.50,0.0174
930.25,0.0174
930.00,0.0174
929.75,0.0173
929.50,0.0172
929.25,0.0170
929.00,0.0168
928.75,0.0166
928.50,0.0165
928.25,0.0165
928.00,0.0167
927.75,0.0170
927.50,0.0173
927.25,0.0176
927.00,0.0178
926.75,0.0179
926.50,0.0180
926.25,0.0182
926.00,0.0184
925.75,0.0185
925.50,0.0187
925.25,0.0187
925.00,0.0187
924.75,0.0187
924.50,0.0187
924.25,0.0187
924.00,0.0187
923.75,0.0189
923.50,0.0190
923.25,0.0190
923.00,0.0189
922.75,0.0189
922.50,0.0190
922.25,0.0192
922.00,0.0194
921.75,0.0196
921.50,0.0198
921.25,0.0201
921.00,0.0204
920.75,0.0208
920.50,0.0212
920.25,0.0217
920.00,0.0221
919.75,0.0225
919.50,0.0228
919.25,0.0229
919.00,0.0229
918.75,0.0228
918.50,0.0229
918.25,0.0232
918.00,0.0237
917.75,0.0242
917.50,0.0247
917.25,0.0251
917.00,0.0254
916.75,0.0257
916.50,0.0258
916.25,0.0259
916.00,0.0260
915.75,0.0260
915.50,0.0260
915.25,0.0261
915.00,0.0262
914.75,0.0264
914.50,0.0267
914.25,0.0271
914.00,0.0274
913.75,0.0276
913.50,0.0277
913.25,0.0278
913.00,0.0279
912.75,0.0281
912.50,0.0282
912.25,0.0283
912.00,0.0283
911.75,0.0282
911.50,0.0281
911.25,0.0280
911.00,0.0278
910.75,0.0277
910.50,0.0275
910.25,0.0273
910.00,0.0273
909.75,0.0273
909.50,0.0273
909.25,0.0272
909.00,0.0270
908.75,0.0268
908.50,0.0267
908.25,0.0265
908.00,0.0264
907.75,0.0263
907.50,0.0262
907.25,0.0261
907.00,0.0260
906.75,0.0259
906.50,0.0258
906.25,0.0256
906.00,0.0254
905.75,0.0250
905.50,0.0246
905.25,0.0242
905.00,0.0239
904.75,0.0239
904.50,0.0239
904.25,0.0240
904.00,0.0242
903.75,0.0245
903.50,0.0248
903.25,0.0250
903.00,0.0251
902.75,0.0251
902.50,0.0250
902.25,0.0250
902.00,0.0250
901.75,0.0250
901.50,0.0251
901.25,0.0253
901.00,0.0255
900.75,0.0257
900.50,0.0258
900.25,0.0259
900.00,0.0259
899.75,0.0260
899.50,0.0260
899.25,0.0261
899.00,0.0262
898.75,0.0262
898.50,0.0263
898.25,0.0264
898.00,0.0266
897.75,0.0269
897.50,0.0272
897.25,0.0274
897.00,0.0275
896.75,0.0273
896.50,0.0272
896.25,0.0272
896.00,0.0275
895.75,0.0280
895.50,0.0288
895.25,0.0295
895.00,0.0301
894.75,0.0304
894.50,0.0305
894.25,0.0305
894.00,0.0305
893.75,0.0307
893.50,0.0311
893.25,0.0314
893.00,0.0317
892.75,0.0318
892.50,0.0318
892.25,0.0317
892.00,0.0316
891.75,0.0318
891.50,0.0322
891.25,0.0328
891.00,0.0334
890.75,0.0338
890.50,0.0340
890.25,0.0340
890.00,0.0337
889.75,0.0333
889.50,0.0330
889.25,0.0330
889.00,0.0335
888.75,0.0344
888.50,0.0355
888.25,0.0363
888.00,0.0368
887.75,0.0372
887.50,0.0376
887.25,0.0382
887.00,0.0387
886.75,0.0391
886.50,0.0393
886.25,0.0394
886.00,0.0395
885.75,0.0399
885.50,0.0404
885.25,0.0411
885.00,0.0417
884.75,0.0424
884.50,0.0430
884.25,0.0435
884.00,0.0441
883.75,0.0447
883.50,0.0452
883.25,0.0457
883.00,0.0460
882.75,0.0462
882.50,0.0466
882.25,0.0472
882.00,0.0480
881.75,0.0488
881.50,0.0495
881.25,0.0499
881.00,0.0502
880.75,0.0505
880.50,0.0509
880.25,0.0515
880.00,0.0523
879.75,0.0531
879.50,0.0540
879.25,0.0548
879.00,0.0556
878.75,0.0563
878.50,0.0570
878.25,0.0579
878.00,0.0590
877.75,0.0600
877.50,0.0609
877.25,0.0615
877.00,0.0620
876.75,0.0627
876.50,0.0636
876.25,0.0649
876.00,0.0662
875.75,0.0675
875.50,0.0687
875.25,0.0697
875.00,0.0705
874.75,0.0712
874.50,0.0718
874.25,0.0723
874.00,0.0729
873.75,0.0737
873.50,0.0749
873.25,0.0764
873.00,0.0782
872.75,0.0800
872.50,0.0816
872.25,0.0829
872.00,0.0841
871.75,0.0852
871.50,0.0865
871.25,0.0879
871.00,0.0894
870.75,0.0909
870.50,0.0924
870.25,0.0937
870.00,0.0949
869.75,0.0961
869.50,0.0973
869.25,0.0985
869.00,0.0996
868.75,0.1006
868.50,0.1014
868.25,0.1021
868.00,0.1029
867.75,0.1037
867.50,0.1046
867.25,0.1054
867.00,0.1063
866.75,0.1072
866.50,0.1080
866.25,0.1087
866.00,0.1093
865.75,0.1097
865.50,0.1099
865.25,0.1101
865.00,0.1101
864.75,0.1101
864.50,0.1100
864.25,0.1098
864.00,0.1096
863.75,0.1095
863.50,0.1095
863.25,0.1096
863.00,0.1097
862.75,0.1096
862.50,0.1094
862.25,0.1090
862.00,0.1086
861.75,0.1082
861.50,0.1077
861.25,0.1073
861.00,0.1069
860.75,0.1065
860.50,0.1062
860.25,0.1058
860.00,0.1052
859.75,0.1046
859.50,0.1038
859.25,0.1031
859.00,0.1024
858.75,0.1018
858.50,0.1015
858.25,0.1013
858.00,0.1014
857.75,0.1013
857.50,0.1009
857.25,0.1004
857.00,0.0999
856.75,0.0997
856.50,0.0997
856.25,0.1000
856.00,0.1003
855.75,0.1007
855.50,0.1011
855.25,0.1016
855.00,0.1019
854.75,0.1021
854.50,0.1021
854.25,0.1022
854.00,0.1023
853.75,0.1027
853.50,0.1034
853.25,0.1042
853.00,0.1049
852.75,0.1054
852.50,0.1059
852.25,0.1064
852.00,0.1072
851.75,0.1084
851.50,0.1098
851.25,0.1113
851.00,0.1127
850.75,0.1140
850.50,0.1149
850.25,0.1156
850.00,0.1162
849.75,0.1167
849.50,0.1175
849.25,0.1186
849.00,0.1200
848.75,0.1216
848.50,0.1233
848.25,0.1249
848.00,0.1264
847.75,0.1278
847.50,0.1291
847.25,0.1303
847.00,0.1314
846.75,0.1325
846.50,0.1335
846.25,0.1344
846.00,0.1352
845.75,0.1359
845.50,0.1364
845.25,0.1368
845.00,0.1369
844.75,0.1369
844.50,0.1373
844.25,0.1381
844.00,0.1393
843.75,0.1406
843.50,0.1415
843.25,0.1420
843.00,0.1420
842.75,0.1415
842.50,0.1407
842.25,0.1400
842.00,0.1395
841.75,0.1392
841.50,0.1390
841.25,0.1387
841.00,0.1382
840.75,0.1372
840.50,0.1361
840.25,0.1350
840.00,0.1341
839.75,0.1335
839.50,0.1328
839.25,0.1320
839.00,0.1310
838.75,0.1299
838.50,0.1287
838.25,0.1277
838.00,0.1267
837.75,0.1255
837.50,0.1242
837.25,0.1228
837.00,0.1213
836.75,0.1199
836.50,0.1188
836.25,0.1178
836.00,0.1169
835.75,0.1158
835.50,0.1146
835.25,0.1132
835.00,0.1121
834.75,0.1112
834.50,0.1105
834.25,0.1099
834.00,0.1091
833.75,0.1082
833.50,0.1075
833.25,0.1071
833.00,0.1070
832.75,0.1072
832.50,0.1075
832.25,0.1076
832.00,0.1074
831.75,0.1071
831.50,0.1066
831.25,0.1061
831.00,0.1055
830.75,0.1052
830.50,0.1052
830.25,0.1056
830.00,0.1063
829.75,0.1070
829.50,0.1078
829.25,0.1084
829.00,0.1089
828.75,0.1093
828.50,0.1095
828.25,0.1098
828.00,0.1103
827.75,0.1110
827.50,0.1122
827.25,0.1136
827.00,0.1151
826.75,0.1167
826.50,0.1183
826.25,0.1200
826.00,0.1218
825.75,0.1236
825.50,0.1252
825.25,0.1268
825.00,0.1284
824.75,0.1302
824.50,0.1320
824.25,0.1339
824.00,0.1357
823.75,0.1377
823.50,0.1398
823.25,0.1422
823.00,0.1447
822.75,0.1472
822.50,0.1494
822.25,0.1513
822.00,0.1530
821.75,0.1545
821.50,0.1561
821.25,0.1579
821.00,0.1599
820.75,0.1621
820.50,0.1644
820.25,0.1665
820.00,0.1683
819.75,0.1698
819.50,0.1711
819.25,0.1724
819.00,0.1741
818.75,0.1760
818.50,0.1781
818.25,0.1800
818.00,0.1814
817.75,0.1826
817.50,0.1836
817.25,0.1847
817.00,0.1858
816.75,0.1869
816.50,0.1878
816.25,0.1888
816.00,0.1899
815.75,0.1912
815.50,0.1925
815.25,0.1938
815.00,0.1950
814.75,0.1963
814.50,0.1974
814.25,0.1984
814.00,0.1995
813.75,0.2006
813.50,0.2019
813.25,0.2034
813.00,0.2049
812.75,0.2066
812.50,0.2083
812.25,0.2103
812.00,0.2124
811.75,0.2145
811.50,0.2166
811.25,0.2185
811.00,0.2204
810.75,0.2223
810.50,0.2244
810.25,0.2267
810.00,0.2292
809.75,0.2317
809.50,0.2340
809.25,0.2363
809.00,0.2386
808.75,0.2410
808.50,0.2436
808.25,0.2464
808.00,0.2494
807.75,0.2525
807.50,0.2556
807.25,0.2589
807.00,0.2625
806.75,0.2664
806.50,0.2705
806.25,0.2743
806.00,0.2775
805.75,0.2802
805.50,0.2827
805.25,0.2856
805.00,0.2891
804.75,0.2931
804.50,0.2975
804.25,0.3019
804.00,0.3063
803.75,0.3108
803.50,0.3153
803.25,0.3198
803.00,0.3242
802.75,0.3283
802.50,0.3324
802.25,0.3364
802.00,0.3405
801.75,0.3449
801.50,0.3497
801.25,0.3547
801.00,0.3597
800.75,0.3646
800.50,0.3692
800.25,0.3735
800.00,0.3776
