Created as New Dataset,Sample 028 By irlear Date Wednesday, December 31 2008
cm-1,A
4000.00,0.0066
3999.75,0.0065
3999.50,0.0064
3999.25,0.0062
3999.00,0.0060
3998.75,0.0059
3998.50,0.0059
3998.25,0.0059
3998.00,0.0061
3997.75,0.0063
3997.50,0.0064
3997.25,0.0065
3997.00,0.0066
3996.75,0.0066
3996.50,0.0066
3996.25,0.0066
3996.00,0.0066
3995.75,0.0065
3995.50,0.0064
3995.25,0.0062
3995.00,0.0060
3994.75,0.0060
3994.50,0.0061
3994.25,0.0062
3994.00,0.0064
3993.75,0.0065
3993.50,0.0066
3993.25,0.0066
3993.00,0.0065
3992.75,0.0064
3992.50,0.0063
3992.25,0.0062
3992.00,0.0061
3991.75,0.0061
3991.50,0.0062
3991.25,0.0063
3991.00,0.0063
3990.75,0.0063
3990.50,0.0062
3990.25,0.0062
3990.00,0.0062
3989.75,0.0063
3989.50,0.0063
3989.25,0.0063
3989.00,0.0063
3988.75,0.0064
3988.50,0.0064
3988.25,0.0063
3988.00,0.0063
3987.75,0.0062
3987.50,0.0062
3987.25,0.0063
3987.00,0.0063
3986.75,0.0064
3986.50,0.0064
3986.25,0.0064
3986.00,0.0064
3985.75,0.0064
3985.50,0.0063
3985.25,0.0063
3985.00,0.0063
3984.75,0.0064
3984.50,0.0065
3984.25,0.0067
3984.00,0.0067
3983.75,0.0067
3983.50,0.0067
3983.25,0.0066
3983.00,0.0066
3982.75,0.0066
3982.50,0.0065
3982.25,0.0065
3982.00,0.0064
3981.75,0.0064
3981.50,0.0064
3981.25,0.0064
3981.00,0.0064
3980.75,0.0063
3980.50,0.0062
3980.25,0.0061
3980.00,0.0060
3979.75,0.0059
3979.50,0.0059
3979.25,0.0060
3979.00,0.0060
3978.75,0.0060
3978.50,0.0061
3978.25,0.0062
3978.00,0.0062
3977.75,0.0062
3977.50,0.0062
3977.25,0.0062
3977.00,0.0061
3976.75,0.0061
3976.50,0.0061
3976.25,0.0061
3976.00,0.0062
3975.75,0.0062
3975.50,0.0062
3975.25,0.0061
3975.00,0.0061
3974.75,0.0061
3974.50,0.0061
3974.25,0.0061
3974.00,0.0061
3973.75,0.0061
3973.50,0.0060
3973.25,0.0060
3973.00,0.0061
3972.75,0.0062
3972.50,0.0064
3972.25,0.0065
3972.00,0.0066
3971.75,0.0066
3971.50,0.0065
3971.25,0.0064
3971.00,0.0063
3970.75,0.0063
3970.50,0.0063
3970.25,0.0063
3970.00,0.0063
3969.75,0.0063
3969.50,0.0063
3969.25,0.0063
3969.00,0.0062
3968.75,0.0060
3968.50,0.0058
3968.25,0.0057
3968.00,0.0056
3967.75,0.0057
3967.50,0.0059
3967.25,0.0062
3967.00,0.0064
3966.75,0.0066
3966.50,0.0068
3966.25,0.0068
3966.00,0.0067
3965.75,0.0065
3965.50,0.0063
3965.25,0.0062
3965.00,0.0062
3964.75,0.0062
3964.50,0.0062
3964.25,0.0062
3964.00,0.0062
3963.75,0.0061
3963.50,0.0061
3963.25,0.0060
3963.00,0.0061
3962.75,0.0061
3962.50,0.0062
3962.25,0.0063
3962.00,0.0062
3961.75,0.0062
3961.50,0.0061
3961.25,0.0060
3961.00,0.0060
3960.75,0.0061
3960.50,0.0062
3960.25,0.0062
3960.00,0.0062
3959.75,0.0061
3959.50,0.0061
3959.25,0.0061
3959.00,0.0061
3958.75,0.0062
3958.50,0.0062
3958.25,0.0062
3958.00,0.0062
3957.75,0.0062
3957.50,0.0063
3957.25,0.0063
3957.00,0.0064
3956.75,0.0064
3956.50,0.0063
3956.25,0.0062
3956.00,0.0061
3955.75,0.0059
3955.50,0.0059
3955.25,0.0058
3955.00,0.0058
3954.75,0.0058
3954.50,0.0058
3954.25,0.0059
3954.00,0.0060
3953.75,0.0061
3953.50,0.0062
3953.25,0.0063
3953.00,0.0062
3952.75,0.0062
3952.50,0.0061
3952.25,0.0061
3952.00,0.0061
3951.75,0.0062
3951.50,0.0062
3951.25,0.0062
3951.00,0.0063
3950.75,0.0063
3950.50,0.0062
3950.25,0.0061
3950.00,0.0060
3949.75,0.0059
3949.50,0.0059
3949.25,0.0060
3949.00,0.0062
3948.75,0.0064
3948.50,0.0065
3948.25,0.0064
3948.00,0.0063
3947.75,0.0061
3947.50,0.0059
3947.25,0.0058
3947.00,0.0057
3946.75,0.0057
3946.50,0.0058
3946.25,0.0058
3946.00,0.0058
3945.75,0.0059
3945.50,0.0060
3945.25,0.0062
3945.00,0.0065
3944.75,0.0067
3944.50,0.0068
3944.25,0.0068
3944.00,0.0065
3943.75,0.0063
3943.50,0.0061
3943.25,0.0059
3943.00,0.0058
3942.75,0.0057
3942.50,0.0056
3942.25,0.0056
3942.00,0.0058
3941.75,0.0059
3941.50,0.0061
3941.25,0.0061
3941.00,0.0061
3940.75,0.0061
3940.50,0.0062
3940.25,0.0063
3940.00,0.0062
3939.75,0.0061
3939.50,0.0060
3939.25,0.0059
3939.00,0.0060
3938.75,0.0061
3938.50,0.0062
3938.25,0.0062
3938.00,0.0061
3937.75,0.0060
3937.50,0.0059
3937.25,0.0058
3937.00,0.0058
3936.75,0.0057
3936.50,0.0057
3936.25,0.0057
3936.00,0.0057
3935.75,0.0058
3935.50,0.0059
3935.25,0.0060
3935.00,0.0061
3934.75,0.0062
3934.50,0.0062
3934.25,0.0062
3934.00,0.0063
3933.75,0.0063
3933.50,0.0062
3933.25,0.0062
3933.00,0.0061
3932.75,0.0062
3932.50,0.0061
3932.25,0.0061
3932.00,0.0061
3931.75,0.0061
3931.50,0.0062
3931.25,0.0062
3931.00,0.0062
3930.75,0.0061
3930.50,0.0060
3930.25,0.0059
3930.00,0.0059
3929.75,0.0059
3929.50,0.0060
3929.25,0.0061
3929.00,0.0062
3928.75,0.0062
3928.50,0.0062
3928.25,0.0062
3928.00,0.0062
3927.75,0.0061
3927.50,0.0061
3927.25,0.0061
3927.00,0.0061
3926.75,0.0061
3926.50,0.0061
3926.25,0.0061
3926.00,0.0062
3925.75,0.0063
3925.50,0.0064
3925.25,0.0065
3925.00,0.0064
3924.75,0.0062
3924.50,0.0061
3924.25,0.0059
3924.00,0.0058
3923.75,0.0057
3923.50,0.0056
3923.25,0.0056
3923.00,0.0057
3922.75,0.0059
3922.50,0.0060
3922.25,0.0062
3922.00,0.0063
3921.75,0.0064
3921.50,0.0064
3921.25,0.0064
3921.00,0.0063
3920.75,0.0064
3920.50,0.0064
3920.25,0.0065
3920.00,0.0064
3919.75,0.0062
3919.50,0.0060
3919.25,0.0059
3919.00,0.0058
3918.75,0.0057
3918.50,0.0057
3918.25,0.0057
3918.00,0.0058
3917.75,0.0059
3917.50,0.0059
3917.25,0.0059
3917.00,0.0057
3916.75,0.0057
3916.50,0.0058
3916.25,0.0059
3916.00,0.0060
3915.75,0.0061
3915.50,0.0063
3915.25,0.0064
3915.00,0.0066
3914.75,0.0066
3914.50,0.0066
3914.25,0.0064
3914.00,0.0063
3913.75,0.0062
3913.50,0.0061
3913.25,0.0060
3913.00,0.0059
3912.75,0.0059
3912.50,0.0059
3912.25,0.0060
3912.00,0.0062
3911.75,0.0063
3911.50,0.0063
3911.25,0.0063
3911.00,0.0062
3910.75,0.0062
3910.50,0.0061
3910.25,0.0060
3910.00,0.0058
3909.75,0.0057
3909.50,0.0057
3909.25,0.0058
3909.00,0.0059
3908.75,0.0061
3908.50,0.0063
3908.25,0.0065
3908.00,0.0066
3907.75,0.0067
3907.50,0.0067
3907.25,0.0066
3907.00,0.0066
3906.75,0.0066
3906.50,0.0066
3906.25,0.0066
3906.00,0.0064
3905.75,0.0062
3905.50,0.0060
3905.25,0.0060
3905.00,0.0061
3904.75,0.0063
3904.50,0.0065
3904.25,0.0066
3904.00,0.0063
3903.75,0.0060
3903.50,0.0061
3903.25,0.0064
3903.00,0.0064
3902.75,0.0062
3902.50,0.0060
3902.25,0.0060
3902.00,0.0058
3901.75,0.0054
3901.50,0.0050
3901.25,0.0050
3901.00,0.0055
3900.75,0.0059
3900.50,0.0061
3900.25,0.0062
3900.00,0.0063
3899.75,0.0066
3899.50,0.0067
3899.25,0.0067
3899.00,0.0064
3898.75,0.0063
3898.50,0.0064
3898.25,0.0065
3898.00,0.0063
3897.75,0.0061
3897.50,0.0060
3897.25,0.0060
3897.00,0.0061
3896.75,0.0062
3896.50,0.0061
3896.25,0.0061
3896.00,0.0061
3895.75,0.0062
3895.50,0.0062
3895.25,0.0063
3895.00,0.0062
3894.75,0.0061
3894.50,0.0060
3894.25,0.0059
3894.00,0.0058
3893.75,0.0056
3893.50,0.0056
3893.25,0.0057
3893.00,0.0058
3892.75,0.0061
3892.50,0.0063
3892.25,0.0066
3892.00,0.0068
3891.75,0.0069
3891.50,0.0069
3891.25,0.0066
3891.00,0.0062
3890.75,0.0060
3890.50,0.0062
3890.25,0.0063
3890.00,0.0062
3889.75,0.0060
3889.50,0.0059
3889.25,0.0060
3889.00,0.0062
3888.75,0.0064
3888.50,0.0065
3888.25,0.0065
3888.00,0.0066
3887.75,0.0065
3887.50,0.0064
3887.25,0.0063
3887.00,0.0062
3886.75,0.0063
3886.50,0.0065
3886.25,0.0068
3886.00,0.0071
3885.75,0.0071
3885.50,0.0067
3885.25,0.0063
3885.00,0.0065
3884.75,0.0066
3884.50,0.0064
3884.25,0.0061
3884.00,0.0059
3883.75,0.0058
3883.50,0.0058
3883.25,0.0057
3883.00,0.0057
3882.75,0.0057
3882.50,0.0058
3882.25,0.0060
3882.00,0.0063
3881.75,0.0065
3881.50,0.0067
3881.25,0.0069
3881.00,0.0070
3880.75,0.0071
3880.50,0.0070
3880.25,0.0069
3880.00,0.0066
3879.75,0.0064
3879.50,0.0064
3879.25,0.0064
3879.00,0.0063
3878.75,0.0062
3878.50,0.0060
3878.25,0.0060
3878.00,0.0061
3877.75,0.0062
3877.50,0.0063
3877.25,0.0062
3877.00,0.0061
3876.75,0.0059
3876.50,0.0058
3876.25,0.0057
3876.00,0.0058
3875.75,0.0060
3875.50,0.0063
3875.25,0.0065
3875.00,0.0067
3874.75,0.0068
3874.50,0.0069
3874.25,0.0070
3874.00,0.0069
3873.75,0.0069
3873.50,0.0069
3873.25,0.0068
3873.00,0.0065
3872.75,0.0063
3872.50,0.0060
3872.25,0.0059
3872.00,0.0059
3871.75,0.0060
3871.50,0.0061
3871.25,0.0061
3871.00,0.0062
3870.75,0.0062
3870.50,0.0063
3870.25,0.0063
3870.00,0.0063
3869.75,0.0063
3869.50,0.0063
3869.25,0.0065
3869.00,0.0065
3868.75,0.0063
3868.50,0.0061
3868.25,0.0060
3868.00,0.0060
3867.75,0.0059
3867.50,0.0058
3867.25,0.0056
3867.00,0.0056
3866.75,0.0056
3866.50,0.0057
3866.25,0.0058
3866.00,0.0059
3865.75,0.0061
3865.50,0.0063
3865.25,0.0065
3865.00,0.0064
3864.75,0.0063
3864.50,0.0062
3864.25,0.0064
3864.00,0.0064
3863.75,0.0063
3863.50,0.0061
3863.25,0.0061
3863.00,0.0061
3862.75,0.0062
3862.50,0.0062
3862.25,0.0062
3862.00,0.0061
3861.75,0.0060
3861.50,0.0060
3861.25,0.0060
3861.00,0.0062
3860.75,0.0062
3860.50,0.0060
3860.25,0.0059
3860.00,0.0058
3859.75,0.0059
3859.50,0.0061
3859.25,0.0062
3859.00,0.0063
3858.75,0.0063
3858.50,0.0063
3858.25,0.0062
3858.00,0.0062
3857.75,0.0061
3857.50,0.0060
3857.25,0.0060
3857.00,0.0060
3856.75,0.0061
3856.50,0.0063
3856.25,0.0063
3856.00,0.0063
3855.75,0.0063
3855.50,0.0062
3855.25,0.0064
3855.00,0.0066
3854.75,0.0072
3854.50,0.0080
3854.25,0.0092
3854.00,0.0094
3853.75,0.0082
3853.50,0.0081
3853.25,0.0089
3853.00,0.0081
3852.75,0.0066
3852.50,0.0057
3852.25,0.0057
3852.00,0.0059
3851.75,0.0058
3851.50,0.0057
3851.25,0.0060
3851.00,0.0061
3850.75,0.0059
3850.50,0.0057
3850.25,0.0057
3850.00,0.0059
3849.75,0.0060
3849.50,0.0061
3849.25,0.0061
3849.00,0.0061
3848.75,0.0061
3848.50,0.0061
3848.25,0.0062
3848.00,0.0062
3847.75,0.0062
3847.50,0.0062
3847.25,0.0062
3847.00,0.0061
3846.75,0.0061
3846.50,0.0062
3846.25,0.0063
3846.00,0.0064
3845.75,0.0064
3845.50,0.0064
3845.25,0.0063
3845.00,0.0063
3844.75,0.0063
3844.50,0.0064
3844.25,0.0065
3844.00,0.0066
3843.75,0.0065
3843.50,0.0063
3843.25,0.0060
3843.00,0.0059
3842.75,0.0060
3842.50,0.0060
3842.25,0.0060
3842.00,0.0060
3841.75,0.0061
3841.50,0.0062
3841.25,0.0063
3841.00,0.0063
3840.75,0.0062
3840.50,0.0063
3840.25,0.0065
3840.00,0.0066
3839.75,0.0066
3839.50,0.0064
3839.25,0.0062
3839.00,0.0060
3838.75,0.0060
3838.50,0.0061
3838.25,0.0064
3838.00,0.0068
3837.75,0.0067
3837.50,0.0061
3837.25,0.0058
3837.00,0.0060
3836.75,0.0061
3836.50,0.0057
3836.25,0.0054
3836.00,0.0055
3835.75,0.0057
3835.50,0.0061
3835.25,0.0063
3835.00,0.0064
3834.75,0.0063
3834.50,0.0062
3834.25,0.0062
3834.00,0.0063
3833.75,0.0063
3833.50,0.0061
3833.25,0.0059
3833.00,0.0060
3832.75,0.0061
3832.50,0.0064
3832.25,0.0066
3832.00,0.0068
3831.75,0.0070
3831.50,0.0071
3831.25,0.0071
3831.00,0.0072
3830.75,0.0071
3830.50,0.0069
3830.25,0.0064
3830.00,0.0060
3829.75,0.0058
3829.50,0.0059
3829.25,0.0060
3829.00,0.0061
3828.75,0.0062
3828.50,0.0062
3828.25,0.0061
3828.00,0.0061
3827.75,0.0062
3827.50,0.0062
3827.25,0.0063
3827.00,0.0064
3826.75,0.0065
3826.50,0.0064
3826.25,0.0063
3826.00,0.0063
3825.75,0.0063
3825.50,0.0062
3825.25,0.0061
3825.00,0.0062
3824.75,0.0063
3824.50,0.0064
3824.25,0.0064
3824.00,0.0065
3823.75,0.0064
3823.50,0.0064
3823.25,0.0064
3823.00,0.0064
3822.75,0.0064
3822.50,0.0064
3822.25,0.0064
3822.00,0.0064
3821.75,0.0065
3821.50,0.0066
3821.25,0.0067
3821.00,0.0068
3820.75,0.0068
3820.50,0.0067
3820.25,0.0067
3820.00,0.0068
3819.75,0.0069
3819.50,0.0068
3819.25,0.0065
3819.00,0.0063
3818.75,0.0062
3818.50,0.0061
3818.25,0.0061
3818.00,0.0060
3817.75,0.0059
3817.50,0.0058
3817.25,0.0059
3817.00,0.0062
3816.75,0.0067
3816.50,0.0073
3816.25,0.0077
3816.00,0.0075
3815.75,0.0068
3815.50,0.0065
3815.25,0.0068
3815.00,0.0068
3814.75,0.0064
3814.50,0.0060
3814.25,0.0059
3814.00,0.0061
3813.75,0.0064
3813.50,0.0066
3813.25,0.0066
3813.00,0.0066
3812.75,0.0066
3812.50,0.0066
3812.25,0.0066
3812.00,0.0065
3811.75,0.0064
3811.50,0.0062
3811.25,0.0061
3811.00,0.0061
3810.75,0.0061
3810.50,0.0062
3810.25,0.0062
3810.00,0.0062
3809.75,0.0062
3809.50,0.0062
3809.25,0.0062
3809.00,0.0061
3808.75,0.0061
3808.50,0.0061
3808.25,0.0062
3808.00,0.0064
3807.75,0.0067
3807.50,0.0070
3807.25,0.0073
3807.00,0.0074
3806.75,0.0071
3806.50,0.0068
3806.25,0.0069
3806.00,0.0069
3805.75,0.0066
3805.50,0.0062
3805.25,0.0060
3805.00,0.0061
3804.75,0.0062
3804.50,0.0063
3804.25,0.0063
3804.00,0.0063
3803.75,0.0063
3803.50,0.0062
3803.25,0.0062
3803.00,0.0061
3802.75,0.0060
3802.50,0.0060
3802.25,0.0061
3802.00,0.0063
3801.75,0.0065
3801.50,0.0067
3801.25,0.0067
3801.00,0.0064
3800.75,0.0064
3800.50,0.0066
3800.25,0.0064
3800.00,0.0058
3799.75,0.0054
3799.50,0.0053
3799.25,0.0055
3799.00,0.0058
3798.75,0.0062
3798.50,0.0065
3798.25,0.0066
3798.00,0.0067
3797.75,0.0067
3797.50,0.0067
3797.25,0.0067
3797.00,0.0068
3796.75,0.0069
3796.50,0.0070
3796.25,0.0071
3796.00,0.0070
3795.75,0.0070
3795.50,0.0069
3795.25,0.0067
3795.00,0.0064
3794.75,0.0061
3794.50,0.0061
3794.25,0.0062
3794.00,0.0063
3793.75,0.0064
3793.50,0.0063
3793.25,0.0062
3793.00,0.0061
3792.75,0.0061
3792.50,0.0062
3792.25,0.0063
3792.00,0.0064
3791.75,0.0063
3791.50,0.0062
3791.25,0.0061
3791.00,0.0061
3790.75,0.0061
3790.50,0.0062
3790.25,0.0063
3790.00,0.0063
3789.75,0.0064
3789.50,0.0065
3789.25,0.0064
3789.00,0.0064
3788.75,0.0063
3788.50,0.0062
3788.25,0.0062
3788.00,0.0063
3787.75,0.0064
3787.50,0.0065
3787.25,0.0066
3787.00,0.0066
3786.75,0.0066
3786.50,0.0067
3786.25,0.0067
3786.00,0.0067
3785.75,0.0067
3785.50,0.0067
3785.25,0.0067
3785.00,0.0066
3784.75,0.0066
3784.50,0.0065
3784.25,0.0065
3784.00,0.0065
3783.75,0.0066
3783.50,0.0066
3783.25,0.0066
3783.00,0.0065
3782.75,0.0064
3782.50,0.0064
3782.25,0.0063
3782.00,0.0063
3781.75,0.0064
3781.50,0.0064
3781.25,0.0065
3781.00,0.0066
3780.75,0.0066
3780.50,0.0067
3780.25,0.0067
3780.00,0.0066
3779.75,0.0065
3779.50,0.0062
3779.25,0.0059
3779.00,0.0058
3778.75,0.0061
3778.50,0.0064
3778.25,0.0065
3778.00,0.0064
3777.75,0.0063
3777.50,0.0062
3777.25,0.0062
3777.00,0.0062
3776.75,0.0061
3776.50,0.0061
3776.25,0.0061
3776.00,0.0062
3775.75,0.0063
3775.50,0.0065
3775.25,0.0066
3775.00,0.0065
3774.75,0.0064
3774.50,0.0062
3774.25,0.0061
3774.00,0.0060
3773.75,0.0059
3773.50,0.0059
3773.25,0.0060
3773.00,0.0062
3772.75,0.0063
3772.50,0.0064
3772.25,0.0064
3772.00,0.0064
3771.75,0.0065
3771.50,0.0065
3771.25,0.0066
3771.00,0.0067
3770.75,0.0068
3770.50,0.0069
3770.25,0.0070
3770.00,0.0070
3769.75,0.0067
3769.50,0.0064
3769.25,0.0063
3769.00,0.0065
3768.75,0.0066
3768.50,0.0065
3768.25,0.0064
3768.00,0.0064
3767.75,0.0065
3767.50,0.0065
3767.25,0.0064
3767.00,0.0063
3766.75,0.0062
3766.50,0.0063
3766.25,0.0065
3766.00,0.0068
3765.75,0.0069
3765.50,0.0067
3765.25,0.0065
3765.00,0.0064
3764.75,0.0065
3764.50,0.0065
3764.25,0.0065
3764.00,0.0066
3763.75,0.0067
3763.50,0.0068
3763.25,0.0067
3763.00,0.0066
3762.75,0.0064
3762.50,0.0063
3762.25,0.0062
3762.00,0.0062
3761.75,0.0064
3761.50,0.0065
3761.25,0.0067
3761.00,0.0067
3760.75,0.0068
3760.50,0.0067
3760.25,0.0067
3760.00,0.0066
3759.75,0.0066
3759.50,0.0067
3759.25,0.0069
3759.00,0.0071
3758.75,0.0071
3758.50,0.0069
3758.25,0.0067
3758.00,0.0066
3757.75,0.0066
3757.50,0.0068
3757.25,0.0070
3757.00,0.0072
3756.75,0.0072
3756.50,0.0070
3756.25,0.0066
3756.00,0.0063
3755.75,0.0063
3755.50,0.0064
3755.25,0.0065
3755.00,0.0066
3754.75,0.0067
3754.50,0.0068
3754.25,0.0068
3754.00,0.0068
3753.75,0.0067
3753.50,0.0066
3753.25,0.0065
3753.00,0.0066
3752.75,0.0069
3752.50,0.0073
3752.25,0.0075
3752.00,0.0072
3751.75,0.0067
3751.50,0.0067
3751.25,0.0067
3751.00,0.0060
3750.75,0.0054
3750.50,0.0053
3750.25,0.0057
3750.00,0.0064
3749.75,0.0072
3749.50,0.0078
3749.25,0.0076
3749.00,0.0069
3748.75,0.0070
3748.50,0.0076
3748.25,0.0075
3748.00,0.0068
3747.75,0.0063
3747.50,0.0063
3747.25,0.0065
3747.00,0.0067
3746.75,0.0068
3746.50,0.0069
3746.25,0.0068
3746.00,0.0066
3745.75,0.0065
3745.50,0.0065
3745.25,0.0066
3745.00,0.0067
3744.75,0.0066
3744.50,0.0056
3744.25,0.0042
3744.00,0.0048
3743.75,0.0065
3743.50,0.0074
3743.25,0.0074
3743.00,0.0070
3742.75,0.0067
3742.50,0.0065
3742.25,0.0064
3742.00,0.0064
3741.75,0.0064
3741.50,0.0065
3741.25,0.0066
3741.00,0.0067
3740.75,0.0068
3740.50,0.0068
3740.25,0.0068
3740.00,0.0066
3739.75,0.0064
3739.50,0.0062
3739.25,0.0061
3739.00,0.0060
3738.75,0.0061
3738.50,0.0062
3738.25,0.0062
3738.00,0.0063
3737.75,0.0064
3737.50,0.0066
3737.25,0.0067
3737.00,0.0068
3736.75,0.0067
3736.50,0.0066
3736.25,0.0064
3736.00,0.0064
3735.75,0.0063
3735.50,0.0060
3735.25,0.0058
3735.00,0.0056
3734.75,0.0057
3734.50,0.0059
3734.25,0.0062
3734.00,0.0063
3733.75,0.0064
3733.50,0.0064
3733.25,0.0064
3733.00,0.0065
3732.75,0.0070
3732.50,0.0076
3732.25,0.0081
3732.00,0.0082
3731.75,0.0078
3731.50,0.0075
3731.25,0.0075
3731.00,0.0072
3730.75,0.0067
3730.50,0.0063
3730.25,0.0061
3730.00,0.0060
3729.75,0.0060
3729.50,0.0060
3729.25,0.0061
3729.00,0.0063
3728.75,0.0064
3728.50,0.0066
3728.25,0.0067
3728.00,0.0067
3727.75,0.0066
3727.50,0.0065
3727.25,0.0063
3727.00,0.0061
3726.75,0.0058
3726.50,0.0056
3726.25,0.0056
3726.00,0.0058
3725.75,0.0062
3725.50,0.0066
3725.25,0.0068
3725.00,0.0069
3724.75,0.0070
3724.50,0.0070
3724.25,0.0070
3724.00,0.0070
3723.75,0.0070
3723.50,0.0070
3723.25,0.0070
3723.00,0.0071
3722.75,0.0072
3722.50,0.0071
3722.25,0.0069
3722.00,0.0066
3721.75,0.0065
3721.50,0.0065
3721.25,0.0066
3721.00,0.0067
3720.75,0.0067
3720.50,0.0067
3720.25,0.0066
3720.00,0.0065
3719.75,0.0064
3719.50,0.0063
3719.25,0.0062
3719.00,0.0061
3718.75,0.0060
3718.50,0.0060
3718.25,0.0060
3718.00,0.0062
3717.75,0.0064
3717.50,0.0065
3717.25,0.0065
3717.00,0.0065
3716.75,0.0066
3716.50,0.0067
3716.25,0.0067
3716.00,0.0068
3715.75,0.0069
3715.50,0.0070
3715.25,0.0071
3715.00,0.0071
3714.75,0.0069
3714.50,0.0066
3714.25,0.0063
3714.00,0.0061
3713.75,0.0060
3713.50,0.0062
3713.25,0.0065
3713.00,0.0069
3712.75,0.0074
3712.50,0.0078
3712.25,0.0079
3712.00,0.0073
3711.75,0.0065
3711.50,0.0062
3711.25,0.0063
3711.00,0.0062
3710.75,0.0060
3710.50,0.0060
3710.25,0.0062
3710.00,0.0065
3709.75,0.0069
3709.50,0.0071
3709.25,0.0072
3709.00,0.0071
3708.75,0.0072
3708.50,0.0073
3708.25,0.0073
3708.00,0.0071
3707.75,0.0069
3707.50,0.0068
3707.25,0.0067
3707.00,0.0066
3706.75,0.0065
3706.50,0.0066
3706.25,0.0067
3706.00,0.0069
3705.75,0.0070
3705.50,0.0070
3705.25,0.0069
3705.00,0.0069
3704.75,0.0068
3704.50,0.0068
3704.25,0.0067
3704.00,0.0066
3703.75,0.0064
3703.50,0.0063
3703.25,0.0063
3703.00,0.0063
3702.75,0.0065
3702.50,0.0068
3702.25,0.0070
3702.00,0.0071
3701.75,0.0070
3701.50,0.0066
3701.25,0.0065
3701.00,0.0067
3700.75,0.0069
3700.50,0.0069
3700.25,0.0068
3700.00,0.0066
3699.75,0.0065
3699.50,0.0066
3699.25,0.0067
3699.00,0.0068
3698.75,0.0069
3698.50,0.0069
3698.25,0.0069
3698.00,0.0068
3697.75,0.0067
3697.50,0.0066
3697.25,0.0065
3697.00,0.0065
3696.75,0.0066
3696.50,0.0065
3696.25,0.0065
3696.00,0.0064
3695.75,0.0063
3695.50,0.0062
3695.25,0.0062
3695.00,0.0063
3694.75,0.0064
3694.50,0.0064
3694.25,0.0065
3694.00,0.0066
3693.75,0.0067
3693.50,0.0068
3693.25,0.0069
3693.00,0.0069
3692.75,0.0069
3692.50,0.0069
3692.25,0.0069
3692.00,0.0071
3691.75,0.0073
3691.50,0.0074
3691.25,0.0073
3691.00,0.0070
3690.75,0.0068
3690.50,0.0068
3690.25,0.0068
3690.00,0.0066
3689.75,0.0064
3689.50,0.0063
3689.25,0.0065
3689.00,0.0068
3688.75,0.0073
3688.50,0.0078
3688.25,0.0077
3688.00,0.0073
3687.75,0.0072
3687.50,0.0071
3687.25,0.0067
3687.00,0.0062
3686.75,0.0060
3686.50,0.0061
3686.25,0.0062
3686.00,0.0062
3685.75,0.0062
3685.50,0.0062
3685.25,0.0062
3685.00,0.0063
3684.75,0.0063
3684.50,0.0063
3684.25,0.0063
3684.00,0.0063
3683.75,0.0065
3683.50,0.0066
3683.25,0.0069
3683.00,0.0071
3682.75,0.0073
3682.50,0.0073
3682.25,0.0073
3682.00,0.0071
3681.75,0.0069
3681.50,0.0067
3681.25,0.0066
3681.00,0.0065
3680.75,0.0065
3680.50,0.0065
3680.25,0.0065
3680.00,0.0065
3679.75,0.0064
3679.50,0.0063
3679.25,0.0063
3679.00,0.0063
3678.75,0.0063
3678.50,0.0063
3678.25,0.0063
3678.00,0.0062
3677.75,0.0062
3677.50,0.0062
3677.25,0.0064
3677.00,0.0066
3676.75,0.0068
3676.50,0.0069
3676.25,0.0069
3676.00,0.0067
3675.75,0.0065
3675.50,0.0065
3675.25,0.0068
3675.00,0.0069
3674.75,0.0066
3674.50,0.0062
3674.25,0.0061
3674.00,0.0063
3673.75,0.0064
3673.50,0.0063
3673.25,0.0062
3673.00,0.0062
3672.75,0.0063
3672.50,0.0063
3672.25,0.0062
3672.00,0.0063
3671.75,0.0064
3671.50,0.0066
3671.25,0.0069
3671.00,0.0070
3670.75,0.0069
3670.50,0.0065
3670.25,0.0061
3670.00,0.0062
3669.75,0.0064
3669.50,0.0063
3669.25,0.0062
3669.00,0.0062
3668.75,0.0063
3668.50,0.0062
3668.25,0.0061
3668.00,0.0063
3667.75,0.0065
3667.50,0.0066
3667.25,0.0066
3667.00,0.0065
3666.75,0.0065
3666.50,0.0065
3666.25,0.0065
3666.00,0.0064
3665.75,0.0064
3665.50,0.0065
3665.25,0.0067
3665.00,0.0069
3664.75,0.0070
3664.50,0.0070
3664.25,0.0068
3664.00,0.0067
3663.75,0.0066
3663.50,0.0066
3663.25,0.0066
3663.00,0.0067
3662.75,0.0066
3662.50,0.0064
3662.25,0.0062
3662.00,0.0061
3661.75,0.0061
3661.50,0.0062
3661.25,0.0064
3661.00,0.0065
3660.75,0.0066
3660.50,0.0067
3660.25,0.0068
3660.00,0.0069
3659.75,0.0069
3659.50,0.0069
3659.25,0.0069
3659.00,0.0069
3658.75,0.0069
3658.50,0.0068
3658.25,0.0067
3658.00,0.0065
3657.75,0.0064
3657.50,0.0064
3657.25,0.0065
3657.00,0.0068
3656.75,0.0071
3656.50,0.0073
3656.25,0.0073
3656.00,0.0073
3655.75,0.0075
3655.50,0.0078
3655.25,0.0079
3655.00,0.0075
3654.75,0.0070
3654.50,0.0065
3654.25,0.0062
3654.00,0.0061
3653.75,0.0061
3653.50,0.0062
3653.25,0.0062
3653.00,0.0063
3652.75,0.0063
3652.50,0.0063
3652.25,0.0064
3652.00,0.0065
3651.75,0.0066
3651.50,0.0069
3651.25,0.0071
3651.00,0.0071
3650.75,0.0069
3650.50,0.0067
3650.25,0.0067
3650.00,0.0068
3649.75,0.0067
3649.50,0.0064
3649.25,0.0059
3649.00,0.0054
3648.75,0.0054
3648.50,0.0059
3648.25,0.0063
3648.00,0.0064
3647.75,0.0065
3647.50,0.0067
3647.25,0.0068
3647.00,0.0068
3646.75,0.0067
3646.50,0.0068
3646.25,0.0068
3646.00,0.0067
3645.75,0.0066
3645.50,0.0065
3645.25,0.0065
3645.00,0.0065
3644.75,0.0065
3644.50,0.0065
3644.25,0.0065
3644.00,0.0065
3643.75,0.0065
3643.50,0.0065
3643.25,0.0064
3643.00,0.0063
3642.75,0.0063
3642.50,0.0063
3642.25,0.0063
3642.00,0.0062
3641.75,0.0062
3641.50,0.0061
3641.25,0.0061
3641.00,0.0061
3640.75,0.0062
3640.50,0.0063
3640.25,0.0065
3640.00,0.0068
3639.75,0.0069
3639.50,0.0070
3639.25,0.0070
3639.00,0.0069
3638.75,0.0068
3638.50,0.0068
3638.25,0.0068
3638.00,0.0068
3637.75,0.0068
3637.50,0.0068
3637.25,0.0068
3637.00,0.0067
3636.75,0.0066
3636.50,0.0066
3636.25,0.0067
3636.00,0.0068
3635.75,0.0069
3635.50,0.0069
3635.25,0.0068
3635.00,0.0067
3634.75,0.0067
3634.50,0.0068
3634.25,0.0070
3634.00,0.0071
3633.75,0.0072
3633.50,0.0072
3633.25,0.0071
3633.00,0.0069
3632.75,0.0068
3632.50,0.0066
3632.25,0.0066
3632.00,0.0066
3631.75,0.0069
3631.50,0.0071
3631.25,0.0072
3631.00,0.0073
3630.75,0.0072
3630.50,0.0072
3630.25,0.0072
3630.00,0.0072
3629.75,0.0071
3629.50,0.0068
3629.25,0.0062
3629.00,0.0056
3628.75,0.0053
3628.50,0.0051
3628.25,0.0050
3628.00,0.0053
3627.75,0.0059
3627.50,0.0066
3627.25,0.0070
3627.00,0.0069
3626.75,0.0066
3626.50,0.0065
3626.25,0.0065
3626.00,0.0065
3625.75,0.0066
3625.50,0.0066
3625.25,0.0065
3625.00,0.0064
3624.75,0.0064
3624.50,0.0064
3624.25,0.0065
3624.00,0.0066
3623.75,0.0067
3623.50,0.0067
3623.25,0.0066
3623.00,0.0066
3622.75,0.0065
3622.50,0.0065
3622.25,0.0065
3622.00,0.0067
3621.75,0.0069
3621.50,0.0071
3621.25,0.0072
3621.00,0.0071
3620.75,0.0070
3620.50,0.0069
3620.25,0.0067
3620.00,0.0066
3619.75,0.0065
3619.50,0.0065
3619.25,0.0067
3619.00,0.0073
3618.75,0.0078
3618.50,0.0079
3618.25,0.0076
3618.00,0.0072
3617.75,0.0068
3617.50,0.0065
3617.25,0.0063
3617.00,0.0064
3616.75,0.0064
3616.50,0.0064
3616.25,0.0064
3616.00,0.0065
3615.75,0.0067
3615.50,0.0069
3615.25,0.0071
3615.00,0.0072
3614.75,0.0070
3614.50,0.0066
3614.25,0.0063
3614.00,0.0061
3613.75,0.0061
3613.50,0.0062
3613.25,0.0063
3613.00,0.0065
3612.75,0.0067
3612.50,0.0068
3612.25,0.0068
3612.00,0.0067
3611.75,0.0067
3611.50,0.0066
3611.25,0.0064
3611.00,0.0061
3610.75,0.0060
3610.50,0.0061
3610.25,0.0062
3610.00,0.0064
3609.75,0.0066
3609.50,0.0069
3609.25,0.0071
3609.00,0.0072
3608.75,0.0072
3608.50,0.0071
3608.25,0.0070
3608.00,0.0067
3607.75,0.0065
3607.50,0.0065
3607.25,0.0066
3607.00,0.0065
3606.75,0.0064
3606.50,0.0063
3606.25,0.0063
3606.00,0.0063
3605.75,0.0064
3605.50,0.0064
3605.25,0.0064
3605.00,0.0064
3604.75,0.0064
3604.50,0.0064
3604.25,0.0065
3604.00,0.0066
3603.75,0.0067
3603.50,0.0067
3603.25,0.0066
3603.00,0.0066
3602.75,0.0066
3602.50,0.0066
3602.25,0.0066
3602.00,0.0066
3601.75,0.0066
3601.50,0.0066
3601.25,0.0068
3601.00,0.0070
3600.75,0.0071
3600.50,0.0071
3600.25,0.0071
3600.00,0.0069
3599.75,0.0068
3599.50,0.0067
3599.25,0.0067
3599.00,0.0067
3598.75,0.0067
3598.50,0.0067
3598.25,0.0067
3598.00,0.0066
3597.75,0.0065
3597.50,0.0064
3597.25,0.0063
3597.00,0.0063
3596.75,0.0063
3596.50,0.0064
3596.25,0.0065
3596.00,0.0065
3595.75,0.0065
3595.50,0.0064
3595.25,0.0062
3595.00,0.0061
3594.75,0.0061
3594.50,0.0062
3594.25,0.0063
3594.00,0.0065
3593.75,0.0066
3593.50,0.0066
3593.25,0.0066
3593.00,0.0067
3592.75,0.0067
3592.50,0.0068
3592.25,0.0067
3592.00,0.0066
3591.75,0.0065
3591.50,0.0065
3591.25,0.0066
3591.00,0.0068
3590.75,0.0070
3590.50,0.0072
3590.25,0.0073
3590.00,0.0073
3589.75,0.0072
3589.50,0.0071
3589.25,0.0070
3589.00,0.0069
3588.75,0.0067
3588.50,0.0065
3588.25,0.0064
3588.00,0.0064
3587.75,0.0064
3587.50,0.0064
3587.25,0.0063
3587.00,0.0064
3586.75,0.0063
3586.50,0.0060
3586.25,0.0056
3586.00,0.0056
3585.75,0.0058
3585.50,0.0061
3585.25,0.0063
3585.00,0.0063
3584.75,0.0063
3584.50,0.0064
3584.25,0.0065
3584.00,0.0067
3583.75,0.0069
3583.50,0.0070
3583.25,0.0070
3583.00,0.0068
3582.75,0.0067
3582.50,0.0067
3582.25,0.0066
3582.00,0.0066
3581.75,0.0065
3581.50,0.0064
3581.25,0.0063
3581.00,0.0062
3580.75,0.0062
3580.50,0.0062
3580.25,0.0063
3580.00,0.0063
3579.75,0.0065
3579.50,0.0066
3579.25,0.0067
3579.00,0.0068
3578.75,0.0069
3578.50,0.0069
3578.25,0.0069
3578.00,0.0069
3577.75,0.0068
3577.50,0.0067
3577.25,0.0066
3577.00,0.0065
3576.75,0.0064
3576.50,0.0063
3576.25,0.0063
3576.00,0.0064
3575.75,0.0065
3575.50,0.0066
3575.25,0.0067
3575.00,0.0068
3574.75,0.0069
3574.50,0.0070
3574.25,0.0071
3574.00,0.0072
3573.75,0.0072
3573.50,0.0071
3573.25,0.0070
3573.00,0.0069
3572.75,0.0068
3572.50,0.0068
3572.25,0.0067
3572.00,0.0067
3571.75,0.0067
3571.50,0.0068
3571.25,0.0069
3571.00,0.0070
3570.75,0.0070
3570.50,0.0069
3570.25,0.0069
3570.00,0.0069
3569.75,0.0069
3569.50,0.0068
3569.25,0.0067
3569.00,0.0066
3568.75,0.0065
3568.50,0.0064
3568.25,0.0062
3568.00,0.0058
3567.75,0.0056
3567.50,0.0056
3567.25,0.0059
3567.00,0.0061
3566.75,0.0063
3566.50,0.0063
3566.25,0.0062
3566.00,0.0061
3565.75,0.0060
3565.50,0.0060
3565.25,0.0060
3565.00,0.0060
3564.75,0.0060
3564.50,0.0061
3564.25,0.0062
3564.00,0.0063
3563.75,0.0064
3563.50,0.0065
3563.25,0.0066
3563.00,0.0067
3562.75,0.0068
3562.50,0.0069
3562.25,0.0068
3562.00,0.0066
3561.75,0.0065
3561.50,0.0064
3561.25,0.0065
3561.00,0.0067
3560.75,0.0069
3560.50,0.0070
3560.25,0.0070
3560.00,0.0068
3559.75,0.0065
3559.50,0.0063
3559.25,0.0062
3559.00,0.0062
3558.75,0.0064
3558.50,0.0066
3558.25,0.0068
3558.00,0.0069
3557.75,0.0069
3557.50,0.0069
3557.25,0.0068
3557.00,0.0067
3556.75,0.0067
3556.50,0.0067
3556.25,0.0067
3556.00,0.0068
3555.75,0.0068
3555.50,0.0067
3555.25,0.0066
3555.00,0.0065
3554.75,0.0064
3554.50,0.0064
3554.25,0.0065
3554.00,0.0066
3553.75,0.0066
3553.50,0.0066
3553.25,0.0065
3553.00,0.0064
3552.75,0.0064
3552.50,0.0063
3552.25,0.0063
3552.00,0.0062
3551.75,0.0063
3551.50,0.0064
3551.25,0.0066
3551.00,0.0067
3550.75,0.0067
3550.50,0.0066
3550.25,0.0066
3550.00,0.0066
3549.75,0.0066
3549.50,0.0066
3549.25,0.0065
3549.00,0.0065
3548.75,0.0064
3548.50,0.0065
3548.25,0.0066
3548.00,0.0068
3547.75,0.0068
3547.50,0.0067
3547.25,0.0064
3547.00,0.0061
3546.75,0.0058
3546.50,0.0058
3546.25,0.0061
3546.00,0.0064
3545.75,0.0067
3545.50,0.0069
3545.25,0.0069
3545.00,0.0068
3544.75,0.0066
3544.50,0.0065
3544.25,0.0065
3544.00,0.0065
3543.75,0.0066
3543.50,0.0066
3543.25,0.0067
3543.00,0.0067
3542.75,0.0067
3542.50,0.0066
3542.25,0.0066
3542.00,0.0065
3541.75,0.0065
3541.50,0.0065
3541.25,0.0066
3541.00,0.0067
3540.75,0.0067
3540.50,0.0067
3540.25,0.0067
3540.00,0.0065
3539.75,0.0064
3539.50,0.0062
3539.25,0.0062
3539.00,0.0063
3538.75,0.0065
3538.50,0.0066
3538.25,0.0067
3538.00,0.0067
3537.75,0.0066
3537.50,0.0066
3537.25,0.0065
3537.00,0.0066
3536.75,0.0066
3536.50,0.0066
3536.25,0.0065
3536.00,0.0063
3535.75,0.0062
3535.50,0.0061
3535.25,0.0061
3535.00,0.0062
3534.75,0.0062
3534.50,0.0063
3534.25,0.0064
3534.00,0.0064
3533.75,0.0065
3533.50,0.0066
3533.25,0.0067
3533.00,0.0069
3532.75,0.0070
3532.50,0.0071
3532.25,0.0071
3532.00,0.0070
3531.75,0.0070
3531.50,0.0069
3531.25,0.0068
3531.00,0.0066
3530.75,0.0065
3530.50,0.0064
3530.25,0.0064
3530.00,0.0065
3529.75,0.0066
3529.50,0.0067
3529.25,0.0068
3529.00,0.0067
3528.75,0.0064
3528.50,0.0061
3528.25,0.0059
3528.00,0.0058
3527.75,0.0058
3527.50,0.0060
3527.25,0.0062
3527.00,0.0065
3526.75,0.0067
3526.50,0.0068
3526.25,0.0068
3526.00,0.0068
3525.75,0.0067
3525.50,0.0065
3525.25,0.0064
3525.00,0.0064
3524.75,0.0064
3524.50,0.0064
3524.25,0.0064
3524.00,0.0064
3523.75,0.0064
3523.50,0.0063
3523.25,0.0064
3523.00,0.0064
3522.75,0.0065
3522.50,0.0066
3522.25,0.0066
3522.00,0.0066
3521.75,0.0065
3521.50,0.0065
3521.25,0.0065
3521.00,0.0065
3520.75,0.0065
3520.50,0.0065
3520.25,0.0065
3520.00,0.0064
3519.75,0.0063
3519.50,0.0061
3519.25,0.0060
3519.00,0.0060
3518.75,0.0060
3518.50,0.0062
3518.25,0.0063
3518.00,0.0065
3517.75,0.0066
3517.50,0.0067
3517.25,0.0067
3517.00,0.0066
3516.75,0.0066
3516.50,0.0066
3516.25,0.0066
3516.00,0.0067
3515.75,0.0067
3515.50,0.0067
3515.25,0.0066
3515.00,0.0066
3514.75,0.0067
3514.50,0.0067
3514.25,0.0068
3514.00,0.0068
3513.75,0.0068
3513.50,0.0066
3513.25,0.0065
3513.00,0.0063
3512.75,0.0062
3512.50,0.0062
3512.25,0.0063
3512.00,0.0065
3511.75,0.0067
3511.50,0.0068
3511.25,0.0069
3511.00,0.0069
3510.75,0.0067
3510.50,0.0065
3510.25,0.0063
3510.00,0.0063
3509.75,0.0063
3509.50,0.0064
3509.25,0.0065
3509.00,0.0065
3508.75,0.0065
3508.50,0.0064
3508.25,0.0065
3508.00,0.0066
3507.75,0.0067
3507.50,0.0069
3507.25,0.0070
3507.00,0.0071
3506.75,0.0070
3506.50,0.0068
3506.25,0.0066
3506.00,0.0064
3505.75,0.0062
3505.50,0.0061
3505.25,0.0061
3505.00,0.0063
3504.75,0.0064
3504.50,0.0065
3504.25,0.0065
3504.00,0.0065
3503.75,0.0064
3503.50,0.0064
3503.25,0.0065
3503.00,0.0066
3502.75,0.0066
3502.50,0.0066
3502.25,0.0065
3502.00,0.0064
3501.75,0.0063
3501.50,0.0062
3501.25,0.0061
3501.00,0.0060
3500.75,0.0060
3500.50,0.0061
3500.25,0.0063
3500.00,0.0065
3499.75,0.0068
3499.50,0.0069
3499.25,0.0070
3499.00,0.0070
3498.75,0.0070
3498.50,0.0069
3498.25,0.0067
3498.00,0.0066
3497.75,0.0066
3497.50,0.0065
3497.25,0.0065
3497.00,0.0065
3496.75,0.0065
3496.50,0.0066
3496.25,0.0067
3496.00,0.0068
3495.75,0.0068
3495.50,0.0068
3495.25,0.0067
3495.00,0.0065
3494.75,0.0064
3494.50,0.0063
3494.25,0.0062
3494.00,0.0062
3493.75,0.0063
3493.50,0.0064
3493.25,0.0065
3493.00,0.0065
3492.75,0.0064
3492.50,0.0064
3492.25,0.0065
3492.00,0.0066
3491.75,0.0066
3491.50,0.0066
3491.25,0.0065
3491.00,0.0065
3490.75,0.0064
3490.50,0.0064
3490.25,0.0064
3490.00,0.0064
3489.75,0.0064
3489.50,0.0064
3489.25,0.0063
3489.00,0.0063
3488.75,0.0064
3488.50,0.0065
3488.25,0.0066
3488.00,0.0066
3487.75,0.0066
3487.50,0.0066
3487.25,0.0066
3487.00,0.0067
3486.75,0.0067
3486.50,0.0067
3486.25,0.0066
3486.00,0.0066
3485.75,0.0066
3485.50,0.0066
3485.25,0.0066
3485.00,0.0066
3484.75,0.0067
3484.50,0.0068
3484.25,0.0068
3484.00,0.0069
3483.75,0.0068
3483.50,0.0068
3483.25,0.0067
3483.00,0.0066
3482.75,0.0065
3482.50,0.0064
3482.25,0.0064
3482.00,0.0064
3481.75,0.0065
3481.50,0.0065
3481.25,0.0065
3481.00,0.0065
3480.75,0.0064
3480.50,0.0064
3480.25,0.0064
3480.00,0.0064
3479.75,0.0065
3479.50,0.0065
3479.25,0.0065
3479.00,0.0064
3478.75,0.0064
3478.50,0.0064
3478.25,0.0064
3478.00,0.0064
3477.75,0.0064
3477.50,0.0064
3477.25,0.0065
3477.00,0.0067
3476.75,0.0068
3476.50,0.0069
3476.25,0.0068
3476.00,0.0067
3475.75,0.0066
3475.50,0.0064
3475.25,0.0063
3475.00,0.0061
3474.75,0.0060
3474.50,0.0060
3474.25,0.0061
3474.00,0.0062
3473.75,0.0064
3473.50,0.0065
3473.25,0.0065
3473.00,0.0064
3472.75,0.0064
3472.50,0.0063
3472.25,0.0063
3472.00,0.0064
3471.75,0.0066
3471.50,0.0068
3471.25,0.0070
3471.00,0.0070
3470.75,0.0070
3470.50,0.0070
3470.25,0.0069
3470.00,0.0069
3469.75,0.0068
3469.50,0.0068
3469.25,0.0067
3469.00,0.0067
3468.75,0.0067
3468.50,0.0067
3468.25,0.0066
3468.00,0.0067
3467.75,0.0067
3467.50,0.0069
3467.25,0.0070
3467.00,0.0070
3466.75,0.0070
3466.50,0.0069
3466.25,0.0068
3466.00,0.0068
3465.75,0.0068
3465.50,0.0068
3465.25,0.0067
3465.00,0.0065
3464.75,0.0064
3464.50,0.0063
3464.25,0.0063
3464.00,0.0063
3463.75,0.0064
3463.50,0.0065
3463.25,0.0066
3463.00,0.0067
3462.75,0.0067
3462.50,0.0066
3462.25,0.0065
3462.00,0.0064
3461.75,0.0064
3461.50,0.0065
3461.25,0.0067
3461.00,0.0068
3460.75,0.0068
3460.50,0.0067
3460.25,0.0067
3460.00,0.0067
3459.75,0.0067
3459.50,0.0068
3459.25,0.0069
3459.00,0.0070
3458.75,0.0070
3458.50,0.0069
3458.25,0.0067
3458.00,0.0065
3457.75,0.0065
3457.50,0.0066
3457.25,0.0068
3457.00,0.0069
3456.75,0.0069
3456.50,0.0068
3456.25,0.0066
3456.00,0.0065
3455.75,0.0064
3455.50,0.0062
3455.25,0.0062
3455.00,0.0061
3454.75,0.0062
3454.50,0.0063
3454.25,0.0064
3454.00,0.0065
3453.75,0.0065
3453.50,0.0065
3453.25,0.0066
3453.00,0.0066
3452.75,0.0065
3452.50,0.0065
3452.25,0.0064
3452.00,0.0064
3451.75,0.0065
3451.50,0.0066
3451.25,0.0067
3451.00,0.0067
3450.75,0.0066
3450.50,0.0066
3450.25,0.0065
3450.00,0.0065
3449.75,0.0065
3449.50,0.0065
3449.25,0.0066
3449.00,0.0066
3448.75,0.0067
3448.50,0.0067
3448.25,0.0066
3448.00,0.0066
3447.75,0.0066
3447.50,0.0066
3447.25,0.0067
3447.00,0.0068
3446.75,0.0069
3446.50,0.0070
3446.25,0.0068
3446.00,0.0067
3445.75,0.0065
3445.50,0.0063
3445.25,0.0063
3445.00,0.0063
3444.75,0.0064
3444.50,0.0066
3444.25,0.0067
3444.00,0.0068
3443.75,0.0067
3443.50,0.0066
3443.25,0.0065
3443.00,0.0065
3442.75,0.0065
3442.50,0.0065
3442.25,0.0064
3442.00,0.0064
3441.75,0.0063
3441.50,0.0063
3441.25,0.0063
3441.00,0.0063
3440.75,0.0062
3440.50,0.0063
3440.25,0.0063
3440.00,0.0064
3439.75,0.0065
3439.50,0.0066
3439.25,0.0066
3439.00,0.0065
3438.75,0.0064
3438.50,0.0062
3438.25,0.0061
3438.00,0.0061
3437.75,0.0062
3437.50,0.0063
3437.25,0.0063
3437.00,0.0063
3436.75,0.0064
3436.50,0.0067
3436.25,0.0069
3436.00,0.0071
3435.75,0.0071
3435.50,0.0071
3435.25,0.0070
3435.00,0.0069
3434.75,0.0068
3434.50,0.0067
3434.25,0.0065
3434.00,0.0063
3433.75,0.0061
3433.50,0.0060
3433.25,0.0060
3433.00,0.0060
3432.75,0.0060
3432.50,0.0061
3432.25,0.0062
3432.00,0.0063
3431.75,0.0064
3431.50,0.0064
3431.25,0.0065
3431.00,0.0065
3430.75,0.0065
3430.50,0.0065
3430.25,0.0064
3430.00,0.0063
3429.75,0.0062
3429.50,0.0062
3429.25,0.0062
3429.00,0.0062
3428.75,0.0063
3428.50,0.0063
3428.25,0.0064
3428.00,0.0065
3427.75,0.0065
3427.50,0.0066
3427.25,0.0066
3427.00,0.0066
3426.75,0.0067
3426.50,0.0067
3426.25,0.0067
3426.00,0.0068
3425.75,0.0068
3425.50,0.0068
3425.25,0.0067
3425.00,0.0066
3424.75,0.0066
3424.50,0.0066
3424.25,0.0067
3424.00,0.0067
3423.75,0.0067
3423.50,0.0067
3423.25,0.0066
3423.00,0.0065
3422.75,0.0065
3422.50,0.0065
3422.25,0.0065
3422.00,0.0064
3421.75,0.0063
3421.50,0.0062
3421.25,0.0062
3421.00,0.0061
3420.75,0.0061
3420.50,0.0061
3420.25,0.0061
3420.00,0.0061
3419.75,0.0060
3419.50,0.0059
3419.25,0.0060
3419.00,0.0061
3418.75,0.0061
3418.50,0.0062
3418.25,0.0061
3418.00,0.0060
3417.75,0.0059
3417.50,0.0059
3417.25,0.0060
3417.00,0.0062
3416.75,0.0064
3416.50,0.0065
3416.25,0.0066
3416.00,0.0066
3415.75,0.0066
3415.50,0.0066
3415.25,0.0066
3415.00,0.0067
3414.75,0.0069
3414.50,0.0069
3414.25,0.0069
3414.00,0.0067
3413.75,0.0064
3413.50,0.0062
3413.25,0.0060
3413.00,0.0060
3412.75,0.0061
3412.50,0.0062
3412.25,0.0063
3412.00,0.0063
3411.75,0.0063
3411.50,0.0064
3411.25,0.0065
3411.00,0.0066
3410.75,0.0066
3410.50,0.0065
3410.25,0.0065
3410.00,0.0065
3409.75,0.0065
3409.50,0.0066
3409.25,0.0067
3409.00,0.0067
3408.75,0.0067
3408.50,0.0067
3408.25,0.0067
3408.00,0.0066
3407.75,0.0065
3407.50,0.0064
3407.25,0.0064
3407.00,0.0063
3406.75,0.0063
3406.50,0.0064
3406.25,0.0064
3406.00,0.0064
3405.75,0.0064
3405.50,0.0063
3405.25,0.0062
3405.00,0.0062
3404.75,0.0062
3404.50,0.0062
3404.25,0.0063
3404.00,0.0064
3403.75,0.0065
3403.50,0.0065
3403.25,0.0066
3403.00,0.0066
3402.75,0.0066
3402.50,0.0066
3402.25,0.0066
3402.00,0.0066
3401.75,0.0066
3401.50,0.0066
3401.25,0.0066
3401.00,0.0066
3400.75,0.0064
3400.50,0.0062
3400.25,0.0060
3400.00,0.0059
3399.75,0.0060
3399.50,0.0061
3399.25,0.0063
3399.00,0.0064
3398.75,0.0066
3398.50,0.0066
3398.25,0.0067
3398.00,0.0067
3397.75,0.0068
3397.50,0.0068
3397.25,0.0068
3397.00,0.0067
3396.75,0.0067
3396.50,0.0067
3396.25,0.0068
3396.00,0.0069
3395.75,0.0069
3395.50,0.0069
3395.25,0.0067
3395.00,0.0066
3394.75,0.0065
3394.50,0.0064
3394.25,0.0064
3394.00,0.0064
3393.75,0.0064
3393.50,0.0065
3393.25,0.0066
3393.00,0.0066
3392.75,0.0065
3392.50,0.0064
3392.25,0.0063
3392.00,0.0063
3391.75,0.0064
3391.50,0.0065
3391.25,0.0066
3391.00,0.0066
3390.75,0.0066
3390.50,0.0066
3390.25,0.0067
3390.00,0.0069
3389.75,0.0070
3389.50,0.0071
3389.25,0.0070
3389.00,0.0068
3388.75,0.0066
3388.50,0.0064
3388.25,0.0065
3388.00,0.0066
3387.75,0.0067
3387.50,0.0067
3387.25,0.0066
3387.00,0.0065
3386.75,0.0064
3386.50,0.0064
3386.25,0.0065
3386.00,0.0065
3385.75,0.0065
3385.50,0.0066
3385.25,0.0066
3385.00,0.0066
3384.75,0.0067
3384.50,0.0066
3384.25,0.0065
3384.00,0.0064
3383.75,0.0062
3383.50,0.0061
3383.25,0.0062
3383.00,0.0063
3382.75,0.0064
3382.50,0.0065
3382.25,0.0065
3382.00,0.0065
3381.75,0.0065
3381.50,0.0066
3381.25,0.0068
3381.00,0.0068
3380.75,0.0068
3380.50,0.0068
3380.25,0.0066
3380.00,0.0065
3379.75,0.0064
3379.50,0.0063
3379.25,0.0063
3379.00,0.0064
3378.75,0.0066
3378.50,0.0067
3378.25,0.0068
3378.00,0.0068
3377.75,0.0068
3377.50,0.0067
3377.25,0.0066
3377.00,0.0066
3376.75,0.0067
3376.50,0.0068
3376.25,0.0070
3376.00,0.0070
3375.75,0.0069
3375.50,0.0067
3375.25,0.0065
3375.00,0.0063
3374.75,0.0063
3374.50,0.0062
3374.25,0.0063
3374.00,0.0063
3373.75,0.0064
3373.50,0.0064
3373.25,0.0064
3373.00,0.0064
3372.75,0.0064
3372.50,0.0064
3372.25,0.0064
3372.00,0.0064
3371.75,0.0065
3371.50,0.0065
3371.25,0.0065
3371.00,0.0064
3370.75,0.0063
3370.50,0.0062
3370.25,0.0062
3370.00,0.0063
3369.75,0.0063
3369.50,0.0064
3369.25,0.0064
3369.00,0.0064
3368.75,0.0064
3368.50,0.0065
3368.25,0.0066
3368.00,0.0066
3367.75,0.0066
3367.50,0.0066
3367.25,0.0067
3367.00,0.0068
3366.75,0.0068
3366.50,0.0068
3366.25,0.0068
3366.00,0.0067
3365.75,0.0066
3365.50,0.0065
3365.25,0.0064
3365.00,0.0064
3364.75,0.0064
3364.50,0.0064
3364.25,0.0065
3364.00,0.0066
3363.75,0.0066
3363.50,0.0065
3363.25,0.0065
3363.00,0.0064
3362.75,0.0065
3362.50,0.0065
3362.25,0.0065
3362.00,0.0064
3361.75,0.0064
3361.50,0.0063
3361.25,0.0064
3361.00,0.0065
3360.75,0.0066
3360.50,0.0067
3360.25,0.0068
3360.00,0.0067
3359.75,0.0066
3359.50,0.0064
3359.25,0.0063
3359.00,0.0062
3358.75,0.0062
3358.50,0.0063
3358.25,0.0064
3358.00,0.0065
3357.75,0.0065
3357.50,0.0065
3357.25,0.0064
3357.00,0.0064
3356.75,0.0063
3356.50,0.0063
3356.25,0.0065
3356.00,0.0067
3355.75,0.0069
3355.50,0.0070
3355.25,0.0070
3355.00,0.0070
3354.75,0.0069
3354.50,0.0068
3354.25,0.0068
3354.00,0.0067
3353.75,0.0066
3353.50,0.0064
3353.25,0.0062
3353.00,0.0061
3352.75,0.0061
3352.50,0.0061
3352.25,0.0062
3352.00,0.0064
3351.75,0.0065
3351.50,0.0066
3351.25,0.0067
3351.00,0.0068
3350.75,0.0067
3350.50,0.0065
3350.25,0.0064
3350.00,0.0063
3349.75,0.0063
3349.50,0.0063
3349.25,0.0064
3349.00,0.0064
3348.75,0.0064
3348.50,0.0064
3348.25,0.0064
3348.00,0.0064
3347.75,0.0064
3347.50,0.0064
3347.25,0.0064
3347.00,0.0063
3346.75,0.0063
3346.50,0.0062
3346.25,0.0063
3346.00,0.0063
3345.75,0.0064
3345.50,0.0064
3345.25,0.0065
3345.00,0.0065
3344.75,0.0066
3344.50,0.0066
3344.25,0.0066
3344.00,0.0065
3343.75,0.0065
3343.50,0.0065
3343.25,0.0064
3343.00,0.0064
3342.75,0.0064
3342.50,0.0064
3342.25,0.0064
3342.00,0.0064
3341.75,0.0063
3341.50,0.0063
3341.25,0.0063
3341.00,0.0062
3340.75,0.0062
3340.50,0.0061
3340.25,0.0062
3340.00,0.0063
3339.75,0.0064
3339.50,0.0066
3339.25,0.0067
3339.00,0.0067
3338.75,0.0066
3338.50,0.0065
3338.25,0.0065
3338.00,0.0066
3337.75,0.0067
3337.50,0.0067
3337.25,0.0067
3337.00,0.0066
3336.75,0.0064
3336.50,0.0063
3336.25,0.0063
3336.00,0.0064
3335.75,0.0065
3335.50,0.0066
3335.25,0.0066
3335.00,0.0065
3334.75,0.0065
3334.50,0.0065
3334.25,0.0065
3334.00,0.0064
3333.75,0.0064
3333.50,0.0063
3333.25,0.0063
3333.00,0.0063
3332.75,0.0064
3332.50,0.0066
3332.25,0.0068
3332.00,0.0069
3331.75,0.0067
3331.50,0.0065
3331.25,0.0063
3331.00,0.0062
3330.75,0.0062
3330.50,0.0063
3330.25,0.0064
3330.00,0.0065
3329.75,0.0065
3329.50,0.0065
3329.25,0.0065
3329.00,0.0065
3328.75,0.0064
3328.50,0.0064
3328.25,0.0064
3328.00,0.0064
3327.75,0.0064
3327.50,0.0064
3327.25,0.0065
3327.00,0.0065
3326.75,0.0065
3326.50,0.0064
3326.25,0.0063
3326.00,0.0062
3325.75,0.0062
3325.50,0.0062
3325.25,0.0063
3325.00,0.0064
3324.75,0.0065
3324.50,0.0066
3324.25,0.0066
3324.00,0.0067
3323.75,0.0067
3323.50,0.0067
3323.25,0.0067
3323.00,0.0065
3322.75,0.0063
3322.50,0.0062
3322.25,0.0061
3322.00,0.0061
3321.75,0.0061
3321.50,0.0062
3321.25,0.0063
3321.00,0.0063
3320.75,0.0064
3320.50,0.0064
3320.25,0.0064
3320.00,0.0064
3319.75,0.0064
3319.50,0.0064
3319.25,0.0064
3319.00,0.0064
3318.75,0.0064
3318.50,0.0064
3318.25,0.0063
3318.00,0.0063
3317.75,0.0063
3317.50,0.0063
3317.25,0.0063
3317.00,0.0063
3316.75,0.0063
3316.50,0.0063
3316.25,0.0063
3316.00,0.0063
3315.75,0.0063
3315.50,0.0063
3315.25,0.0062
3315.00,0.0063
3314.75,0.0063
3314.50,0.0064
3314.25,0.0064
3314.00,0.0064
3313.75,0.0064
3313.50,0.0064
3313.25,0.0064
3313.00,0.0063
3312.75,0.0063
3312.50,0.0063
3312.25,0.0063
3312.00,0.0064
3311.75,0.0064
3311.50,0.0064
3311.25,0.0064
3311.00,0.0064
3310.75,0.0064
3310.50,0.0065
3310.25,0.0066
3310.00,0.0067
3309.75,0.0067
3309.50,0.0067
3309.25,0.0066
3309.00,0.0064
3308.75,0.0063
3308.50,0.0063
3308.25,0.0064
3308.00,0.0064
3307.75,0.0064
3307.50,0.0064
3307.25,0.0066
3307.00,0.0067
3306.75,0.0068
3306.50,0.0069
3306.25,0.0069
3306.00,0.0068
3305.75,0.0066
3305.50,0.0064
3305.25,0.0062
3305.00,0.0060
3304.75,0.0059
3304.50,0.0060
3304.25,0.0062
3304.00,0.0063
3303.75,0.0065
3303.50,0.0065
3303.25,0.0066
3303.00,0.0066
3302.75,0.0066
3302.50,0.0066
3302.25,0.0065
3302.00,0.0065
3301.75,0.0064
3301.50,0.0063
3301.25,0.0062
3301.00,0.0061
3300.75,0.0061
3300.50,0.0061
3300.25,0.0062
3300.00,0.0062
3299.75,0.0062
3299.50,0.0063
3299.25,0.0064
3299.00,0.0065
3298.75,0.0066
3298.50,0.0066
3298.25,0.0066
3298.00,0.0065
3297.75,0.0065
3297.50,0.0065
3297.25,0.0064
3297.00,0.0063
3296.75,0.0062
3296.50,0.0060
3296.25,0.0059
3296.00,0.0059
3295.75,0.0060
3295.50,0.0062
3295.25,0.0064
3295.00,0.0066
3294.75,0.0067
3294.50,0.0067
3294.25,0.0067
3294.00,0.0067
3293.75,0.0066
3293.50,0.0066
3293.25,0.0065
3293.00,0.0064
3292.75,0.0063
3292.50,0.0061
3292.25,0.0060
3292.00,0.0059
3291.75,0.0059
3291.50,0.0060
3291.25,0.0062
3291.00,0.0064
3290.75,0.0066
3290.50,0.0067
3290.25,0.0068
3290.00,0.0068
3289.75,0.0068
3289.50,0.0067
3289.25,0.0067
3289.00,0.0066
3288.75,0.0065
3288.50,0.0064
3288.25,0.0063
3288.00,0.0062
3287.75,0.0062
3287.50,0.0062
3287.25,0.0063
3287.00,0.0063
3286.75,0.0063
3286.50,0.0063
3286.25,0.0063
3286.00,0.0064
3285.75,0.0065
3285.50,0.0065
3285.25,0.0065
3285.00,0.0065
3284.75,0.0064
3284.50,0.0062
3284.25,0.0062
3284.00,0.0061
3283.75,0.0062
3283.50,0.0062
3283.25,0.0063
3283.00,0.0063
3282.75,0.0063
3282.50,0.0063
3282.25,0.0063
3282.00,0.0063
3281.75,0.0064
3281.50,0.0065
3281.25,0.0066
3281.00,0.0066
3280.75,0.0067
3280.50,0.0067
3280.25,0.0067
3280.00,0.0067
3279.75,0.0066
3279.50,0.0065
3279.25,0.0063
3279.00,0.0062
3278.75,0.0061
3278.50,0.0061
3278.25,0.0063
3278.00,0.0065
3277.75,0.0067
3277.50,0.0068
3277.25,0.0067
3277.00,0.0065
3276.75,0.0062
3276.50,0.0060
3276.25,0.0059
3276.00,0.0059
3275.75,0.0061
3275.50,0.0062
3275.25,0.0064
3275.00,0.0065
3274.75,0.0065
3274.50,0.0066
3274.25,0.0066
3274.00,0.0066
3273.75,0.0065
3273.50,0.0065
3273.25,0.0064
3273.00,0.0063
3272.75,0.0063
3272.50,0.0064
3272.25,0.0065
3272.00,0.0066
3271.75,0.0066
3271.50,0.0066
3271.25,0.0065
3271.00,0.0064
3270.75,0.0063
3270.50,0.0062
3270.25,0.0062
3270.00,0.0061
3269.75,0.0061
3269.50,0.0060
3269.25,0.0061
3269.00,0.0061
3268.75,0.0063
3268.50,0.0064
3268.25,0.0065
3268.00,0.0065
3267.75,0.0065
3267.50,0.0065
3267.25,0.0065
3267.00,0.0065
3266.75,0.0065
3266.50,0.0066
3266.25,0.0066
3266.00,0.0066
3265.75,0.0067
3265.50,0.0067
3265.25,0.0068
3265.00,0.0069
3264.75,0.0069
3264.50,0.0068
3264.25,0.0068
3264.00,0.0067
3263.75,0.0066
3263.50,0.0065
3263.25,0.0064
3263.00,0.0062
3262.75,0.0061
3262.50,0.0061
3262.25,0.0060
3262.00,0.0061
3261.75,0.0061
3261.50,0.0062
3261.25,0.0064
3261.00,0.0065
3260.75,0.0066
3260.50,0.0066
3260.25,0.0065
3260.00,0.0065
3259.75,0.0064
3259.50,0.0064
3259.25,0.0064
3259.00,0.0065
3258.75,0.0065
3258.50,0.0066
3258.25,0.0066
3258.00,0.0066
3257.75,0.0066
3257.50,0.0066
3257.25,0.0067
3257.00,0.0068
3256.75,0.0069
3256.50,0.0070
3256.25,0.0071
3256.00,0.0071
3255.75,0.0070
3255.50,0.0068
3255.25,0.0066
3255.00,0.0065
3254.75,0.0064
3254.50,0.0065
3254.25,0.0066
3254.00,0.0066
3253.75,0.0065
3253.50,0.0065
3253.25,0.0065
3253.00,0.0066
3252.75,0.0066
3252.50,0.0066
3252.25,0.0066
3252.00,0.0066
3251.75,0.0066
3251.50,0.0066
3251.25,0.0067
3251.00,0.0066
3250.75,0.0065
3250.50,0.0065
3250.25,0.0065
3250.00,0.0065
3249.75,0.0066
3249.50,0.0066
3249.25,0.0067
3249.00,0.0067
3248.75,0.0066
3248.50,0.0065
3248.25,0.0065
3248.00,0.0065
3247.75,0.0065
3247.50,0.0065
3247.25,0.0065
3247.00,0.0064
3246.75,0.0064
3246.50,0.0063
3246.25,0.0063
3246.00,0.0062
3245.75,0.0062
3245.50,0.0062
3245.25,0.0063
3245.00,0.0064
3244.75,0.0065
3244.50,0.0066
3244.25,0.0067
3244.00,0.0067
3243.75,0.0067
3243.50,0.0067
3243.25,0.0065
3243.00,0.0064
3242.75,0.0063
3242.50,0.0062
3242.25,0.0061
3242.00,0.0061
3241.75,0.0060
3241.50,0.0060
3241.25,0.0061
3241.00,0.0063
3240.75,0.0065
3240.50,0.0067
3240.25,0.0068
3240.00,0.0068
3239.75,0.0067
3239.50,0.0066
3239.25,0.0065
3239.00,0.0063
3238.75,0.0062
3238.50,0.0061
3238.25,0.0061
3238.00,0.0062
3237.75,0.0063
3237.50,0.0063
3237.25,0.0063
3237.00,0.0061
3236.75,0.0060
3236.50,0.0059
3236.25,0.0060
3236.00,0.0061
3235.75,0.0062
3235.50,0.0063
3235.25,0.0064
3235.00,0.0064
3234.75,0.0064
3234.50,0.0064
3234.25,0.0064
3234.00,0.0065
3233.75,0.0066
3233.50,0.0066
3233.25,0.0066
3233.00,0.0066
3232.75,0.0065
3232.50,0.0065
3232.25,0.0064
3232.00,0.0064
3231.75,0.0063
3231.50,0.0062
3231.25,0.0062
3231.00,0.0062
3230.75,0.0063
3230.50,0.0063
3230.25,0.0064
3230.00,0.0064
3229.75,0.0063
3229.50,0.0062
3229.25,0.0062
3229.00,0.0062
3228.75,0.0063
3228.50,0.0064
3228.25,0.0065
3228.00,0.0065
3227.75,0.0065
3227.50,0.0065
3227.25,0.0065
3227.00,0.0064
3226.75,0.0064
3226.50,0.0064
3226.25,0.0063
3226.00,0.0062
3225.75,0.0062
3225.50,0.0062
3225.25,0.0063
3225.00,0.0065
3224.75,0.0066
3224.50,0.0066
3224.25,0.0065
3224.00,0.0064
3223.75,0.0063
3223.50,0.0062
3223.25,0.0062
3223.00,0.0062
3222.75,0.0062
3222.50,0.0062
3222.25,0.0062
3222.00,0.0062
3221.75,0.0062
3221.50,0.0063
3221.25,0.0064
3221.00,0.0064
3220.75,0.0064
3220.50,0.0063
3220.25,0.0063
3220.00,0.0063
3219.75,0.0065
3219.50,0.0066
3219.25,0.0067
3219.00,0.0066
3218.75,0.0064
3218.50,0.0062
3218.25,0.0061
3218.00,0.0061
3217.75,0.0062
3217.50,0.0063
3217.25,0.0064
3217.00,0.0065
3216.75,0.0065
3216.50,0.0065
3216.25,0.0065
3216.00,0.0065
3215.75,0.0065
3215.50,0.0064
3215.25,0.0064
3215.00,0.0063
3214.75,0.0063
3214.50,0.0063
3214.25,0.0063
3214.00,0.0062
3213.75,0.0061
3213.50,0.0060
3213.25,0.0060
3213.00,0.0061
3212.75,0.0063
3212.50,0.0064
3212.25,0.0064
3212.00,0.0063
3211.75,0.0063
3211.50,0.0062
3211.25,0.0062
3211.00,0.0063
3210.75,0.0064
3210.50,0.0065
3210.25,0.0066
3210.00,0.0067
3209.75,0.0068
3209.50,0.0069
3209.25,0.0069
3209.00,0.0070
3208.75,0.0069
3208.50,0.0068
3208.25,0.0066
3208.00,0.0064
3207.75,0.0063
3207.50,0.0063
3207.25,0.0064
3207.00,0.0065
3206.75,0.0065
3206.50,0.0066
3206.25,0.0066
3206.00,0.0066
3205.75,0.0065
3205.50,0.0064
3205.25,0.0063
3205.00,0.0064
3204.75,0.0064
3204.50,0.0065
3204.25,0.0065
3204.00,0.0065
3203.75,0.0064
3203.50,0.0064
3203.25,0.0064
3203.00,0.0064
3202.75,0.0065
3202.50,0.0066
3202.25,0.0066
3202.00,0.0066
3201.75,0.0066
3201.50,0.0066
3201.25,0.0066
3201.00,0.0066
3200.75,0.0065
3200.50,0.0064
3200.25,0.0063
3200.00,0.0061
3199.75,0.0060
3199.50,0.0059
3199.25,0.0058
3199.00,0.0058
3198.75,0.0058
3198.50,0.0059
3198.25,0.0062
3198.00,0.0065
3197.75,0.0067
3197.50,0.0068
3197.25,0.0068
3197.00,0.0067
3196.75,0.0066
3196.50,0.0065
3196.25,0.0064
3196.00,0.0063
3195.75,0.0062
3195.50,0.0062
3195.25,0.0062
3195.00,0.0063
3194.75,0.0064
3194.50,0.0065
3194.25,0.0066
3194.00,0.0067
3193.75,0.0068
3193.50,0.0068
3193.25,0.0068
3193.00,0.0068
3192.75,0.0067
3192.50,0.0067
3192.25,0.0067
3192.00,0.0067
3191.75,0.0067
3191.50,0.0066
3191.25,0.0065
3191.00,0.0064
3190.75,0.0064
3190.50,0.0065
3190.25,0.0065
3190.00,0.0065
3189.75,0.0066
3189.50,0.0066
3189.25,0.0066
3189.00,0.0066
3188.75,0.0066
3188.50,0.0067
3188.25,0.0067
3188.00,0.0067
3187.75,0.0067
3187.50,0.0066
3187.25,0.0066
3187.00,0.0066
3186.75,0.0065
3186.50,0.0065
3186.25,0.0064
3186.00,0.0064
3185.75,0.0063
3185.50,0.0063
3185.25,0.0062
3185.00,0.0062
3184.75,0.0062
3184.50,0.0062
3184.25,0.0064
3184.00,0.0065
3183.75,0.0066
3183.50,0.0066
3183.25,0.0066
3183.00,0.0066
3182.75,0.0065
3182.50,0.0065
3182.25,0.0065
3182.00,0.0065
3181.75,0.0065
3181.50,0.0066
3181.25,0.0066
3181.00,0.0065
3180.75,0.0064
3180.50,0.0063
3180.25,0.0062
3180.00,0.0062
3179.75,0.0063
3179.50,0.0064
3179.25,0.0065
3179.00,0.0065
3178.75,0.0066
3178.50,0.0066
3178.25,0.0067
3178.00,0.0068
3177.75,0.0068
3177.50,0.0068
3177.25,0.0068
3177.00,0.0067
3176.75,0.0067
3176.50,0.0067
3176.25,0.0067
3176.00,0.0067
3175.75,0.0067
3175.50,0.0066
3175.25,0.0066
3175.00,0.0065
3174.75,0.0066
3174.50,0.0067
3174.25,0.0068
3174.00,0.0069
3173.75,0.0070
3173.50,0.0069
3173.25,0.0068
3173.00,0.0066
3172.75,0.0065
3172.50,0.0064
3172.25,0.0064
3172.00,0.0064
3171.75,0.0064
3171.50,0.0064
3171.25,0.0064
3171.00,0.0065
3170.75,0.0066
3170.50,0.0066
3170.25,0.0065
3170.00,0.0064
3169.75,0.0064
3169.50,0.0065
3169.25,0.0066
3169.00,0.0067
3168.75,0.0067
3168.50,0.0066
3168.25,0.0065
3168.00,0.0063
3167.75,0.0062
3167.50,0.0061
3167.25,0.0061
3167.00,0.0062
3166.75,0.0064
3166.50,0.0065
3166.25,0.0065
3166.00,0.0065
3165.75,0.0064
3165.50,0.0063
3165.25,0.0063
3165.00,0.0063
3164.75,0.0064
3164.50,0.0064
3164.25,0.0063
3164.00,0.0061
3163.75,0.0060
3163.50,0.0059
3163.25,0.0059
3163.00,0.0058
3162.75,0.0058
3162.50,0.0058
3162.25,0.0059
3162.00,0.0059
3161.75,0.0059
3161.50,0.0060
3161.25,0.0060
3161.00,0.0061
3160.75,0.0063
3160.50,0.0065
3160.25,0.0066
3160.00,0.0067
3159.75,0.0066
3159.50,0.0066
3159.25,0.0065
3159.00,0.0065
3158.75,0.0065
3158.50,0.0065
3158.25,0.0064
3158.00,0.0064
3157.75,0.0064
3157.50,0.0064
3157.25,0.0064
3157.00,0.0065
3156.75,0.0065
3156.50,0.0065
3156.25,0.0065
3156.00,0.0066
3155.75,0.0066
3155.50,0.0068
3155.25,0.0069
3155.00,0.0071
3154.75,0.0071
3154.50,0.0071
3154.25,0.0069
3154.00,0.0067
3153.75,0.0064
3153.50,0.0063
3153.25,0.0063
3153.00,0.0065
3152.75,0.0067
3152.50,0.0069
3152.25,0.0071
3152.00,0.0071
3151.75,0.0070
3151.50,0.0069
3151.25,0.0068
3151.00,0.0067
3150.75,0.0068
3150.50,0.0068
3150.25,0.0068
3150.00,0.0068
3149.75,0.0067
3149.50,0.0067
3149.25,0.0067
3149.00,0.0067
3148.75,0.0067
3148.50,0.0066
3148.25,0.0066
3148.00,0.0066
3147.75,0.0067
3147.50,0.0068
3147.25,0.0067
3147.00,0.0066
3146.75,0.0064
3146.50,0.0063
3146.25,0.0063
3146.00,0.0064
3145.75,0.0065
3145.50,0.0065
3145.25,0.0065
3145.00,0.0065
3144.75,0.0065
3144.50,0.0066
3144.25,0.0067
3144.00,0.0067
3143.75,0.0068
3143.50,0.0067
3143.25,0.0067
3143.00,0.0067
3142.75,0.0066
3142.50,0.0066
3142.25,0.0067
3142.00,0.0068
3141.75,0.0069
3141.50,0.0070
3141.25,0.0070
3141.00,0.0069
3140.75,0.0067
3140.50,0.0065
3140.25,0.0064
3140.00,0.0064
3139.75,0.0064
3139.50,0.0065
3139.25,0.0065
3139.00,0.0066
3138.75,0.0066
3138.50,0.0065
3138.25,0.0064
3138.00,0.0063
3137.75,0.0062
3137.50,0.0062
3137.25,0.0063
3137.00,0.0064
3136.75,0.0066
3136.50,0.0067
3136.25,0.0068
3136.00,0.0067
3135.75,0.0066
3135.50,0.0063
3135.25,0.0061
3135.00,0.0061
3134.75,0.0061
3134.50,0.0062
3134.25,0.0064
3134.00,0.0065
3133.75,0.0066
3133.50,0.0066
3133.25,0.0066
3133.00,0.0066
3132.75,0.0066
3132.50,0.0067
3132.25,0.0067
3132.00,0.0066
3131.75,0.0066
3131.50,0.0066
3131.25,0.0065
3131.00,0.0065
3130.75,0.0066
3130.50,0.0066
3130.25,0.0067
3130.00,0.0068
3129.75,0.0068
3129.50,0.0068
3129.25,0.0067
3129.00,0.0066
3128.75,0.0065
3128.50,0.0065
3128.25,0.0065
3128.00,0.0067
3127.75,0.0069
3127.50,0.0070
3127.25,0.0070
3127.00,0.0070
3126.75,0.0069
3126.50,0.0069
3126.25,0.0068
3126.00,0.0068
3125.75,0.0068
3125.50,0.0067
3125.25,0.0066
3125.00,0.0065
3124.75,0.0064
3124.50,0.0064
3124.25,0.0065
3124.00,0.0066
3123.75,0.0067
3123.50,0.0068
3123.25,0.0068
3123.00,0.0068
3122.75,0.0067
3122.50,0.0067
3122.25,0.0067
3122.00,0.0067
3121.75,0.0067
3121.50,0.0068
3121.25,0.0069
3121.00,0.0070
3120.75,0.0070
3120.50,0.0070
3120.25,0.0069
3120.00,0.0068
3119.75,0.0066
3119.50,0.0066
3119.25,0.0065
3119.00,0.0065
3118.75,0.0066
3118.50,0.0066
3118.25,0.0067
3118.00,0.0066
3117.75,0.0066
3117.50,0.0065
3117.25,0.0066
3117.00,0.0066
3116.75,0.0067
3116.50,0.0068
3116.25,0.0068
3116.00,0.0068
3115.75,0.0067
3115.50,0.0067
3115.25,0.0067
3115.00,0.0068
3114.75,0.0069
3114.50,0.0069
3114.25,0.0070
3114.00,0.0070
3113.75,0.0069
3113.50,0.0069
3113.25,0.0069
3113.00,0.0068
3112.75,0.0068
3112.50,0.0067
3112.25,0.0067
3112.00,0.0066
3111.75,0.0066
3111.50,0.0065
3111.25,0.0065
3111.00,0.0065
3110.75,0.0065
3110.50,0.0065
3110.25,0.0066
3110.00,0.0067
3109.75,0.0068
3109.50,0.0069
3109.25,0.0069
3109.00,0.0068
3108.75,0.0067
3108.50,0.0066
3108.25,0.0066
3108.00,0.0066
3107.75,0.0067
3107.50,0.0067
3107.25,0.0068
3107.00,0.0068
3106.75,0.0068
3106.50,0.0069
3106.25,0.0070
3106.00,0.0070
3105.75,0.0070
3105.50,0.0070
3105.25,0.0069
3105.00,0.0067
3104.75,0.0066
3104.50,0.0065
3104.25,0.0065
3104.00,0.0066
3103.75,0.0067
3103.50,0.0068
3103.25,0.0069
3103.00,0.0069
3102.75,0.0069
3102.50,0.0069
3102.25,0.0070
3102.00,0.0070
3101.75,0.0070
3101.50,0.0069
3101.25,0.0068
3101.00,0.0068
3100.75,0.0069
3100.50,0.0069
3100.25,0.0069
3100.00,0.0069
3099.75,0.0068
3099.50,0.0068
3099.25,0.0068
3099.00,0.0068
3098.75,0.0068
3098.50,0.0067
3098.25,0.0067
3098.00,0.0067
3097.75,0.0067
3097.50,0.0067
3097.25,0.0068
3097.00,0.0069
3096.75,0.0069
3096.50,0.0068
3096.25,0.0068
3096.00,0.0069
3095.75,0.0069
3095.50,0.0069
3095.25,0.0068
3095.00,0.0067
3094.75,0.0065
3094.50,0.0063
3094.25,0.0062
3094.00,0.0062
3093.75,0.0063
3093.50,0.0065
3093.25,0.0068
3093.00,0.0070
3092.75,0.0070
3092.50,0.0070
3092.25,0.0069
3092.00,0.0068
3091.75,0.0068
3091.50,0.0068
3091.25,0.0068
3091.00,0.0068
3090.75,0.0067
3090.50,0.0065
3090.25,0.0064
3090.00,0.0064
3089.75,0.0064
3089.50,0.0064
3089.25,0.0065
3089.00,0.0066
3088.75,0.0068
3088.50,0.0070
3088.25,0.0072
3088.00,0.0072
3087.75,0.0071
3087.50,0.0070
3087.25,0.0068
3087.00,0.0066
3086.75,0.0065
3086.50,0.0065
3086.25,0.0067
3086.00,0.0068
3085.75,0.0068
3085.50,0.0067
3085.25,0.0066
3085.00,0.0065
3084.75,0.0065
3084.50,0.0065
3084.25,0.0066
3084.00,0.0066
3083.75,0.0066
3083.50,0.0065
3083.25,0.0065
3083.00,0.0065
3082.75,0.0066
3082.50,0.0067
3082.25,0.0069
3082.00,0.0070
3081.75,0.0070
3081.50,0.0069
3081.25,0.0069
3081.00,0.0068
3080.75,0.0068
3080.50,0.0068
3080.25,0.0067
3080.00,0.0067
3079.75,0.0067
3079.50,0.0068
3079.25,0.0068
3079.00,0.0068
3078.75,0.0068
3078.50,0.0067
3078.25,0.0067
3078.00,0.0067
3077.75,0.0068
3077.50,0.0069
3077.25,0.0070
3077.00,0.0071
3076.75,0.0070
3076.50,0.0070
3076.25,0.0070
3076.00,0.0070
3075.75,0.0071
3075.50,0.0070
3075.25,0.0069
3075.00,0.0067
3074.75,0.0066
3074.50,0.0066
3074.25,0.0066
3074.00,0.0067
3073.75,0.0067
3073.50,0.0066
3073.25,0.0066
3073.00,0.0066
3072.75,0.0066
3072.50,0.0067
3072.25,0.0069
3072.00,0.0070
3071.75,0.0072
3071.50,0.0072
3071.25,0.0071
3071.00,0.0070
3070.75,0.0070
3070.50,0.0070
3070.25,0.0071
3070.00,0.0071
3069.75,0.0071
3069.50,0.0070
3069.25,0.0070
3069.00,0.0069
3068.75,0.0069
3068.50,0.0068
3068.25,0.0067
3068.00,0.0067
3067.75,0.0066
3067.50,0.0066
3067.25,0.0067
3067.00,0.0068
3066.75,0.0069
3066.50,0.0069
3066.25,0.0069
3066.00,0.0067
3065.75,0.0067
3065.50,0.0067
3065.25,0.0068
3065.00,0.0069
3064.75,0.0068
3064.50,0.0068
3064.25,0.0067
3064.00,0.0067
3063.75,0.0068
3063.50,0.0068
3063.25,0.0068
3063.00,0.0067
3062.75,0.0067
3062.50,0.0068
3062.25,0.0068
3062.00,0.0069
3061.75,0.0069
3061.50,0.0069
3061.25,0.0069
3061.00,0.0069
3060.75,0.0069
3060.50,0.0069
3060.25,0.0069
3060.00,0.0070
3059.75,0.0071
3059.50,0.0071
3059.25,0.0072
3059.00,0.0072
3058.75,0.0073
3058.50,0.0073
3058.25,0.0073
3058.00,0.0072
3057.75,0.0071
3057.50,0.0071
3057.25,0.0070
3057.00,0.0069
3056.75,0.0068
3056.50,0.0067
3056.25,0.0067
3056.00,0.0067
3055.75,0.0068
3055.50,0.0069
3055.25,0.0070
3055.00,0.0070
3054.75,0.0070
3054.50,0.0071
3054.25,0.0073
3054.00,0.0074
3053.75,0.0075
3053.50,0.0075
3053.25,0.0074
3053.00,0.0073
3052.75,0.0071
3052.50,0.0070
3052.25,0.0070
3052.00,0.0070
3051.75,0.0071
3051.50,0.0072
3051.25,0.0072
3051.00,0.0072
3050.75,0.0071
3050.50,0.0070
3050.25,0.0069
3050.00,0.0069
3049.75,0.0069
3049.50,0.0069
3049.25,0.0069
3049.00,0.0070
3048.75,0.0069
3048.50,0.0069
3048.25,0.0069
3048.00,0.0069
3047.75,0.0070
3047.50,0.0071
3047.25,0.0072
3047.00,0.0072
3046.75,0.0071
3046.50,0.0069
3046.25,0.0068
3046.00,0.0066
3045.75,0.0066
3045.50,0.0066
3045.25,0.0067
3045.00,0.0069
3044.75,0.0071
3044.50,0.0072
3044.25,0.0072
3044.00,0.0071
3043.75,0.0069
3043.50,0.0066
3043.25,0.0065
3043.00,0.0064
3042.75,0.0064
3042.50,0.0065
3042.25,0.0066
3042.00,0.0067
3041.75,0.0067
3041.50,0.0068
3041.25,0.0068
3041.00,0.0068
3040.75,0.0067
3040.50,0.0066
3040.25,0.0066
3040.00,0.0066
3039.75,0.0066
3039.50,0.0066
3039.25,0.0066
3039.00,0.0066
3038.75,0.0066
3038.50,0.0067
3038.25,0.0068
3038.00,0.0069
3037.75,0.0069
3037.50,0.0069
3037.25,0.0069
3037.00,0.0069
3036.75,0.0068
3036.50,0.0068
3036.25,0.0069
3036.00,0.0070
3035.75,0.0070
3035.50,0.0070
3035.25,0.0070
3035.00,0.0069
3034.75,0.0067
3034.50,0.0066
3034.25,0.0065
3034.00,0.0065
3033.75,0.0066
3033.50,0.0067
3033.25,0.0067
3033.00,0.0066
3032.75,0.0065
3032.50,0.0065
3032.25,0.0066
3032.00,0.0067
3031.75,0.0068
3031.50,0.0069
3031.25,0.0068
3031.00,0.0066
3030.75,0.0065
3030.50,0.0065
3030.25,0.0065
3030.00,0.0066
3029.75,0.0067
3029.50,0.0067
3029.25,0.0066
3029.00,0.0065
3028.75,0.0064
3028.50,0.0064
3028.25,0.0065
3028.00,0.0066
3027.75,0.0068
3027.50,0.0070
3027.25,0.0071
3027.00,0.0071
3026.75,0.0072
3026.50,0.0071
3026.25,0.0071
3026.00,0.0071
3025.75,0.0071
3025.50,0.0071
3025.25,0.0071
3025.00,0.0070
3024.75,0.0069
3024.50,0.0068
3024.25,0.0069
3024.00,0.0070
3023.75,0.0071
3023.50,0.0071
3023.25,0.0070
3023.00,0.0069
3022.75,0.0068
3022.50,0.0068
3022.25,0.0068
3022.00,0.0069
3021.75,0.0069
3021.50,0.0070
3021.25,0.0071
3021.00,0.0072
3020.75,0.0073
3020.50,0.0072
3020.25,0.0072
3020.00,0.0071
3019.75,0.0070
3019.50,0.0070
3019.25,0.0070
3019.00,0.0071
3018.75,0.0071
3018.50,0.0072
3018.25,0.0071
3018.00,0.0071
3017.75,0.0071
3017.50,0.0071
3017.25,0.0072
3017.00,0.0072
3016.75,0.0072
3016.50,0.0071
3016.25,0.0071
3016.00,0.0070
3015.75,0.0068
3015.50,0.0067
3015.25,0.0067
3015.00,0.0067
3014.75,0.0067
3014.50,0.0068
3014.25,0.0070
3014.00,0.0072
3013.75,0.0074
3013.50,0.0075
3013.25,0.0075
3013.00,0.0075
3012.75,0.0074
3012.50,0.0073
3012.25,0.0072
3012.00,0.0071
3011.75,0.0071
3011.50,0.0071
3011.25,0.0072
3011.00,0.0072
3010.75,0.0073
3010.50,0.0074
3010.25,0.0074
3010.00,0.0073
3009.75,0.0072
3009.50,0.0071
3009.25,0.0071
3009.00,0.0071
3008.75,0.0071
3008.50,0.0071
3008.25,0.0071
3008.00,0.0071
3007.75,0.0072
3007.50,0.0073
3007.25,0.0074
3007.00,0.0075
3006.75,0.0076
3006.50,0.0076
3006.25,0.0077
3006.00,0.0077
3005.75,0.0077
3005.50,0.0076
3005.25,0.0074
3005.00,0.0072
3004.75,0.0071
3004.50,0.0071
3004.25,0.0072
3004.00,0.0072
3003.75,0.0072
3003.50,0.0072
3003.25,0.0072
3003.00,0.0073
3002.75,0.0074
3002.50,0.0075
3002.25,0.0075
3002.00,0.0076
3001.75,0.0076
3001.50,0.0076
3001.25,0.0076
3001.00,0.0075
3000.75,0.0075
3000.50,0.0075
3000.25,0.0076
3000.00,0.0077
2999.75,0.0078
2999.50,0.0077
2999.25,0.0076
2999.00,0.0075
2998.75,0.0075
2998.50,0.0074
2998.25,0.0074
2998.00,0.0074
2997.75,0.0075
2997.50,0.0076
2997.25,0.0078
2997.00,0.0080
2996.75,0.0081
2996.50,0.0081
2996.25,0.0081
2996.00,0.0080
2995.75,0.0080
2995.50,0.0081
2995.25,0.0082
2995.00,0.0083
2994.75,0.0082
2994.50,0.0081
2994.25,0.0081
2994.00,0.0080
2993.75,0.0080
2993.50,0.0080
2993.25,0.0081
2993.00,0.0081
2992.75,0.0082
2992.50,0.0083
2992.25,0.0083
2992.00,0.0084
2991.75,0.0084
2991.50,0.0084
2991.25,0.0083
2991.00,0.0083
2990.75,0.0082
2990.50,0.0082
2990.25,0.0083
2990.00,0.0083
2989.75,0.0084
2989.50,0.0085
2989.25,0.0087
2989.00,0.0088
2988.75,0.0089
2988.50,0.0089
2988.25,0.0088
2988.00,0.0088
2987.75,0.0089
2987.50,0.0091
2987.25,0.0093
2987.00,0.0094
2986.75,0.0094
2986.50,0.0093
2986.25,0.0092
2986.00,0.0092
2985.75,0.0092
2985.50,0.0092
2985.25,0.0094
2985.00,0.0095
2984.75,0.0096
2984.50,0.0097
2984.25,0.0097
2984.00,0.0097
2983.75,0.0097
2983.50,0.0097
2983.25,0.0099
2983.00,0.0101
2982.75,0.0103
2982.50,0.0104
2982.25,0.0105
2982.00,0.0106
2981.75,0.0106
2981.50,0.0107
2981.25,0.0108
2981.00,0.0109
2980.75,0.0109
2980.50,0.0110
2980.25,0.0112
2980.00,0.0114
2979.75,0.0117
2979.50,0.0119
2979.25,0.0122
2979.00,0.0124
2978.75,0.0125
2978.50,0.0127
2978.25,0.0128
2978.00,0.0130
2977.75,0.0132
2977.50,0.0134
2977.25,0.0136
2977.00,0.0138
2976.75,0.0140
2976.50,0.0142
2976.25,0.0144
2976.00,0.0147
2975.75,0.0149
2975.50,0.0151
2975.25,0.0154
2975.00,0.0157
2974.75,0.0161
2974.50,0.0166
2974.25,0.0170
2974.00,0.0173
2973.75,0.0176
2973.50,0.0178
2973.25,0.0181
2973.00,0.0184
2972.75,0.0188
2972.50,0.0192
2972.25,0.0197
2972.00,0.0202
2971.75,0.0207
2971.50,0.0211
2971.25,0.0215
2971.00,0.0219
2970.75,0.0223
2970.50,0.0228
2970.25,0.0233
2970.00,0.0240
2969.75,0.0246
2969.50,0.0252
2969.25,0.0256
2969.00,0.0260
2968.75,0.0264
2968.50,0.0268
2968.25,0.0273
2968.00,0.0280
2967.75,0.0287
2967.50,0.0294
2967.25,0.0302
2967.00,0.0310
2966.75,0.0316
2966.50,0.0322
2966.25,0.0327
2966.00,0.0332
2965.75,0.0336
2965.50,0.0340
2965.25,0.0345
2965.00,0.0349
2964.75,0.0354
2964.50,0.0359
2964.25,0.0363
2964.00,0.0366
2963.75,0.0368
2963.50,0.0369
2963.25,0.0371
2963.00,0.0372
2962.75,0.0374
2962.50,0.0375
2962.25,0.0376
2962.00,0.0376
2961.75,0.0377
2961.50,0.0378
2961.25,0.0377
2961.00,0.0376
2960.75,0.0373
2960.50,0.0368
2960.25,0.0364
2960.00,0.0359
2959.75,0.0355
2959.50,0.0351
2959.25,0.0347
2959.00,0.0342
2958.75,0.0336
2958.50,0.0330
2958.25,0.0324
2958.00,0.0319
2957.75,0.0313
2957.50,0.0306
2957.25,0.0300
2957.00,0.0293
2956.75,0.0286
2956.50,0.0280
2956.25,0.0274
2956.00,0.0268
2955.75,0.0262
2955.50,0.0256
2955.25,0.0249
2955.00,0.0242
2954.75,0.0236
2954.50,0.0231
2954.25,0.0225
2954.00,0.0221
2953.75,0.0217
2953.50,0.0213
2953.25,0.0208
2953.00,0.0203
2952.75,0.0197
2952.50,0.0193
2952.25,0.0189
2952.00,0.0185
2951.75,0.0182
2951.50,0.0179
2951.25,0.0176
2951.00,0.0173
2950.75,0.0170
2950.50,0.0168
2950.25,0.0165
2950.00,0.0161
2949.75,0.0157
2949.50,0.0152
2949.25,0.0148
2949.00,0.0145
2948.75,0.0142
2948.50,0.0140
2948.25,0.0138
2948.00,0.0135
2947.75,0.0134
2947.50,0.0133
2947.25,0.0133
2947.00,0.0133
2946.75,0.0133
2946.50,0.0132
2946.25,0.0130
2946.00,0.0127
2945.75,0.0125
2945.50,0.0123
2945.25,0.0121
2945.00,0.0118
2944.75,0.0116
2944.50,0.0114
2944.25,0.0113
2944.00,0.0112
2943.75,0.0112
2943.50,0.0111
2943.25,0.0110
2943.00,0.0110
2942.75,0.0110
2942.50,0.0110
2942.25,0.0110
2942.00,0.0109
2941.75,0.0108
2941.50,0.0106
2941.25,0.0105
2941.00,0.0104
2940.75,0.0102
2940.50,0.0101
2940.25,0.0099
2940.00,0.0099
2939.75,0.0099
2939.50,0.0099
2939.25,0.0099
2939.00,0.0098
2938.75,0.0098
2938.50,0.0097
2938.25,0.0096
2938.00,0.0095
2937.75,0.0094
2937.50,0.0093
2937.25,0.0092
2937.00,0.0092
2936.75,0.0092
2936.50,0.0093
2936.25,0.0094
2936.00,0.0093
2935.75,0.0092
2935.50,0.0091
2935.25,0.0089
2935.00,0.0089
2934.75,0.0089
2934.50,0.0090
2934.25,0.0090
2934.00,0.0090
2933.75,0.0089
2933.50,0.0088
2933.25,0.0086
2933.00,0.0086
2932.75,0.0086
2932.50,0.0086
2932.25,0.0087
2932.00,0.0087
2931.75,0.0087
2931.50,0.0085
2931.25,0.0084
2931.00,0.0082
2930.75,0.0082
2930.50,0.0082
2930.25,0.0081
2930.00,0.0081
2929.75,0.0081
2929.50,0.0081
2929.25,0.0082
2929.00,0.0083
2928.75,0.0084
2928.50,0.0084
2928.25,0.0084
2928.00,0.0084
2927.75,0.0085
2927.50,0.0085
2927.25,0.0085
2927.00,0.0084
2926.75,0.0084
2926.50,0.0083
2926.25,0.0083
2926.00,0.0084
2925.75,0.0085
2925.50,0.0085
2925.25,0.0085
2925.00,0.0085
2924.75,0.0083
2924.50,0.0081
2924.25,0.0079
2924.00,0.0078
2923.75,0.0078
2923.50,0.0079
2923.25,0.0080
2923.00,0.0081
2922.75,0.0081
2922.50,0.0082
2922.25,0.0083
2922.00,0.0082
2921.75,0.0082
2921.50,0.0081
2921.25,0.0080
2921.00,0.0080
2920.75,0.0081
2920.50,0.0082
2920.25,0.0082
2920.00,0.0082
2919.75,0.0081
2919.50,0.0080
2919.25,0.0079
2919.00,0.0079
2918.75,0.0078
2918.50,0.0078
2918.25,0.0078
2918.00,0.0079
2917.75,0.0081
2917.50,0.0082
2917.25,0.0083
2917.00,0.0084
2916.75,0.0085
2916.50,0.0085
2916.25,0.0085
2916.00,0.0085
2915.75,0.0084
2915.50,0.0083
2915.25,0.0083
2915.00,0.0082
2914.75,0.0083
2914.50,0.0085
2914.25,0.0087
2914.00,0.0089
2913.75,0.0090
2913.50,0.0090
2913.25,0.0090
2913.00,0.0089
2912.75,0.0089
2912.50,0.0089
2912.25,0.0090
2912.00,0.0091
2911.75,0.0093
2911.50,0.0095
2911.25,0.0096
2911.00,0.0096
2910.75,0.0095
2910.50,0.0095
2910.25,0.0095
2910.00,0.0096
2909.75,0.0098
2909.50,0.0099
2909.25,0.0100
2909.00,0.0100
2908.75,0.0100
2908.50,0.0101
2908.25,0.0101
2908.00,0.0102
2907.75,0.0102
2907.50,0.0103
2907.25,0.0103
2907.00,0.0103
2906.75,0.0103
2906.50,0.0104
2906.25,0.0104
2906.00,0.0105
2905.75,0.0106
2905.50,0.0107
2905.25,0.0108
2905.00,0.0108
2904.75,0.0107
2904.50,0.0106
2904.25,0.0106
2904.00,0.0106
2903.75,0.0107
2903.50,0.0108
2903.25,0.0107
2903.00,0.0107
2902.75,0.0106
2902.50,0.0106
2902.25,0.0106
2902.00,0.0107
2901.75,0.0107
2901.50,0.0107
2901.25,0.0107
2901.00,0.0107
2900.75,0.0106
2900.50,0.0105
2900.25,0.0104
2900.00,0.0104
2899.75,0.0103
2899.50,0.0101
2899.25,0.0099
2899.00,0.0097
2898.75,0.0096
2898.50,0.0095
2898.25,0.0095
2898.00,0.0095
2897.75,0.0096
2897.50,0.0097
2897.25,0.0098
2897.00,0.0098
2896.75,0.0097
2896.50,0.0096
2896.25,0.0095
2896.00,0.0094
2895.75,0.0093
2895.50,0.0093
2895.25,0.0093
2895.00,0.0093
2894.75,0.0092
2894.50,0.0092
2894.25,0.0091
2894.00,0.0091
2893.75,0.0089
2893.50,0.0088
2893.25,0.0088
2893.00,0.0088
2892.75,0.0088
2892.50,0.0088
2892.25,0.0087
2892.00,0.0086
2891.75,0.0085
2891.50,0.0084
2891.25,0.0084
2891.00,0.0085
2890.75,0.0085
2890.50,0.0085
2890.25,0.0084
2890.00,0.0083
2889.75,0.0082
2889.50,0.0081
2889.25,0.0080
2889.00,0.0080
2888.75,0.0081
2888.50,0.0081
2888.25,0.0081
2888.00,0.0081
2887.75,0.0080
2887.50,0.0080
2887.25,0.0079
2887.00,0.0079
2886.75,0.0079
2886.50,0.0078
2886.25,0.0078
2886.00,0.0078
2885.75,0.0077
2885.50,0.0076
2885.25,0.0076
2885.00,0.0076
2884.75,0.0076
2884.50,0.0077
2884.25,0.0077
2884.00,0.0077
2883.75,0.0077
2883.50,0.0076
2883.25,0.0075
2883.00,0.0075
2882.75,0.0076
2882.50,0.0076
2882.25,0.0076
2882.00,0.0077
2881.75,0.0077
2881.50,0.0077
2881.25,0.0078
2881.00,0.0077
2880.75,0.0077
2880.50,0.0078
2880.25,0.0078
2880.00,0.0078
2879.75,0.0078
2879.50,0.0078
2879.25,0.0077
2879.00,0.0076
2878.75,0.0075
2878.50,0.0075
2878.25,0.0075
2878.00,0.0076
2877.75,0.0076
2877.50,0.0076
2877.25,0.0076
2877.00,0.0075
2876.75,0.0075
2876.50,0.0075
2876.25,0.0074
2876.00,0.0074
2875.75,0.0073
2875.50,0.0072
2875.25,0.0073
2875.00,0.0074
2874.75,0.0075
2874.50,0.0076
2874.25,0.0075
2874.00,0.0074
2873.75,0.0072
2873.50,0.0071
2873.25,0.0070
2873.00,0.0070
2872.75,0.0070
2872.50,0.0070
2872.25,0.0069
2872.00,0.0069
2871.75,0.0069
2871.50,0.0070
2871.25,0.0071
2871.00,0.0071
2870.75,0.0072
2870.50,0.0072
2870.25,0.0072
2870.00,0.0071
2869.75,0.0070
2869.50,0.0070
2869.25,0.0070
2869.00,0.0070
2868.75,0.0071
2868.50,0.0071
2868.25,0.0071
2868.00,0.0070
2867.75,0.0069
2867.50,0.0069
2867.25,0.0069
2867.00,0.0069
2866.75,0.0070
2866.50,0.0069
2866.25,0.0069
2866.00,0.0070
2865.75,0.0071
2865.50,0.0073
2865.25,0.0075
2865.00,0.0075
2864.75,0.0074
2864.50,0.0073
2864.25,0.0071
2864.00,0.0069
2863.75,0.0069
2863.50,0.0068
2863.25,0.0069
2863.00,0.0070
2862.75,0.0071
2862.50,0.0071
2862.25,0.0071
2862.00,0.0071
2861.75,0.0071
2861.50,0.0071
2861.25,0.0071
2861.00,0.0070
2860.75,0.0069
2860.50,0.0068
2860.25,0.0068
2860.00,0.0067
2859.75,0.0067
2859.50,0.0067
2859.25,0.0067
2859.00,0.0067
2858.75,0.0067
2858.50,0.0067
2858.25,0.0067
2858.00,0.0068
2857.75,0.0069
2857.50,0.0071
2857.25,0.0073
2857.00,0.0074
2856.75,0.0074
2856.50,0.0073
2856.25,0.0072
2856.00,0.0071
2855.75,0.0070
2855.50,0.0069
2855.25,0.0068
2855.00,0.0068
2854.75,0.0067
2854.50,0.0068
2854.25,0.0069
2854.00,0.0070
2853.75,0.0071
2853.50,0.0071
2853.25,0.0070
2853.00,0.0070
2852.75,0.0069
2852.50,0.0068
2852.25,0.0066
2852.00,0.0065
2851.75,0.0065
2851.50,0.0065
2851.25,0.0066
2851.00,0.0067
2850.75,0.0067
2850.50,0.0068
2850.25,0.0068
2850.00,0.0068
2849.75,0.0069
2849.50,0.0069
2849.25,0.0069
2849.00,0.0070
2848.75,0.0070
2848.50,0.0069
2848.25,0.0068
2848.00,0.0067
2847.75,0.0067
2847.50,0.0068
2847.25,0.0069
2847.00,0.0070
2846.75,0.0071
2846.50,0.0071
2846.25,0.0071
2846.00,0.0071
2845.75,0.0070
2845.50,0.0069
2845.25,0.0068
2845.00,0.0067
2844.75,0.0066
2844.50,0.0065
2844.25,0.0065
2844.00,0.0065
2843.75,0.0066
2843.50,0.0067
2843.25,0.0068
2843.00,0.0069
2842.75,0.0070
2842.50,0.0070
2842.25,0.0070
2842.00,0.0069
2841.75,0.0067
2841.50,0.0065
2841.25,0.0065
2841.00,0.0065
2840.75,0.0065
2840.50,0.0066
2840.25,0.0068
2840.00,0.0069
2839.75,0.0069
2839.50,0.0070
2839.25,0.0070
2839.00,0.0070
2838.75,0.0070
2838.50,0.0070
2838.25,0.0071
2838.00,0.0073
2837.75,0.0074
2837.50,0.0075
2837.25,0.0075
2837.00,0.0073
2836.75,0.0072
2836.50,0.0070
2836.25,0.0068
2836.00,0.0068
2835.75,0.0068
2835.50,0.0068
2835.25,0.0069
2835.00,0.0069
2834.75,0.0069
2834.50,0.0069
2834.25,0.0069
2834.00,0.0069
2833.75,0.0068
2833.50,0.0068
2833.25,0.0068
2833.00,0.0068
2832.75,0.0068
2832.50,0.0069
2832.25,0.0069
2832.00,0.0070
2831.75,0.0070
2831.50,0.0069
2831.25,0.0069
2831.00,0.0068
2830.75,0.0068
2830.50,0.0069
2830.25,0.0069
2830.00,0.0069
2829.75,0.0069
2829.50,0.0070
2829.25,0.0070
2829.00,0.0071
2828.75,0.0071
2828.50,0.0071
2828.25,0.0070
2828.00,0.0069
2827.75,0.0068
2827.50,0.0068
2827.25,0.0068
2827.00,0.0068
2826.75,0.0068
2826.50,0.0067
2826.25,0.0067
2826.00,0.0067
2825.75,0.0068
2825.50,0.0069
2825.25,0.0070
2825.00,0.0071
2824.75,0.0072
2824.50,0.0072
2824.25,0.0071
2824.00,0.0070
2823.75,0.0069
2823.50,0.0069
2823.25,0.0069
2823.00,0.0069
2822.75,0.0068
2822.50,0.0067
2822.25,0.0066
2822.00,0.0066
2821.75,0.0067
2821.50,0.0068
2821.25,0.0068
2821.00,0.0068
2820.75,0.0067
2820.50,0.0067
2820.25,0.0067
2820.00,0.0067
2819.75,0.0068
2819.50,0.0069
2819.25,0.0069
2819.00,0.0070
2818.75,0.0070
2818.50,0.0069
2818.25,0.0069
2818.00,0.0068
2817.75,0.0068
2817.50,0.0067
2817.25,0.0067
2817.00,0.0067
2816.75,0.0067
2816.50,0.0067
2816.25,0.0067
2816.00,0.0066
2815.75,0.0066
2815.50,0.0067
2815.25,0.0068
2815.00,0.0070
2814.75,0.0070
2814.50,0.0070
2814.25,0.0070
2814.00,0.0071
2813.75,0.0071
2813.50,0.0071
2813.25,0.0071
2813.00,0.0071
2812.75,0.0070
2812.50,0.0070
2812.25,0.0069
2812.00,0.0069
2811.75,0.0069
2811.50,0.0069
2811.25,0.0070
2811.00,0.0070
2810.75,0.0070
2810.50,0.0070
2810.25,0.0069
2810.00,0.0070
2809.75,0.0070
2809.50,0.0071
2809.25,0.0071
2809.00,0.0072
2808.75,0.0072
2808.50,0.0071
2808.25,0.0070
2808.00,0.0070
2807.75,0.0070
2807.50,0.0070
2807.25,0.0070
2807.00,0.0070
2806.75,0.0069
2806.50,0.0068
2806.25,0.0068
2806.00,0.0068
2805.75,0.0069
2805.50,0.0070
2805.25,0.0070
2805.00,0.0070
2804.75,0.0070
2804.50,0.0069
2804.25,0.0069
2804.00,0.0069
2803.75,0.0069
2803.50,0.0069
2803.25,0.0069
2803.00,0.0069
2802.75,0.0069
2802.50,0.0069
2802.25,0.0070
2802.00,0.0071
2801.75,0.0072
2801.50,0.0072
2801.25,0.0071
2801.00,0.0070
2800.75,0.0069
2800.50,0.0069
2800.25,0.0069
2800.00,0.0069
2799.75,0.0069
2799.50,0.0069
2799.25,0.0069
2799.00,0.0069
2798.75,0.0068
2798.50,0.0068
2798.25,0.0068
2798.00,0.0068
2797.75,0.0069
2797.50,0.0070
2797.25,0.0071
2797.00,0.0071
2796.75,0.0071
2796.50,0.0071
2796.25,0.0071
2796.00,0.0070
2795.75,0.0070
2795.50,0.0070
2795.25,0.0069
2795.00,0.0069
2794.75,0.0069
2794.50,0.0070
2794.25,0.0070
2794.00,0.0071
2793.75,0.0071
2793.50,0.0070
2793.25,0.0070
2793.00,0.0071
2792.75,0.0071
2792.50,0.0072
2792.25,0.0072
2792.00,0.0072
2791.75,0.0071
2791.50,0.0071
2791.25,0.0071
2791.00,0.0071
2790.75,0.0071
2790.50,0.0071
2790.25,0.0070
2790.00,0.0069
2789.75,0.0068
2789.50,0.0067
2789.25,0.0067
2789.00,0.0068
2788.75,0.0069
2788.50,0.0069
2788.25,0.0069
2788.00,0.0069
2787.75,0.0068
2787.50,0.0068
2787.25,0.0068
2787.00,0.0067
2786.75,0.0067
2786.50,0.0068
2786.25,0.0068
2786.00,0.0068
2785.75,0.0067
2785.50,0.0066
2785.25,0.0065
2785.00,0.0065
2784.75,0.0066
2784.50,0.0068
2784.25,0.0069
2784.00,0.0069
2783.75,0.0069
2783.50,0.0069
2783.25,0.0069
2783.00,0.0068
2782.75,0.0068
2782.50,0.0068
2782.25,0.0067
2782.00,0.0067
2781.75,0.0066
2781.50,0.0066
2781.25,0.0066
2781.00,0.0067
2780.75,0.0069
2780.50,0.0070
2780.25,0.0071
2780.00,0.0071
2779.75,0.0070
2779.50,0.0067
2779.25,0.0065
2779.00,0.0063
2778.75,0.0063
2778.50,0.0063
2778.25,0.0065
2778.00,0.0066
2777.75,0.0067
2777.50,0.0067
2777.25,0.0067
2777.00,0.0066
2776.75,0.0066
2776.50,0.0066
2776.25,0.0066
2776.00,0.0066
2775.75,0.0066
2775.50,0.0066
2775.25,0.0066
2775.00,0.0067
2774.75,0.0067
2774.50,0.0068
2774.25,0.0067
2774.00,0.0066
2773.75,0.0064
2773.50,0.0063
2773.25,0.0063
2773.00,0.0065
2772.75,0.0066
2772.50,0.0068
2772.25,0.0069
2772.00,0.0069
2771.75,0.0068
2771.50,0.0068
2771.25,0.0067
2771.00,0.0066
2770.75,0.0066
2770.50,0.0065
2770.25,0.0065
2770.00,0.0065
2769.75,0.0064
2769.50,0.0064
2769.25,0.0063
2769.00,0.0063
2768.75,0.0063
2768.50,0.0064
2768.25,0.0064
2768.00,0.0064
2767.75,0.0064
2767.50,0.0064
2767.25,0.0064
2767.00,0.0064
2766.75,0.0064
2766.50,0.0063
2766.25,0.0063
2766.00,0.0064
2765.75,0.0064
2765.50,0.0065
2765.25,0.0066
2765.00,0.0066
2764.75,0.0066
2764.50,0.0065
2764.25,0.0065
2764.00,0.0065
2763.75,0.0066
2763.50,0.0067
2763.25,0.0068
2763.00,0.0069
2762.75,0.0068
2762.50,0.0067
2762.25,0.0065
2762.00,0.0062
2761.75,0.0060
2761.50,0.0060
2761.25,0.0060
2761.00,0.0062
2760.75,0.0064
2760.50,0.0066
2760.25,0.0067
2760.00,0.0067
2759.75,0.0067
2759.50,0.0066
2759.25,0.0065
2759.00,0.0064
2758.75,0.0064
2758.50,0.0064
2758.25,0.0064
2758.00,0.0063
2757.75,0.0063
2757.50,0.0062
2757.25,0.0062
2757.00,0.0062
2756.75,0.0062
2756.50,0.0062
2756.25,0.0063
2756.00,0.0064
2755.75,0.0065
2755.50,0.0065
2755.25,0.0066
2755.00,0.0066
2754.75,0.0065
2754.50,0.0065
2754.25,0.0064
2754.00,0.0064
2753.75,0.0063
2753.50,0.0062
2753.25,0.0061
2753.00,0.0060
2752.75,0.0060
2752.50,0.0060
2752.25,0.0060
2752.00,0.0060
2751.75,0.0061
2751.50,0.0061
2751.25,0.0062
2751.00,0.0063
2750.75,0.0063
2750.50,0.0063
2750.25,0.0062
2750.00,0.0062
2749.75,0.0061
2749.50,0.0060
2749.25,0.0060
2749.00,0.0060
2748.75,0.0061
2748.50,0.0062
2748.25,0.0063
2748.00,0.0064
2747.75,0.0065
2747.50,0.0064
2747.25,0.0064
2747.00,0.0063
2746.75,0.0063
2746.50,0.0063
2746.25,0.0063
2746.00,0.0063
2745.75,0.0063
2745.50,0.0063
2745.25,0.0064
2745.00,0.0063
2744.75,0.0063
2744.50,0.0062
2744.25,0.0062
2744.00,0.0062
2743.75,0.0062
2743.50,0.0062
2743.25,0.0061
2743.00,0.0062
2742.75,0.0063
2742.50,0.0064
2742.25,0.0065
2742.00,0.0066
2741.75,0.0065
2741.50,0.0065
2741.25,0.0064
2741.00,0.0063
2740.75,0.0062
2740.50,0.0062
2740.25,0.0062
2740.00,0.0062
2739.75,0.0062
2739.50,0.0063
2739.25,0.0063
2739.00,0.0063
2738.75,0.0064
2738.50,0.0064
2738.25,0.0063
2738.00,0.0063
2737.75,0.0062
2737.50,0.0062
2737.25,0.0062
2737.00,0.0062
2736.75,0.0063
2736.50,0.0063
2736.25,0.0063
2736.00,0.0063
2735.75,0.0062
2735.50,0.0062
2735.25,0.0061
2735.00,0.0061
2734.75,0.0062
2734.50,0.0063
2734.25,0.0064
2734.00,0.0064
2733.75,0.0065
2733.50,0.0064
2733.25,0.0063
2733.00,0.0062
2732.75,0.0061
2732.50,0.0060
2732.25,0.0060
2732.00,0.0061
2731.75,0.0061
2731.50,0.0061
2731.25,0.0061
2731.00,0.0062
2730.75,0.0062
2730.50,0.0063
2730.25,0.0063
2730.00,0.0063
2729.75,0.0063
2729.50,0.0063
2729.25,0.0063
2729.00,0.0063
2728.75,0.0063
2728.50,0.0063
2728.25,0.0062
2728.00,0.0062
2727.75,0.0061
2727.50,0.0061
2727.25,0.0061
2727.00,0.0062
2726.75,0.0062
2726.50,0.0063
2726.25,0.0063
2726.00,0.0063
2725.75,0.0063
2725.50,0.0064
2725.25,0.0064
2725.00,0.0064
2724.75,0.0064
2724.50,0.0063
2724.25,0.0061
2724.00,0.0060
2723.75,0.0059
2723.50,0.0060
2723.25,0.0061
2723.00,0.0062
2722.75,0.0063
2722.50,0.0063
2722.25,0.0062
2722.00,0.0062
2721.75,0.0062
2721.50,0.0062
2721.25,0.0062
2721.00,0.0063
2720.75,0.0063
2720.50,0.0063
2720.25,0.0062
2720.00,0.0062
2719.75,0.0061
2719.50,0.0061
2719.25,0.0061
2719.00,0.0061
2718.75,0.0061
2718.50,0.0062
2718.25,0.0062
2718.00,0.0063
2717.75,0.0062
2717.50,0.0062
2717.25,0.0060
2717.00,0.0060
2716.75,0.0060
2716.50,0.0062
2716.25,0.0063
2716.00,0.0064
2715.75,0.0064
2715.50,0.0064
2715.25,0.0063
2715.00,0.0062
2714.75,0.0062
2714.50,0.0062
2714.25,0.0063
2714.00,0.0064
2713.75,0.0065
2713.50,0.0065
2713.25,0.0065
2713.00,0.0064
2712.75,0.0064
2712.50,0.0063
2712.25,0.0062
2712.00,0.0062
2711.75,0.0061
2711.50,0.0061
2711.25,0.0062
2711.00,0.0061
2710.75,0.0061
2710.50,0.0061
2710.25,0.0061
2710.00,0.0061
2709.75,0.0061
2709.50,0.0061
2709.25,0.0061
2709.00,0.0062
2708.75,0.0062
2708.50,0.0063
2708.25,0.0063
2708.00,0.0063
2707.75,0.0062
2707.50,0.0062
2707.25,0.0061
2707.00,0.0060
2706.75,0.0061
2706.50,0.0061
2706.25,0.0062
2706.00,0.0063
2705.75,0.0063
2705.50,0.0063
2705.25,0.0062
2705.00,0.0062
2704.75,0.0062
2704.50,0.0062
2704.25,0.0062
2704.00,0.0062
2703.75,0.0062
2703.50,0.0063
2703.25,0.0063
2703.00,0.0064
2702.75,0.0064
2702.50,0.0064
2702.25,0.0063
2702.00,0.0063
2701.75,0.0063
2701.50,0.0064
2701.25,0.0064
2701.00,0.0064
2700.75,0.0063
2700.50,0.0061
2700.25,0.0061
2700.00,0.0061
2699.75,0.0062
2699.50,0.0062
2699.25,0.0062
2699.00,0.0062
2698.75,0.0062
2698.50,0.0063
2698.25,0.0064
2698.00,0.0065
2697.75,0.0065
2697.50,0.0064
2697.25,0.0064
2697.00,0.0064
2696.75,0.0064
2696.50,0.0064
2696.25,0.0063
2696.00,0.0063
2695.75,0.0062
2695.50,0.0062
2695.25,0.0062
2695.00,0.0063
2694.75,0.0064
2694.50,0.0065
2694.25,0.0066
2694.00,0.0066
2693.75,0.0065
2693.50,0.0064
2693.25,0.0063
2693.00,0.0063
2692.75,0.0064
2692.50,0.0064
2692.25,0.0065
2692.00,0.0065
2691.75,0.0065
2691.50,0.0064
2691.25,0.0063
2691.00,0.0063
2690.75,0.0062
2690.50,0.0062
2690.25,0.0062
2690.00,0.0062
2689.75,0.0063
2689.50,0.0064
2689.25,0.0065
2689.00,0.0066
2688.75,0.0066
2688.50,0.0066
2688.25,0.0065
2688.00,0.0064
2687.75,0.0063
2687.50,0.0062
2687.25,0.0061
2687.00,0.0061
2686.75,0.0061
2686.50,0.0062
2686.25,0.0064
2686.00,0.0065
2685.75,0.0065
2685.50,0.0065
2685.25,0.0065
2685.00,0.0064
2684.75,0.0062
2684.50,0.0060
2684.25,0.0059
2684.00,0.0059
2683.75,0.0060
2683.50,0.0061
2683.25,0.0063
2683.00,0.0064
2682.75,0.0064
2682.50,0.0064
2682.25,0.0064
2682.00,0.0064
2681.75,0.0064
2681.50,0.0064
2681.25,0.0064
2681.00,0.0063
2680.75,0.0063
2680.50,0.0062
2680.25,0.0061
2680.00,0.0061
2679.75,0.0061
2679.50,0.0061
2679.25,0.0062
2679.00,0.0062
2678.75,0.0061
2678.50,0.0061
2678.25,0.0060
2678.00,0.0061
2677.75,0.0061
2677.50,0.0062
2677.25,0.0063
2677.00,0.0064
2676.75,0.0065
2676.50,0.0065
2676.25,0.0065
2676.00,0.0065
2675.75,0.0065
2675.50,0.0064
2675.25,0.0064
2675.00,0.0063
2674.75,0.0063
2674.50,0.0063
2674.25,0.0063
2674.00,0.0063
2673.75,0.0063
2673.50,0.0063
2673.25,0.0063
2673.00,0.0064
2672.75,0.0064
2672.50,0.0064
2672.25,0.0064
2672.00,0.0063
2671.75,0.0062
2671.50,0.0062
2671.25,0.0062
2671.00,0.0062
2670.75,0.0062
2670.50,0.0062
2670.25,0.0063
2670.00,0.0063
2669.75,0.0064
2669.50,0.0065
2669.25,0.0065
2669.00,0.0064
2668.75,0.0064
2668.50,0.0063
2668.25,0.0063
2668.00,0.0062
2667.75,0.0061
2667.50,0.0061
2667.25,0.0060
2667.00,0.0060
2666.75,0.0060
2666.50,0.0060
2666.25,0.0061
2666.00,0.0061
2665.75,0.0062
2665.50,0.0062
2665.25,0.0062
2665.00,0.0062
2664.75,0.0062
2664.50,0.0063
2664.25,0.0064
2664.00,0.0065
2663.75,0.0066
2663.50,0.0067
2663.25,0.0067
2663.00,0.0066
2662.75,0.0064
2662.50,0.0063
2662.25,0.0063
2662.00,0.0063
2661.75,0.0063
2661.50,0.0064
2661.25,0.0064
2661.00,0.0063
2660.75,0.0062
2660.50,0.0061
2660.25,0.0060
2660.00,0.0060
2659.75,0.0061
2659.50,0.0061
2659.25,0.0062
2659.00,0.0062
2658.75,0.0063
2658.50,0.0063
2658.25,0.0064
2658.00,0.0064
2657.75,0.0064
2657.50,0.0065
2657.25,0.0066
2657.00,0.0065
2656.75,0.0065
2656.50,0.0064
2656.25,0.0063
2656.00,0.0063
2655.75,0.0064
2655.50,0.0065
2655.25,0.0066
2655.00,0.0065
2654.75,0.0064
2654.50,0.0063
2654.25,0.0063
2654.00,0.0064
2653.75,0.0065
2653.50,0.0066
2653.25,0.0066
2653.00,0.0067
2652.75,0.0067
2652.50,0.0067
2652.25,0.0066
2652.00,0.0064
2651.75,0.0063
2651.50,0.0062
2651.25,0.0061
2651.00,0.0061
2650.75,0.0061
2650.50,0.0061
2650.25,0.0061
2650.00,0.0061
2649.75,0.0061
2649.50,0.0062
2649.25,0.0063
2649.00,0.0064
2648.75,0.0064
2648.50,0.0063
2648.25,0.0062
2648.00,0.0061
2647.75,0.0062
2647.50,0.0063
2647.25,0.0064
2647.00,0.0064
2646.75,0.0064
2646.50,0.0063
2646.25,0.0063
2646.00,0.0063
2645.75,0.0063
2645.50,0.0062
2645.25,0.0062
2645.00,0.0061
2644.75,0.0061
2644.50,0.0061
2644.25,0.0061
2644.00,0.0061
2643.75,0.0061
2643.50,0.0061
2643.25,0.0062
2643.00,0.0063
2642.75,0.0064
2642.50,0.0064
2642.25,0.0064
2642.00,0.0063
2641.75,0.0063
2641.50,0.0063
2641.25,0.0063
2641.00,0.0062
2640.75,0.0061
2640.50,0.0060
2640.25,0.0060
2640.00,0.0060
2639.75,0.0061
2639.50,0.0062
2639.25,0.0063
2639.00,0.0064
2638.75,0.0064
2638.50,0.0064
2638.25,0.0064
2638.00,0.0063
2637.75,0.0061
2637.50,0.0060
2637.25,0.0060
2637.00,0.0060
2636.75,0.0060
2636.50,0.0060
2636.25,0.0060
2636.00,0.0059
2635.75,0.0059
2635.50,0.0059
2635.25,0.0059
2635.00,0.0060
2634.75,0.0061
2634.50,0.0061
2634.25,0.0061
2634.00,0.0061
2633.75,0.0061
2633.50,0.0061
2633.25,0.0061
2633.00,0.0061
2632.75,0.0061
2632.50,0.0061
2632.25,0.0062
2632.00,0.0062
2631.75,0.0063
2631.50,0.0063
2631.25,0.0063
2631.00,0.0062
2630.75,0.0060
2630.50,0.0059
2630.25,0.0057
2630.00,0.0056
2629.75,0.0055
2629.50,0.0056
2629.25,0.0057
2629.00,0.0059
2628.75,0.0061
2628.50,0.0063
2628.25,0.0064
2628.00,0.0064
2627.75,0.0064
2627.50,0.0064
2627.25,0.0064
2627.00,0.0064
2626.75,0.0065
2626.50,0.0065
2626.25,0.0065
2626.00,0.0064
2625.75,0.0063
2625.50,0.0061
2625.25,0.0060
2625.00,0.0060
2624.75,0.0061
2624.50,0.0062
2624.25,0.0062
2624.00,0.0062
2623.75,0.0061
2623.50,0.0060
2623.25,0.0060
2623.00,0.0060
2622.75,0.0060
2622.50,0.0061
2622.25,0.0062
2622.00,0.0062
2621.75,0.0062
2621.50,0.0062
2621.25,0.0062
2621.00,0.0062
2620.75,0.0062
2620.50,0.0063
2620.25,0.0063
2620.00,0.0063
2619.75,0.0063
2619.50,0.0062
2619.25,0.0062
2619.00,0.0061
2618.75,0.0061
2618.50,0.0061
2618.25,0.0061
2618.00,0.0062
2617.75,0.0062
2617.50,0.0063
2617.25,0.0063
2617.00,0.0062
2616.75,0.0061
2616.50,0.0060
2616.25,0.0059
2616.00,0.0058
2615.75,0.0058
2615.50,0.0059
2615.25,0.0060
2615.00,0.0062
2614.75,0.0063
2614.50,0.0063
2614.25,0.0064
2614.00,0.0064
2613.75,0.0064
2613.50,0.0063
2613.25,0.0061
2613.00,0.0058
2612.75,0.0056
2612.50,0.0055
2612.25,0.0055
2612.00,0.0055
2611.75,0.0056
2611.50,0.0057
2611.25,0.0058
2611.00,0.0059
2610.75,0.0061
2610.50,0.0064
2610.25,0.0066
2610.00,0.0067
2609.75,0.0067
2609.50,0.0066
2609.25,0.0064
2609.00,0.0063
2608.75,0.0062
2608.50,0.0061
2608.25,0.0059
2608.00,0.0058
2607.75,0.0058
2607.50,0.0059
2607.25,0.0060
2607.00,0.0062
2606.75,0.0064
2606.50,0.0066
2606.25,0.0066
2606.00,0.0067
2605.75,0.0066
2605.50,0.0066
2605.25,0.0064
2605.00,0.0063
2604.75,0.0061
2604.50,0.0060
2604.25,0.0059
2604.00,0.0058
2603.75,0.0058
2603.50,0.0058
2603.25,0.0059
2603.00,0.0060
2602.75,0.0061
2602.50,0.0062
2602.25,0.0063
2602.00,0.0062
2601.75,0.0061
2601.50,0.0059
2601.25,0.0057
2601.00,0.0055
2600.75,0.0054
2600.50,0.0054
2600.25,0.0056
2600.00,0.0057
2599.75,0.0059
2599.50,0.0060
2599.25,0.0060
2599.00,0.0059
2598.75,0.0057
2598.50,0.0056
2598.25,0.0056
2598.00,0.0057
2597.75,0.0058
2597.50,0.0059
2597.25,0.0059
2597.00,0.0058
2596.75,0.0058
2596.50,0.0059
2596.25,0.0061
2596.00,0.0061
2595.75,0.0060
2595.50,0.0058
2595.25,0.0055
2595.00,0.0053
2594.75,0.0052
2594.50,0.0052
2594.25,0.0054
2594.00,0.0056
2593.75,0.0057
2593.50,0.0058
2593.25,0.0059
2593.00,0.0060
2592.75,0.0062
2592.50,0.0063
2592.25,0.0064
2592.00,0.0063
2591.75,0.0061
2591.50,0.0059
2591.25,0.0057
2591.00,0.0056
2590.75,0.0055
2590.50,0.0056
2590.25,0.0058
2590.00,0.0059
2589.75,0.0061
2589.50,0.0063
2589.25,0.0064
2589.00,0.0065
2588.75,0.0065
2588.50,0.0064
2588.25,0.0062
2588.00,0.0061
2587.75,0.0060
2587.50,0.0060
2587.25,0.0059
2587.00,0.0058
2586.75,0.0057
2586.50,0.0057
2586.25,0.0056
2586.00,0.0056
2585.75,0.0057
2585.50,0.0057
2585.25,0.0058
2585.00,0.0059
2584.75,0.0059
2584.50,0.0061
2584.25,0.0062
2584.00,0.0062
2583.75,0.0062
2583.50,0.0062
2583.25,0.0062
2583.00,0.0062
2582.75,0.0062
2582.50,0.0063
2582.25,0.0062
2582.00,0.0060
2581.75,0.0057
2581.50,0.0055
2581.25,0.0054
2581.00,0.0055
2580.75,0.0056
2580.50,0.0057
2580.25,0.0058
2580.00,0.0059
2579.75,0.0060
2579.50,0.0061
2579.25,0.0061
2579.00,0.0061
2578.75,0.0061
2578.50,0.0061
2578.25,0.0061
2578.00,0.0061
2577.75,0.0061
2577.50,0.0060
2577.25,0.0059
2577.00,0.0058
2576.75,0.0059
2576.50,0.0059
2576.25,0.0060
2576.00,0.0060
2575.75,0.0059
2575.50,0.0059
2575.25,0.0058
2575.00,0.0058
2574.75,0.0058
2574.50,0.0058
2574.25,0.0058
2574.00,0.0058
2573.75,0.0059
2573.50,0.0060
2573.25,0.0061
2573.00,0.0061
2572.75,0.0060
2572.50,0.0059
2572.25,0.0059
2572.00,0.0060
2571.75,0.0061
2571.50,0.0061
2571.25,0.0061
2571.00,0.0059
2570.75,0.0058
2570.50,0.0056
2570.25,0.0056
2570.00,0.0056
2569.75,0.0056
2569.50,0.0056
2569.25,0.0057
2569.00,0.0058
2568.75,0.0059
2568.50,0.0060
2568.25,0.0059
2568.00,0.0057
2567.75,0.0056
2567.50,0.0055
2567.25,0.0056
2567.00,0.0058
2566.75,0.0059
2566.50,0.0060
2566.25,0.0060
2566.00,0.0059
2565.75,0.0059
2565.50,0.0058
2565.25,0.0056
2565.00,0.0055
2564.75,0.0055
2564.50,0.0056
2564.25,0.0058
2564.00,0.0060
2563.75,0.0062
2563.50,0.0064
2563.25,0.0064
2563.00,0.0063
2562.75,0.0060
2562.50,0.0057
2562.25,0.0055
2562.00,0.0055
2561.75,0.0055
2561.50,0.0055
2561.25,0.0056
2561.00,0.0056
2560.75,0.0056
2560.50,0.0056
2560.25,0.0056
2560.00,0.0057
2559.75,0.0058
2559.50,0.0058
2559.25,0.0058
2559.00,0.0058
2558.75,0.0057
2558.50,0.0056
2558.25,0.0056
2558.00,0.0057
2557.75,0.0059
2557.50,0.0060
2557.25,0.0062
2557.00,0.0063
2556.75,0.0064
2556.50,0.0065
2556.25,0.0064
2556.00,0.0062
2555.75,0.0060
2555.50,0.0058
2555.25,0.0058
2555.00,0.0057
2554.75,0.0056
2554.50,0.0056
2554.25,0.0055
2554.00,0.0055
2553.75,0.0056
2553.50,0.0056
2553.25,0.0056
2553.00,0.0056
2552.75,0.0054
2552.50,0.0053
2552.25,0.0052
2552.00,0.0051
2551.75,0.0052
2551.50,0.0054
2551.25,0.0056
2551.00,0.0059
2550.75,0.0060
2550.50,0.0061
2550.25,0.0061
2550.00,0.0060
2549.75,0.0060
2549.50,0.0059
2549.25,0.0057
2549.00,0.0055
2548.75,0.0053
2548.50,0.0053
2548.25,0.0054
2548.00,0.0055
2547.75,0.0057
2547.50,0.0058
2547.25,0.0058
2547.00,0.0057
2546.75,0.0056
2546.50,0.0056
2546.25,0.0057
2546.00,0.0059
2545.75,0.0060
2545.50,0.0060
2545.25,0.0058
2545.00,0.0056
2544.75,0.0053
2544.50,0.0052
2544.25,0.0052
2544.00,0.0052
2543.75,0.0052
2543.50,0.0052
2543.25,0.0052
2543.00,0.0052
2542.75,0.0052
2542.50,0.0053
2542.25,0.0053
2542.00,0.0055
2541.75,0.0057
2541.50,0.0058
2541.25,0.0059
2541.00,0.0058
2540.75,0.0057
2540.50,0.0056
2540.25,0.0057
2540.00,0.0058
2539.75,0.0059
2539.50,0.0060
2539.25,0.0060
2539.00,0.0059
2538.75,0.0057
2538.50,0.0054
2538.25,0.0050
2538.00,0.0048
2537.75,0.0047
2537.50,0.0048
2537.25,0.0050
2537.00,0.0054
2536.75,0.0058
2536.50,0.0061
2536.25,0.0063
2536.00,0.0062
2535.75,0.0061
2535.50,0.0059
2535.25,0.0057
2535.00,0.0057
2534.75,0.0057
2534.50,0.0058
2534.25,0.0059
2534.00,0.0059
2533.75,0.0059
2533.50,0.0058
2533.25,0.0057
2533.00,0.0056
2532.75,0.0054
2532.50,0.0052
2532.25,0.0050
2532.00,0.0048
2531.75,0.0048
2531.50,0.0048
2531.25,0.0050
2531.00,0.0052
2530.75,0.0054
2530.50,0.0054
2530.25,0.0054
2530.00,0.0054
2529.75,0.0054
2529.50,0.0054
2529.25,0.0054
2529.00,0.0053
2528.75,0.0052
2528.50,0.0050
2528.25,0.0049
2528.00,0.0048
2527.75,0.0047
2527.50,0.0046
2527.25,0.0044
2527.00,0.0044
2526.75,0.0045
2526.50,0.0047
2526.25,0.0049
2526.00,0.0050
2525.75,0.0049
2525.50,0.0046
2525.25,0.0044
2525.00,0.0042
2524.75,0.0043
2524.50,0.0046
2524.25,0.0048
2524.00,0.0049
2523.75,0.0048
2523.50,0.0046
2523.25,0.0043
2523.00,0.0042
2522.75,0.0042
2522.50,0.0043
2522.25,0.0044
2522.00,0.0045
2521.75,0.0046
2521.50,0.0047
2521.25,0.0047
2521.00,0.0047
2520.75,0.0046
2520.50,0.0045
2520.25,0.0044
2520.00,0.0046
2519.75,0.0048
2519.50,0.0050
2519.25,0.0050
2519.00,0.0050
2518.75,0.0049
2518.50,0.0048
2518.25,0.0048
2518.00,0.0048
2517.75,0.0049
2517.50,0.0049
2517.25,0.0050
2517.00,0.0050
2516.75,0.0050
2516.50,0.0049
2516.25,0.0046
2516.00,0.0044
2515.75,0.0043
2515.50,0.0042
2515.25,0.0042
2515.00,0.0043
2514.75,0.0044
2514.50,0.0045
2514.25,0.0047
2514.00,0.0049
2513.75,0.0050
2513.50,0.0050
2513.25,0.0049
2513.00,0.0048
2512.75,0.0046
2512.50,0.0045
2512.25,0.0044
2512.00,0.0044
2511.75,0.0044
2511.50,0.0045
2511.25,0.0045
2511.00,0.0045
2510.75,0.0044
2510.50,0.0044
2510.25,0.0045
2510.00,0.0046
2509.75,0.0047
2509.50,0.0048
2509.25,0.0048
2509.00,0.0048
2508.75,0.0050
2508.50,0.0051
2508.25,0.0051
2508.00,0.0050
2507.75,0.0048
2507.50,0.0046
2507.25,0.0046
2507.00,0.0047
2506.75,0.0047
2506.50,0.0048
2506.25,0.0049
2506.00,0.0049
2505.75,0.0050
2505.50,0.0049
2505.25,0.0048
2505.00,0.0047
2504.75,0.0046
2504.50,0.0045
2504.25,0.0044
2504.00,0.0043
2503.75,0.0043
2503.50,0.0044
2503.25,0.0047
2503.00,0.0050
2502.75,0.0052
2502.50,0.0053
2502.25,0.0053
2502.00,0.0051
2501.75,0.0049
2501.50,0.0047
2501.25,0.0046
2501.00,0.0047
2500.75,0.0049
2500.50,0.0052
2500.25,0.0054
2500.00,0.0054
2499.75,0.0053
2499.50,0.0052
2499.25,0.0051
2499.00,0.0051
2498.75,0.0050
2498.50,0.0050
2498.25,0.0050
2498.00,0.0051
2497.75,0.0052
2497.50,0.0054
2497.25,0.0056
2497.00,0.0057
2496.75,0.0058
2496.50,0.0058
2496.25,0.0059
2496.00,0.0060
2495.75,0.0062
2495.50,0.0063
2495.25,0.0061
2495.00,0.0059
2494.75,0.0056
2494.50,0.0054
2494.25,0.0053
2494.00,0.0053
2493.75,0.0054
2493.50,0.0054
2493.25,0.0053
2493.00,0.0053
2492.75,0.0053
2492.50,0.0053
2492.25,0.0054
2492.00,0.0054
2491.75,0.0055
2491.50,0.0057
2491.25,0.0058
2491.00,0.0058
2490.75,0.0058
2490.50,0.0058
2490.25,0.0058
2490.00,0.0057
2489.75,0.0057
2489.50,0.0056
2489.25,0.0056
2489.00,0.0056
2488.75,0.0056
2488.50,0.0056
2488.25,0.0057
2488.00,0.0057
2487.75,0.0057
2487.50,0.0056
2487.25,0.0056
2487.00,0.0055
2486.75,0.0054
2486.50,0.0052
2486.25,0.0050
2486.00,0.0049
2485.75,0.0049
2485.50,0.0051
2485.25,0.0053
2485.00,0.0055
2484.75,0.0057
2484.50,0.0059
2484.25,0.0061
2484.00,0.0061
2483.75,0.0061
2483.50,0.0060
2483.25,0.0059
2483.00,0.0060
2482.75,0.0060
2482.50,0.0061
2482.25,0.0060
2482.00,0.0060
2481.75,0.0059
2481.50,0.0058
2481.25,0.0057
2481.00,0.0057
2480.75,0.0056
2480.50,0.0056
2480.25,0.0056
2480.00,0.0057
2479.75,0.0058
2479.50,0.0058
2479.25,0.0058
2479.00,0.0056
2478.75,0.0053
2478.50,0.0052
2478.25,0.0052
2478.00,0.0053
2477.75,0.0054
2477.50,0.0056
2477.25,0.0057
2477.00,0.0057
2476.75,0.0056
2476.50,0.0055
2476.25,0.0055
2476.00,0.0055
2475.75,0.0057
2475.50,0.0058
2475.25,0.0058
2475.00,0.0058
2474.75,0.0056
2474.50,0.0054
2474.25,0.0052
2474.00,0.0051
2473.75,0.0053
2473.50,0.0055
2473.25,0.0057
2473.00,0.0059
2472.75,0.0059
2472.50,0.0059
2472.25,0.0057
2472.00,0.0055
2471.75,0.0053
2471.50,0.0052
2471.25,0.0053
2471.00,0.0054
2470.75,0.0056
2470.50,0.0057
2470.25,0.0058
2470.00,0.0058
2469.75,0.0057
2469.50,0.0056
2469.25,0.0056
2469.00,0.0056
2468.75,0.0056
2468.50,0.0057
2468.25,0.0059
2468.00,0.0060
2467.75,0.0060
2467.50,0.0060
2467.25,0.0058
2467.00,0.0057
2466.75,0.0055
2466.50,0.0055
2466.25,0.0056
2466.00,0.0057
2465.75,0.0058
2465.50,0.0059
2465.25,0.0060
2465.00,0.0059
2464.75,0.0059
2464.50,0.0058
2464.25,0.0057
2464.00,0.0056
2463.75,0.0054
2463.50,0.0052
2463.25,0.0050
2463.00,0.0050
2462.75,0.0051
2462.50,0.0054
2462.25,0.0057
2462.00,0.0060
2461.75,0.0062
2461.50,0.0062
2461.25,0.0061
2461.00,0.0059
2460.75,0.0058
2460.50,0.0058
2460.25,0.0058
2460.00,0.0059
2459.75,0.0059
2459.50,0.0059
2459.25,0.0058
2459.00,0.0058
2458.75,0.0057
2458.50,0.0056
2458.25,0.0055
2458.00,0.0054
2457.75,0.0054
2457.50,0.0055
2457.25,0.0056
2457.00,0.0056
2456.75,0.0055
2456.50,0.0054
2456.25,0.0054
2456.00,0.0055
2455.75,0.0057
2455.50,0.0058
2455.25,0.0058
2455.00,0.0058
2454.75,0.0057
2454.50,0.0057
2454.25,0.0057
2454.00,0.0058
2453.75,0.0057
2453.50,0.0057
2453.25,0.0056
2453.00,0.0056
2452.75,0.0055
2452.50,0.0056
2452.25,0.0056
2452.00,0.0058
2451.75,0.0060
2451.50,0.0062
2451.25,0.0063
2451.00,0.0063
2450.75,0.0064
2450.50,0.0064
2450.25,0.0065
2450.00,0.0065
2449.75,0.0064
2449.50,0.0062
2449.25,0.0059
2449.00,0.0056
2448.75,0.0054
2448.50,0.0054
2448.25,0.0054
2448.00,0.0055
2447.75,0.0055
2447.50,0.0053
2447.25,0.0053
2447.00,0.0054
2446.75,0.0056
2446.50,0.0059
2446.25,0.0061
2446.00,0.0062
2445.75,0.0061
2445.50,0.0060
2445.25,0.0058
2445.00,0.0056
2444.75,0.0055
2444.50,0.0055
2444.25,0.0055
2444.00,0.0055
2443.75,0.0055
2443.50,0.0055
2443.25,0.0057
2443.00,0.0058
2442.75,0.0060
2442.50,0.0062
2442.25,0.0063
2442.00,0.0064
2441.75,0.0065
2441.50,0.0067
2441.25,0.0069
2441.00,0.0069
2440.75,0.0069
2440.50,0.0067
2440.25,0.0064
2440.00,0.0062
2439.75,0.0060
2439.50,0.0060
2439.25,0.0059
2439.00,0.0057
2438.75,0.0054
2438.50,0.0052
2438.25,0.0051
2438.00,0.0052
2437.75,0.0055
2437.50,0.0058
2437.25,0.0060
2437.00,0.0060
2436.75,0.0059
2436.50,0.0056
2436.25,0.0053
2436.00,0.0052
2435.75,0.0052
2435.50,0.0052
2435.25,0.0052
2435.00,0.0051
2434.75,0.0050
2434.50,0.0050
2434.25,0.0050
2434.00,0.0052
2433.75,0.0053
2433.50,0.0054
2433.25,0.0055
2433.00,0.0055
2432.75,0.0055
2432.50,0.0055
2432.25,0.0055
2432.00,0.0056
2431.75,0.0056
2431.50,0.0055
2431.25,0.0053
2431.00,0.0051
2430.75,0.0051
2430.50,0.0052
2430.25,0.0054
2430.00,0.0057
2429.75,0.0059
2429.50,0.0060
2429.25,0.0062
2429.00,0.0064
2428.75,0.0066
2428.50,0.0066
2428.25,0.0065
2428.00,0.0061
2427.75,0.0057
2427.50,0.0055
2427.25,0.0055
2427.00,0.0056
2426.75,0.0057
2426.50,0.0056
2426.25,0.0055
2426.00,0.0054
2425.75,0.0054
2425.50,0.0056
2425.25,0.0059
2425.00,0.0061
2424.75,0.0062
2424.50,0.0062
2424.25,0.0060
2424.00,0.0057
2423.75,0.0054
2423.50,0.0052
2423.25,0.0050
2423.00,0.0049
2422.75,0.0049
2422.50,0.0050
2422.25,0.0052
2422.00,0.0053
2421.75,0.0054
2421.50,0.0055
2421.25,0.0055
2421.00,0.0056
2420.75,0.0056
2420.50,0.0055
2420.25,0.0055
2420.00,0.0055
2419.75,0.0055
2419.50,0.0055
2419.25,0.0054
2419.00,0.0052
2418.75,0.0051
2418.50,0.0051
2418.25,0.0052
2418.00,0.0054
2417.75,0.0057
2417.50,0.0060
2417.25,0.0062
2417.00,0.0063
2416.75,0.0063
2416.50,0.0062
2416.25,0.0060
2416.00,0.0059
2415.75,0.0057
2415.50,0.0056
2415.25,0.0056
2415.00,0.0055
2414.75,0.0056
2414.50,0.0056
2414.25,0.0058
2414.00,0.0059
2413.75,0.0061
2413.50,0.0062
2413.25,0.0061
2413.00,0.0060
2412.75,0.0059
2412.50,0.0059
2412.25,0.0059
2412.00,0.0060
2411.75,0.0061
2411.50,0.0061
2411.25,0.0061
2411.00,0.0060
2410.75,0.0059
2410.50,0.0057
2410.25,0.0056
2410.00,0.0055
2409.75,0.0054
2409.50,0.0054
2409.25,0.0052
2409.00,0.0051
2408.75,0.0051
2408.50,0.0051
2408.25,0.0052
2408.00,0.0053
2407.75,0.0054
2407.50,0.0055
2407.25,0.0054
2407.00,0.0054
2406.75,0.0054
2406.50,0.0055
2406.25,0.0057
2406.00,0.0057
2405.75,0.0056
2405.50,0.0055
2405.25,0.0053
2405.00,0.0052
2404.75,0.0052
2404.50,0.0053
2404.25,0.0054
2404.00,0.0054
2403.75,0.0054
2403.50,0.0054
2403.25,0.0055
2403.00,0.0056
2402.75,0.0058
2402.50,0.0059
2402.25,0.0059
2402.00,0.0059
2401.75,0.0058
2401.50,0.0058
2401.25,0.0058
2401.00,0.0058
2400.75,0.0058
2400.50,0.0057
2400.25,0.0056
2400.00,0.0054
2399.75,0.0053
2399.50,0.0054
2399.25,0.0056
2399.00,0.0057
2398.75,0.0058
2398.50,0.0058
2398.25,0.0058
2398.00,0.0057
2397.75,0.0056
2397.50,0.0055
2397.25,0.0054
2397.00,0.0054
2396.75,0.0054
2396.50,0.0056
2396.25,0.0057
2396.00,0.0058
2395.75,0.0056
2395.50,0.0054
2395.25,0.0052
2395.00,0.0051
2394.75,0.0051
2394.50,0.0052
2394.25,0.0054
2394.00,0.0055
2393.75,0.0056
2393.50,0.0058
2393.25,0.0059
2393.00,0.0059
2392.75,0.0058
2392.50,0.0056
2392.25,0.0054
2392.00,0.0053
2391.75,0.0052
2391.50,0.0053
2391.25,0.0053
2391.00,0.0054
2390.75,0.0056
2390.50,0.0058
2390.25,0.0060
2390.00,0.0062
2389.75,0.0063
2389.50,0.0063
2389.25,0.0061
2389.00,0.0059
2388.75,0.0057
2388.50,0.0056
2388.25,0.0056
2388.00,0.0055
2387.75,0.0055
2387.50,0.0056
2387.25,0.0058
2387.00,0.0059
2386.75,0.0059
2386.50,0.0058
2386.25,0.0057
2386.00,0.0057
2385.75,0.0058
2385.50,0.0058
2385.25,0.0058
2385.00,0.0058
2384.75,0.0057
2384.50,0.0057
2384.25,0.0057
2384.00,0.0057
2383.75,0.0057
2383.50,0.0058
2383.25,0.0059
2383.00,0.0059
2382.75,0.0059
2382.50,0.0058
2382.25,0.0057
2382.00,0.0056
2381.75,0.0056
2381.50,0.0056
2381.25,0.0055
2381.00,0.0055
2380.75,0.0055
2380.50,0.0055
2380.25,0.0055
2380.00,0.0054
2379.75,0.0053
2379.50,0.0053
2379.25,0.0054
2379.00,0.0055
2378.75,0.0055
2378.50,0.0054
2378.25,0.0054
2378.00,0.0054
2377.75,0.0056
2377.50,0.0057
2377.25,0.0059
2377.00,0.0060
2376.75,0.0062
2376.50,0.0064
2376.25,0.0065
2376.00,0.0066
2375.75,0.0067
2375.50,0.0067
2375.25,0.0066
2375.00,0.0063
2374.75,0.0058
2374.50,0.0054
2374.25,0.0052
2374.00,0.0051
2373.75,0.0052
2373.50,0.0052
2373.25,0.0052
2373.00,0.0052
2372.75,0.0052
2372.50,0.0052
2372.25,0.0053
2372.00,0.0053
2371.75,0.0054
2371.50,0.0054
2371.25,0.0053
2371.00,0.0053
2370.75,0.0051
2370.50,0.0049
2370.25,0.0048
2370.00,0.0049
2369.75,0.0052
2369.50,0.0055
2369.25,0.0056
2369.00,0.0055
2368.75,0.0053
2368.50,0.0053
2368.25,0.0055
2368.00,0.0056
2367.75,0.0055
2367.50,0.0052
2367.25,0.0048
2367.00,0.0043
2366.75,0.0039
2366.50,0.0037
2366.25,0.0039
2366.00,0.0044
2365.75,0.0049
2365.50,0.0052
2365.25,0.0053
2365.00,0.0054
2364.75,0.0055
2364.50,0.0056
2364.25,0.0056
2364.00,0.0055
2363.75,0.0055
2363.50,0.0056
2363.25,0.0057
2363.00,0.0059
2362.75,0.0063
2362.50,0.0067
2362.25,0.0072
2362.00,0.0074
2361.75,0.0072
2361.50,0.0067
2361.25,0.0061
2361.00,0.0057
2360.75,0.0057
2360.50,0.0055
2360.25,0.0052
2360.00,0.0045
2359.75,0.0038
2359.50,0.0036
2359.25,0.0038
2359.00,0.0044
2358.75,0.0054
2358.50,0.0066
2358.25,0.0072
2358.00,0.0073
2357.75,0.0069
2357.50,0.0065
2357.25,0.0064
2357.00,0.0065
2356.75,0.0065
2356.50,0.0061
2356.25,0.0056
2356.00,0.0051
2355.75,0.0051
2355.50,0.0057
2355.25,0.0064
2355.00,0.0067
2354.75,0.0067
2354.50,0.0066
2354.25,0.0064
2354.00,0.0064
2353.75,0.0065
2353.50,0.0064
2353.25,0.0062
2353.00,0.0062
2352.75,0.0063
2352.50,0.0064
2352.25,0.0064
2352.00,0.0062
2351.75,0.0059
2351.50,0.0056
2351.25,0.0056
2351.00,0.0060
2350.75,0.0063
2350.50,0.0065
2350.25,0.0065
2350.00,0.0066
2349.75,0.0066
2349.50,0.0066
2349.25,0.0067
2349.00,0.0066
2348.75,0.0064
2348.50,0.0062
2348.25,0.0061
2348.00,0.0060
2347.75,0.0060
2347.50,0.0058
2347.25,0.0056
2347.00,0.0054
2346.75,0.0053
2346.50,0.0051
2346.25,0.0052
2346.00,0.0056
2345.75,0.0061
2345.50,0.0066
2345.25,0.0069
2345.00,0.0066
2344.75,0.0062
2344.50,0.0056
2344.25,0.0049
2344.00,0.0046
2343.75,0.0047
2343.50,0.0049
2343.25,0.0052
2343.00,0.0057
2342.75,0.0063
2342.50,0.0067
2342.25,0.0068
2342.00,0.0067
2341.75,0.0064
2341.50,0.0062
2341.25,0.0061
2341.00,0.0061
2340.75,0.0064
2340.50,0.0068
2340.25,0.0070
2340.00,0.0070
2339.75,0.0070
2339.50,0.0068
2339.25,0.0062
2339.00,0.0057
2338.75,0.0057
2338.50,0.0056
2338.25,0.0055
2338.00,0.0055
2337.75,0.0055
2337.50,0.0056
2337.25,0.0060
2337.00,0.0063
2336.75,0.0061
2336.50,0.0058
2336.25,0.0055
2336.00,0.0051
2335.75,0.0050
2335.50,0.0054
2335.25,0.0058
2335.00,0.0058
2334.75,0.0057
2334.50,0.0056
2334.25,0.0052
2334.00,0.0045
2333.75,0.0043
2333.50,0.0045
2333.25,0.0048
2333.00,0.0052
2332.75,0.0057
2332.50,0.0063
2332.25,0.0067
2332.00,0.0069
2331.75,0.0068
2331.50,0.0064
2331.25,0.0059
2331.00,0.0055
2330.75,0.0052
2330.50,0.0050
2330.25,0.0051
2330.00,0.0054
2329.75,0.0054
2329.50,0.0052
2329.25,0.0052
2329.00,0.0054
2328.75,0.0060
2328.50,0.0065
2328.25,0.0068
2328.00,0.0068
2327.75,0.0064
2327.50,0.0061
2327.25,0.0059
2327.00,0.0055
2326.75,0.0051
2326.50,0.0050
2326.25,0.0051
2326.00,0.0053
2325.75,0.0054
2325.50,0.0058
2325.25,0.0063
2325.00,0.0067
2324.75,0.0066
2324.50,0.0063
2324.25,0.0059
2324.00,0.0055
2323.75,0.0053
2323.50,0.0053
2323.25,0.0054
2323.00,0.0054
2322.75,0.0056
2322.50,0.0060
2322.25,0.0062
2322.00,0.0062
2321.75,0.0063
2321.50,0.0064
2321.25,0.0063
2321.00,0.0061
2320.75,0.0060
2320.50,0.0062
2320.25,0.0062
2320.00,0.0060
2319.75,0.0059
2319.50,0.0059
2319.25,0.0058
2319.00,0.0058
2318.75,0.0058
2318.50,0.0057
2318.25,0.0054
2318.00,0.0050
2317.75,0.0049
2317.50,0.0051
2317.25,0.0055
2317.00,0.0059
2316.75,0.0063
2316.50,0.0063
2316.25,0.0061
2316.00,0.0059
2315.75,0.0059
2315.50,0.0062
2315.25,0.0065
2315.00,0.0066
2314.75,0.0064
2314.50,0.0061
2314.25,0.0057
2314.00,0.0054
2313.75,0.0051
2313.50,0.0050
2313.25,0.0049
2313.00,0.0049
2312.75,0.0051
2312.50,0.0053
2312.25,0.0054
2312.00,0.0053
2311.75,0.0052
2311.50,0.0052
2311.25,0.0052
2311.00,0.0053
2310.75,0.0054
2310.50,0.0055
2310.25,0.0054
2310.00,0.0052
2309.75,0.0051
2309.50,0.0052
2309.25,0.0054
2309.00,0.0055
2308.75,0.0055
2308.50,0.0054
2308.25,0.0055
2308.00,0.0055
2307.75,0.0055
2307.50,0.0056
2307.25,0.0056
2307.00,0.0055
2306.75,0.0054
2306.50,0.0053
2306.25,0.0054
2306.00,0.0054
2305.75,0.0054
2305.50,0.0053
2305.25,0.0052
2305.00,0.0051
2304.75,0.0050
2304.50,0.0051
2304.25,0.0053
2304.00,0.0055
2303.75,0.0056
2303.50,0.0056
2303.25,0.0055
2303.00,0.0054
2302.75,0.0054
2302.50,0.0054
2302.25,0.0055
2302.00,0.0056
2301.75,0.0056
2301.50,0.0056
2301.25,0.0055
2301.00,0.0054
2300.75,0.0053
2300.50,0.0052
2300.25,0.0051
2300.00,0.0052
2299.75,0.0053
2299.50,0.0054
2299.25,0.0055
2299.00,0.0055
2298.75,0.0054
2298.50,0.0053
2298.25,0.0053
2298.00,0.0053
2297.75,0.0052
2297.50,0.0051
2297.25,0.0050
2297.00,0.0048
2296.75,0.0047
2296.50,0.0046
2296.25,0.0045
2296.00,0.0045
2295.75,0.0046
2295.50,0.0048
2295.25,0.0049
2295.00,0.0051
2294.75,0.0052
2294.50,0.0054
2294.25,0.0056
2294.00,0.0057
2293.75,0.0056
2293.50,0.0054
2293.25,0.0053
2293.00,0.0052
2292.75,0.0052
2292.50,0.0051
2292.25,0.0052
2292.00,0.0054
2291.75,0.0057
2291.50,0.0060
2291.25,0.0061
2291.00,0.0061
2290.75,0.0059
2290.50,0.0057
2290.25,0.0057
2290.00,0.0059
2289.75,0.0062
2289.50,0.0064
2289.25,0.0063
2289.00,0.0061
2288.75,0.0057
2288.50,0.0053
2288.25,0.0049
2288.00,0.0046
2287.75,0.0045
2287.50,0.0045
2287.25,0.0046
2287.00,0.0047
2286.75,0.0049
2286.50,0.0050
2286.25,0.0049
2286.00,0.0048
2285.75,0.0048
2285.50,0.0050
2285.25,0.0052
2285.00,0.0053
2284.75,0.0054
2284.50,0.0052
2284.25,0.0051
2284.00,0.0050
2283.75,0.0051
2283.50,0.0051
2283.25,0.0052
2283.00,0.0052
2282.75,0.0051
2282.50,0.0052
2282.25,0.0054
2282.00,0.0055
2281.75,0.0055
2281.50,0.0054
2281.25,0.0052
2281.00,0.0051
2280.75,0.0051
2280.50,0.0051
2280.25,0.0050
2280.00,0.0049
2279.75,0.0049
2279.50,0.0049
2279.25,0.0049
2279.00,0.0049
2278.75,0.0049
2278.50,0.0048
2278.25,0.0047
2278.00,0.0046
2277.75,0.0045
2277.50,0.0045
2277.25,0.0044
2277.00,0.0045
2276.75,0.0045
2276.50,0.0045
2276.25,0.0044
2276.00,0.0042
2275.75,0.0042
2275.50,0.0044
2275.25,0.0047
2275.00,0.0052
2274.75,0.0057
2274.50,0.0060
2274.25,0.0062
2274.00,0.0062
2273.75,0.0062
2273.50,0.0061
2273.25,0.0058
2273.00,0.0055
2272.75,0.0051
2272.50,0.0048
2272.25,0.0047
2272.00,0.0049
2271.75,0.0053
2271.50,0.0055
2271.25,0.0057
2271.00,0.0056
2270.75,0.0055
2270.50,0.0052
2270.25,0.0049
2270.00,0.0045
2269.75,0.0042
2269.50,0.0040
2269.25,0.0039
2269.00,0.0041
2268.75,0.0045
2268.50,0.0050
2268.25,0.0053
2268.00,0.0053
2267.75,0.0050
2267.50,0.0047
2267.25,0.0044
2267.00,0.0043
2266.75,0.0044
2266.50,0.0046
2266.25,0.0047
2266.00,0.0048
2265.75,0.0048
2265.50,0.0047
2265.25,0.0048
2265.00,0.0049
2264.75,0.0050
2264.50,0.0051
2264.25,0.0049
2264.00,0.0046
2263.75,0.0041
2263.50,0.0037
2263.25,0.0034
2263.00,0.0034
2262.75,0.0036
2262.50,0.0039
2262.25,0.0043
2262.00,0.0047
2261.75,0.0050
2261.50,0.0054
2261.25,0.0056
2261.00,0.0056
2260.75,0.0056
2260.50,0.0054
2260.25,0.0051
2260.00,0.0048
2259.75,0.0045
2259.50,0.0044
2259.25,0.0044
2259.00,0.0045
2258.75,0.0046
2258.50,0.0046
2258.25,0.0046
2258.00,0.0047
2257.75,0.0047
2257.50,0.0049
2257.25,0.0049
2257.00,0.0049
2256.75,0.0048
2256.50,0.0048
2256.25,0.0049
2256.00,0.0048
2255.75,0.0046
2255.50,0.0044
2255.25,0.0042
2255.00,0.0042
2254.75,0.0045
2254.50,0.0048
2254.25,0.0051
2254.00,0.0052
2253.75,0.0052
2253.50,0.0050
2253.25,0.0049
2253.00,0.0048
2252.75,0.0047
2252.50,0.0046
2252.25,0.0045
2252.00,0.0044
2251.75,0.0043
2251.50,0.0042
2251.25,0.0041
2251.00,0.0040
2250.75,0.0041
2250.50,0.0042
2250.25,0.0045
2250.00,0.0048
2249.75,0.0049
2249.50,0.0048
2249.25,0.0046
2249.00,0.0043
2248.75,0.0041
2248.50,0.0039
2248.25,0.0038
2248.00,0.0039
2247.75,0.0040
2247.50,0.0043
2247.25,0.0046
2247.00,0.0048
2246.75,0.0049
2246.50,0.0048
2246.25,0.0044
2246.00,0.0040
2245.75,0.0037
2245.50,0.0038
2245.25,0.0042
2245.00,0.0046
2244.75,0.0048
2244.50,0.0049
2244.25,0.0048
2244.00,0.0046
2243.75,0.0045
2243.50,0.0043
2243.25,0.0041
2243.00,0.0041
2242.75,0.0041
2242.50,0.0039
2242.25,0.0038
2242.00,0.0037
2241.75,0.0038
2241.50,0.0040
2241.25,0.0040
2241.00,0.0040
2240.75,0.0038
2240.50,0.0036
2240.25,0.0034
2240.00,0.0033
2239.75,0.0033
2239.50,0.0036
2239.25,0.0039
2239.00,0.0041
2238.75,0.0042
2238.50,0.0043
2238.25,0.0044
2238.00,0.0046
2237.75,0.0048
2237.50,0.0050
2237.25,0.0051
2237.00,0.0052
2236.75,0.0051
2236.50,0.0049
2236.25,0.0046
2236.00,0.0041
2235.75,0.0036
2235.50,0.0032
2235.25,0.0029
2235.00,0.0027
2234.75,0.0026
2234.50,0.0026
2234.25,0.0027
2234.00,0.0031
2233.75,0.0036
2233.50,0.0041
2233.25,0.0045
2233.00,0.0047
2232.75,0.0048
2232.50,0.0048
2232.25,0.0046
2232.00,0.0044
2231.75,0.0042
2231.50,0.0041
2231.25,0.0043
2231.00,0.0045
2230.75,0.0048
2230.50,0.0049
2230.25,0.0049
2230.00,0.0049
2229.75,0.0049
2229.50,0.0048
2229.25,0.0046
2229.00,0.0043
2228.75,0.0040
2228.50,0.0038
2228.25,0.0037
2228.00,0.0037
2227.75,0.0039
2227.50,0.0042
2227.25,0.0045
2227.00,0.0048
2226.75,0.0050
2226.50,0.0049
2226.25,0.0045
2226.00,0.0041
2225.75,0.0039
2225.50,0.0039
2225.25,0.0041
2225.00,0.0042
2224.75,0.0042
2224.50,0.0039
2224.25,0.0036
2224.00,0.0034
2223.75,0.0035
2223.50,0.0039
2223.25,0.0043
2223.00,0.0047
2222.75,0.0050
2222.50,0.0051
2222.25,0.0048
2222.00,0.0044
2221.75,0.0039
2221.50,0.0035
2221.25,0.0033
2221.00,0.0033
2220.75,0.0033
2220.50,0.0033
2220.25,0.0032
2220.00,0.0029
2219.75,0.0028
2219.50,0.0029
2219.25,0.0034
2219.00,0.0039
2218.75,0.0041
2218.50,0.0038
2218.25,0.0033
2218.00,0.0028
2217.75,0.0025
2217.50,0.0025
2217.25,0.0026
2217.00,0.0029
2216.75,0.0032
2216.50,0.0034
2216.25,0.0034
2216.00,0.0032
2215.75,0.0029
2215.50,0.0026
2215.25,0.0026
2215.00,0.0028
2214.75,0.0031
2214.50,0.0034
2214.25,0.0036
2214.00,0.0036
2213.75,0.0034
2213.50,0.0029
2213.25,0.0023
2213.00,0.0019
2212.75,0.0016
2212.50,0.0017
2212.25,0.0019
2212.00,0.0023
2211.75,0.0028
2211.50,0.0032
2211.25,0.0036
2211.00,0.0039
2210.75,0.0040
2210.50,0.0041
2210.25,0.0040
2210.00,0.0038
2209.75,0.0035
2209.50,0.0033
2209.25,0.0032
2209.00,0.0032
2208.75,0.0032
2208.50,0.0031
2208.25,0.0030
2208.00,0.0029
2207.75,0.0028
2207.50,0.0029
2207.25,0.0030
2207.00,0.0032
2206.75,0.0033
2206.50,0.0033
2206.25,0.0032
2206.00,0.0029
2205.75,0.0026
2205.50,0.0022
2205.25,0.0020
2205.00,0.0021
2204.75,0.0025
2204.50,0.0031
2204.25,0.0038
2204.00,0.0042
2203.75,0.0043
2203.50,0.0042
2203.25,0.0039
2203.00,0.0037
2202.75,0.0037
2202.50,0.0039
2202.25,0.0042
2202.00,0.0043
2201.75,0.0043
2201.50,0.0041
2201.25,0.0038
2201.00,0.0034
2200.75,0.0030
2200.50,0.0027
2200.25,0.0025
2200.00,0.0025
2199.75,0.0025
2199.50,0.0024
2199.25,0.0023
2199.00,0.0024
2198.75,0.0028
2198.50,0.0031
2198.25,0.0031
2198.00,0.0029
2197.75,0.0026
2197.50,0.0025
2197.25,0.0026
2197.00,0.0029
2196.75,0.0032
2196.50,0.0035
2196.25,0.0036
2196.00,0.0036
2195.75,0.0035
2195.50,0.0034
2195.25,0.0034
2195.00,0.0035
2194.75,0.0036
2194.50,0.0036
2194.25,0.0034
2194.00,0.0031
2193.75,0.0027
2193.50,0.0025
2193.25,0.0024
2193.00,0.0024
2192.75,0.0022
2192.50,0.0019
2192.25,0.0018
2192.00,0.0020
2191.75,0.0026
2191.50,0.0033
2191.25,0.0038
2191.00,0.0039
2190.75,0.0038
2190.50,0.0035
2190.25,0.0033
2190.00,0.0030
2189.75,0.0029
2189.50,0.0030
2189.25,0.0032
2189.00,0.0034
2188.75,0.0036
2188.50,0.0038
2188.25,0.0039
2188.00,0.0039
2187.75,0.0039
2187.50,0.0038
2187.25,0.0038
2187.00,0.0037
2186.75,0.0035
2186.50,0.0033
2186.25,0.0031
2186.00,0.0030
2185.75,0.0029
2185.50,0.0028
2185.25,0.0025
2185.00,0.0021
2184.75,0.0018
2184.50,0.0017
2184.25,0.0019
2184.00,0.0023
2183.75,0.0027
2183.50,0.0030
2183.25,0.0030
2183.00,0.0029
2182.75,0.0026
2182.50,0.0024
2182.25,0.0022
2182.00,0.0020
2181.75,0.0019
2181.50,0.0019
2181.25,0.0019
2181.00,0.0020
2180.75,0.0021
2180.50,0.0022
2180.25,0.0023
2180.00,0.0025
2179.75,0.0028
2179.50,0.0032
2179.25,0.0038
2179.00,0.0043
2178.75,0.0044
2178.50,0.0041
2178.25,0.0036
2178.00,0.0031
2177.75,0.0029
2177.50,0.0031
2177.25,0.0036
2177.00,0.0042
2176.75,0.0047
2176.50,0.0051
2176.25,0.0051
2176.00,0.0047
2175.75,0.0039
2175.50,0.0030
2175.25,0.0021
2175.00,0.0015
2174.75,0.0016
2174.50,0.0022
2174.25,0.0030
2174.00,0.0036
2173.75,0.0038
2173.50,0.0036
2173.25,0.0031
2173.00,0.0029
2172.75,0.0029
2172.50,0.0032
2172.25,0.0036
2172.00,0.0039
2171.75,0.0039
2171.50,0.0035
2171.25,0.0031
2171.00,0.0029
2170.75,0.0030
2170.50,0.0031
2170.25,0.0029
2170.00,0.0026
2169.75,0.0021
2169.50,0.0019
2169.25,0.0021
2169.00,0.0026
2168.75,0.0031
2168.50,0.0035
2168.25,0.0037
2168.00,0.0037
2167.75,0.0036
2167.50,0.0035
2167.25,0.0033
2167.00,0.0030
2166.75,0.0026
2166.50,0.0021
2166.25,0.0015
2166.00,0.0013
2165.75,0.0014
2165.50,0.0018
2165.25,0.0023
2165.00,0.0027
2164.75,0.0031
2164.50,0.0034
2164.25,0.0036
2164.00,0.0035
2163.75,0.0030
2163.50,0.0023
2163.25,0.0016
2163.00,0.0012
2162.75,0.0012
2162.50,0.0014
2162.25,0.0017
2162.00,0.0019
2161.75,0.0021
2161.50,0.0022
2161.25,0.0021
2161.00,0.0017
2160.75,0.0013
2160.50,0.0009
2160.25,0.0007
2160.00,0.0007
2159.75,0.0009
2159.50,0.0011
2159.25,0.0013
2159.00,0.0016
2158.75,0.0018
2158.50,0.0020
2158.25,0.0020
2158.00,0.0019
2157.75,0.0017
2157.50,0.0017
2157.25,0.0020
2157.00,0.0024
2156.75,0.0028
2156.50,0.0030
2156.25,0.0027
2156.00,0.0022
2155.75,0.0018
2155.50,0.0017
2155.25,0.0020
2155.00,0.0024
2154.75,0.0027
2154.50,0.0029
2154.25,0.0030
2154.00,0.0032
2153.75,0.0035
2153.50,0.0038
2153.25,0.0038
2153.00,0.0037
2152.75,0.0033
2152.50,0.0028
2152.25,0.0023
2152.00,0.0019
2151.75,0.0015
2151.50,0.0014
2151.25,0.0016
2151.00,0.0020
2150.75,0.0025
2150.50,0.0028
2150.25,0.0028
2150.00,0.0027
2149.75,0.0026
2149.50,0.0025
2149.25,0.0027
2149.00,0.0030
2148.75,0.0034
2148.50,0.0037
2148.25,0.0039
2148.00,0.0039
2147.75,0.0038
2147.50,0.0036
2147.25,0.0034
2147.00,0.0032
2146.75,0.0031
2146.50,0.0030
2146.25,0.0029
2146.00,0.0031
2145.75,0.0035
2145.50,0.0039
2145.25,0.0042
2145.00,0.0042
2144.75,0.0037
2144.50,0.0030
2144.25,0.0023
2144.00,0.0018
2143.75,0.0015
2143.50,0.0016
2143.25,0.0019
2143.00,0.0025
2142.75,0.0032
2142.50,0.0037
2142.25,0.0037
2142.00,0.0032
2141.75,0.0026
2141.50,0.0022
2141.25,0.0020
2141.00,0.0021
2140.75,0.0022
2140.50,0.0022
2140.25,0.0023
2140.00,0.0025
2139.75,0.0028
2139.50,0.0033
2139.25,0.0037
2139.00,0.0039
2138.75,0.0037
2138.50,0.0035
2138.25,0.0034
2138.00,0.0036
2137.75,0.0039
2137.50,0.0040
2137.25,0.0039
2137.00,0.0036
2136.75,0.0032
2136.50,0.0029
2136.25,0.0028
2136.00,0.0026
2135.75,0.0024
2135.50,0.0024
2135.25,0.0025
2135.00,0.0028
2134.75,0.0032
2134.50,0.0036
2134.25,0.0039
2134.00,0.0041
2133.75,0.0043
2133.50,0.0043
2133.25,0.0042
2133.00,0.0039
2132.75,0.0037
2132.50,0.0034
2132.25,0.0033
2132.00,0.0034
2131.75,0.0036
2131.50,0.0039
2131.25,0.0040
2131.00,0.0040
2130.75,0.0037
2130.50,0.0033
2130.25,0.0030
2130.00,0.0028
2129.75,0.0027
2129.50,0.0029
2129.25,0.0033
2129.00,0.0039
2128.75,0.0045
2128.50,0.0047
2128.25,0.0044
2128.00,0.0037
2127.75,0.0029
2127.50,0.0022
2127.25,0.0020
2127.00,0.0022
2126.75,0.0026
2126.50,0.0030
2126.25,0.0033
2126.00,0.0035
2125.75,0.0036
2125.50,0.0036
2125.25,0.0037
2125.00,0.0037
2124.75,0.0037
2124.50,0.0037
2124.25,0.0037
2124.00,0.0036
2123.75,0.0034
2123.50,0.0031
2123.25,0.0030
2123.00,0.0031
2122.75,0.0033
2122.50,0.0036
2122.25,0.0038
2122.00,0.0039
2121.75,0.0039
2121.50,0.0040
2121.25,0.0042
2121.00,0.0043
2120.75,0.0042
2120.50,0.0040
2120.25,0.0037
2120.00,0.0036
2119.75,0.0035
2119.50,0.0035
2119.25,0.0034
2119.00,0.0032
2118.75,0.0030
2118.50,0.0028
2118.25,0.0029
2118.00,0.0030
2117.75,0.0031
2117.50,0.0031
2117.25,0.0030
2117.00,0.0028
2116.75,0.0027
2116.50,0.0028
2116.25,0.0030
2116.00,0.0034
2115.75,0.0037
2115.50,0.0039
2115.25,0.0040
2115.00,0.0041
2114.75,0.0042
2114.50,0.0043
2114.25,0.0042
2114.00,0.0040
2113.75,0.0037
2113.50,0.0033
2113.25,0.0032
2113.00,0.0031
2112.75,0.0032
2112.50,0.0032
2112.25,0.0032
2112.00,0.0030
2111.75,0.0029
2111.50,0.0028
2111.25,0.0027
2111.00,0.0027
2110.75,0.0025
2110.50,0.0024
2110.25,0.0023
2110.00,0.0023
2109.75,0.0025
2109.50,0.0029
2109.25,0.0032
2109.00,0.0034
2108.75,0.0036
2108.50,0.0038
2108.25,0.0040
2108.00,0.0042
2107.75,0.0044
2107.50,0.0045
2107.25,0.0045
2107.00,0.0043
2106.75,0.0040
2106.50,0.0038
2106.25,0.0036
2106.00,0.0036
2105.75,0.0038
2105.50,0.0042
2105.25,0.0047
2105.00,0.0051
2104.75,0.0052
2104.50,0.0049
2104.25,0.0043
2104.00,0.0037
2103.75,0.0033
2103.50,0.0031
2103.25,0.0033
2103.00,0.0037
2102.75,0.0040
2102.50,0.0043
2102.25,0.0044
2102.00,0.0044
2101.75,0.0044
2101.50,0.0046
2101.25,0.0047
2101.00,0.0048
2100.75,0.0046
2100.50,0.0042
2100.25,0.0037
2100.00,0.0035
2099.75,0.0035
2099.50,0.0037
2099.25,0.0039
2099.00,0.0040
2098.75,0.0042
2098.50,0.0044
2098.25,0.0045
2098.00,0.0045
2097.75,0.0041
2097.50,0.0036
2097.25,0.0032
2097.00,0.0030
2096.75,0.0031
2096.50,0.0033
2096.25,0.0034
2096.00,0.0034
2095.75,0.0036
2095.50,0.0039
2095.25,0.0043
2095.00,0.0047
2094.75,0.0048
2094.50,0.0047
2094.25,0.0045
2094.00,0.0042
2093.75,0.0040
2093.50,0.0038
2093.25,0.0037
2093.00,0.0036
2092.75,0.0036
2092.50,0.0038
2092.25,0.0040
2092.00,0.0040
2091.75,0.0037
2091.50,0.0033
2091.25,0.0028
2091.00,0.0027
2090.75,0.0030
2090.50,0.0036
2090.25,0.0043
2090.00,0.0046
2089.75,0.0045
2089.50,0.0040
2089.25,0.0034
2089.00,0.0029
2088.75,0.0028
2088.50,0.0030
2088.25,0.0034
2088.00,0.0037
2087.75,0.0039
2087.50,0.0039
2087.25,0.0039
2087.00,0.0039
2086.75,0.0040
2086.50,0.0040
2086.25,0.0041
2086.00,0.0041
2085.75,0.0040
2085.50,0.0039
2085.25,0.0038
2085.00,0.0036
2084.75,0.0034
2084.50,0.0030
2084.25,0.0027
2084.00,0.0025
2083.75,0.0025
2083.50,0.0029
2083.25,0.0034
2083.00,0.0037
2082.75,0.0038
2082.50,0.0035
2082.25,0.0033
2082.00,0.0031
2081.75,0.0032
2081.50,0.0034
2081.25,0.0034
2081.00,0.0033
2080.75,0.0032
2080.50,0.0032
2080.25,0.0035
2080.00,0.0039
2079.75,0.0041
2079.50,0.0041
2079.25,0.0039
2079.00,0.0038
2078.75,0.0037
2078.50,0.0039
2078.25,0.0041
2078.00,0.0043
2077.75,0.0044
2077.50,0.0044
2077.25,0.0044
2077.00,0.0043
2076.75,0.0041
2076.50,0.0038
2076.25,0.0034
2076.00,0.0029
2075.75,0.0025
2075.50,0.0022
2075.25,0.0021
2075.00,0.0020
2074.75,0.0019
2074.50,0.0018
2074.25,0.0019
2074.00,0.0020
2073.75,0.0022
2073.50,0.0025
2073.25,0.0028
2073.00,0.0031
2072.75,0.0036
2072.50,0.0040
2072.25,0.0044
2072.00,0.0045
2071.75,0.0045
2071.50,0.0045
2071.25,0.0045
2071.00,0.0046
2070.75,0.0046
2070.50,0.0045
2070.25,0.0044
2070.00,0.0042
2069.75,0.0040
2069.50,0.0039
2069.25,0.0039
2069.00,0.0039
2068.75,0.0041
2068.50,0.0042
2068.25,0.0040
2068.00,0.0037
2067.75,0.0034
2067.50,0.0031
2067.25,0.0029
2067.00,0.0030
2066.75,0.0030
2066.50,0.0031
2066.25,0.0031
2066.00,0.0031
2065.75,0.0031
2065.50,0.0031
2065.25,0.0032
2065.00,0.0031
2064.75,0.0031
2064.50,0.0030
2064.25,0.0030
2064.00,0.0032
2063.75,0.0034
2063.50,0.0035
2063.25,0.0034
2063.00,0.0032
2062.75,0.0030
2062.50,0.0029
2062.25,0.0028
2062.00,0.0028
2061.75,0.0029
2061.50,0.0030
2061.25,0.0032
2061.00,0.0034
2060.75,0.0035
2060.50,0.0035
2060.25,0.0035
2060.00,0.0035
2059.75,0.0034
2059.50,0.0033
2059.25,0.0033
2059.00,0.0032
2058.75,0.0033
2058.50,0.0035
2058.25,0.0037
2058.00,0.0039
2057.75,0.0041
2057.50,0.0040
2057.25,0.0038
2057.00,0.0034
2056.75,0.0032
2056.50,0.0031
2056.25,0.0033
2056.00,0.0036
2055.75,0.0039
2055.50,0.0039
2055.25,0.0037
2055.00,0.0034
2054.75,0.0031
2054.50,0.0030
2054.25,0.0030
2054.00,0.0030
2053.75,0.0030
2053.50,0.0029
2053.25,0.0030
2053.00,0.0033
2052.75,0.0036
2052.50,0.0037
2052.25,0.0034
2052.00,0.0029
2051.75,0.0026
2051.50,0.0026
2051.25,0.0028
2051.00,0.0030
2050.75,0.0032
2050.50,0.0032
2050.25,0.0032
2050.00,0.0031
2049.75,0.0029
2049.50,0.0027
2049.25,0.0025
2049.00,0.0025
2048.75,0.0027
2048.50,0.0031
2048.25,0.0035
2048.00,0.0039
2047.75,0.0040
2047.50,0.0039
2047.25,0.0034
2047.00,0.0028
2046.75,0.0023
2046.50,0.0021
2046.25,0.0022
2046.00,0.0025
2045.75,0.0028
2045.50,0.0029
2045.25,0.0029
2045.00,0.0029
2044.75,0.0028
2044.50,0.0027
2044.25,0.0025
2044.00,0.0023
2043.75,0.0021
2043.50,0.0021
2043.25,0.0021
2043.00,0.0022
2042.75,0.0024
2042.50,0.0024
2042.25,0.0023
2042.00,0.0022
2041.75,0.0021
2041.50,0.0021
2041.25,0.0022
2041.00,0.0022
2040.75,0.0019
2040.50,0.0016
2040.25,0.0013
2040.00,0.0013
2039.75,0.0018
2039.50,0.0025
2039.25,0.0032
2039.00,0.0035
2038.75,0.0031
2038.50,0.0024
2038.25,0.0017
2038.00,0.0015
2037.75,0.0018
2037.50,0.0024
2037.25,0.0031
2037.00,0.0034
2036.75,0.0033
2036.50,0.0025
2036.25,0.0014
2036.00,0.0006
2035.75,0.0003
2035.50,0.0006
2035.25,0.0014
2035.00,0.0022
2034.75,0.0025
2034.50,0.0023
2034.25,0.0018
2034.00,0.0013
2033.75,0.0010
2033.50,0.0011
2033.25,0.0013
2033.00,0.0016
2032.75,0.0020
2032.50,0.0024
2032.25,0.0029
2032.00,0.0030
2031.75,0.0028
2031.50,0.0023
2031.25,0.0018
2031.00,0.0015
2030.75,0.0016
2030.50,0.0019
2030.25,0.0022
2030.00,0.0026
2029.75,0.0027
2029.50,0.0027
2029.25,0.0025
2029.00,0.0021
2028.75,0.0019
2028.50,0.0018
2028.25,0.0019
2028.00,0.0020
2027.75,0.0023
2027.50,0.0026
2027.25,0.0030
2027.00,0.0033
2026.75,0.0035
2026.50,0.0034
2026.25,0.0032
2026.00,0.0030
2025.75,0.0027
2025.50,0.0023
2025.25,0.0016
2025.00,0.0009
2024.75,0.0006
2024.50,0.0006
2024.25,0.0011
2024.00,0.0016
2023.75,0.0019
2023.50,0.0019
2023.25,0.0017
2023.00,0.0014
2022.75,0.0011
2022.50,0.0008
2022.25,0.0005
2022.00,0.0005
2021.75,0.0008
2021.50,0.0014
2021.25,0.0020
2021.00,0.0024
2020.75,0.0026
2020.50,0.0026
2020.25,0.0025
2020.00,0.0023
2019.75,0.0021
2019.50,0.0020
2019.25,0.0021
2019.00,0.0024
2018.75,0.0026
2018.50,0.0028
2018.25,0.0028
2018.00,0.0030
2017.75,0.0034
2017.50,0.0040
2017.25,0.0043
2017.00,0.0041
2016.75,0.0034
2016.50,0.0026
2016.25,0.0022
2016.00,0.0023
2015.75,0.0026
2015.50,0.0029
2015.25,0.0030
2015.00,0.0029
2014.75,0.0027
2014.50,0.0026
2014.25,0.0025
2014.00,0.0024
2013.75,0.0024
2013.50,0.0024
2013.25,0.0024
2013.00,0.0025
2012.75,0.0025
2012.50,0.0023
2012.25,0.0021
2012.00,0.0019
2011.75,0.0018
2011.50,0.0020
2011.25,0.0024
2011.00,0.0029
2010.75,0.0033
2010.50,0.0033
2010.25,0.0031
2010.00,0.0028
2009.75,0.0027
2009.50,0.0028
2009.25,0.0030
2009.00,0.0031
2008.75,0.0032
2008.50,0.0031
2008.25,0.0029
2008.00,0.0029
2007.75,0.0032
2007.50,0.0037
2007.25,0.0041
2007.00,0.0042
2006.75,0.0040
2006.50,0.0036
2006.25,0.0033
2006.00,0.0032
2005.75,0.0034
2005.50,0.0036
2005.25,0.0038
2005.00,0.0039
2004.75,0.0038
2004.50,0.0035
2004.25,0.0031
2004.00,0.0026
2003.75,0.0023
2003.50,0.0024
2003.25,0.0027
2003.00,0.0032
2002.75,0.0034
2002.50,0.0033
2002.25,0.0028
2002.00,0.0022
2001.75,0.0017
2001.50,0.0015
2001.25,0.0017
2001.00,0.0023
2000.75,0.0030
2000.50,0.0037
2000.25,0.0041
2000.00,0.0041
1999.75,0.0039
1999.50,0.0037
1999.25,0.0037
1999.00,0.0039
1998.75,0.0042
1998.50,0.0045
1998.25,0.0044
1998.00,0.0041
1997.75,0.0037
1997.50,0.0033
1997.25,0.0033
1997.00,0.0034
1996.75,0.0037
1996.50,0.0040
1996.25,0.0041
1996.00,0.0041
1995.75,0.0040
1995.50,0.0038
1995.25,0.0037
1995.00,0.0037
1994.75,0.0040
1994.50,0.0043
1994.25,0.0045
1994.00,0.0045
1993.75,0.0043
1993.50,0.0042
1993.25,0.0043
1993.00,0.0044
1992.75,0.0047
1992.50,0.0048
1992.25,0.0047
1992.00,0.0046
1991.75,0.0044
1991.50,0.0043
1991.25,0.0045
1991.00,0.0047
1990.75,0.0050
1990.50,0.0052
1990.25,0.0049
1990.00,0.0043
1989.75,0.0033
1989.50,0.0026
1989.25,0.0022
1989.00,0.0024
1988.75,0.0029
1988.50,0.0034
1988.25,0.0036
1988.00,0.0036
1987.75,0.0036
1987.50,0.0037
1987.25,0.0041
1987.00,0.0046
1986.75,0.0050
1986.50,0.0053
1986.25,0.0054
1986.00,0.0053
1985.75,0.0050
1985.50,0.0046
1985.25,0.0041
1985.00,0.0036
1984.75,0.0032
1984.50,0.0031
1984.25,0.0032
1984.00,0.0036
1983.75,0.0040
1983.50,0.0043
1983.25,0.0043
1983.00,0.0042
1982.75,0.0041
1982.50,0.0041
1982.25,0.0042
1982.00,0.0042
1981.75,0.0042
1981.50,0.0040
1981.25,0.0038
1981.00,0.0037
1980.75,0.0036
1980.50,0.0036
1980.25,0.0036
1980.00,0.0038
1979.75,0.0042
1979.50,0.0048
1979.25,0.0054
1979.00,0.0057
1978.75,0.0055
1978.50,0.0049
1978.25,0.0040
1978.00,0.0030
1977.75,0.0022
1977.50,0.0018
1977.25,0.0020
1977.00,0.0026
1976.75,0.0035
1976.50,0.0043
1976.25,0.0046
1976.00,0.0043
1975.75,0.0038
1975.50,0.0034
1975.25,0.0033
1975.00,0.0037
1974.75,0.0042
1974.50,0.0045
1974.25,0.0044
1974.00,0.0040
1973.75,0.0035
1973.50,0.0032
1973.25,0.0031
1973.00,0.0033
1972.75,0.0035
1972.50,0.0038
1972.25,0.0042
1972.00,0.0046
1971.75,0.0049
1971.50,0.0050
1971.25,0.0050
1971.00,0.0048
1970.75,0.0046
1970.50,0.0044
1970.25,0.0042
1970.00,0.0042
1969.75,0.0042
1969.50,0.0043
1969.25,0.0041
1969.00,0.0039
1968.75,0.0037
1968.50,0.0038
1968.25,0.0042
1968.00,0.0045
1967.75,0.0046
1967.50,0.0044
1967.25,0.0040
1967.00,0.0037
1966.75,0.0037
1966.50,0.0038
1966.25,0.0038
1966.00,0.0036
1965.75,0.0033
1965.50,0.0030
1965.25,0.0029
1965.00,0.0031
1964.75,0.0034
1964.50,0.0038
1964.25,0.0040
1964.00,0.0042
1963.75,0.0043
1963.50,0.0045
1963.25,0.0047
1963.00,0.0048
1962.75,0.0049
1962.50,0.0051
1962.25,0.0051
1962.00,0.0051
1961.75,0.0050
1961.50,0.0049
1961.25,0.0047
1961.00,0.0045
1960.75,0.0044
1960.50,0.0045
1960.25,0.0046
1960.00,0.0049
1959.75,0.0052
1959.50,0.0053
1959.25,0.0053
1959.00,0.0053
1958.75,0.0056
1958.50,0.0058
1958.25,0.0058
1958.00,0.0054
1957.75,0.0048
1957.50,0.0041
1957.25,0.0039
1957.00,0.0042
1956.75,0.0047
1956.50,0.0051
1956.25,0.0053
1956.00,0.0053
1955.75,0.0051
1955.50,0.0048
1955.25,0.0044
1955.00,0.0041
1954.75,0.0040
1954.50,0.0041
1954.25,0.0042
1954.00,0.0044
1953.75,0.0046
1953.50,0.0048
1953.25,0.0052
1953.00,0.0055
1952.75,0.0058
1952.50,0.0059
1952.25,0.0058
1952.00,0.0055
1951.75,0.0051
1951.50,0.0049
1951.25,0.0048
1951.00,0.0047
1950.75,0.0047
1950.50,0.0046
1950.25,0.0046
1950.00,0.0045
1949.75,0.0044
1949.50,0.0045
1949.25,0.0046
1949.00,0.0047
1948.75,0.0048
1948.50,0.0046
1948.25,0.0044
1948.00,0.0043
1947.75,0.0044
1947.50,0.0048
1947.25,0.0054
1947.00,0.0058
1946.75,0.0060
1946.50,0.0061
1946.25,0.0061
1946.00,0.0063
1945.75,0.0065
1945.50,0.0065
1945.25,0.0064
1945.00,0.0061
1944.75,0.0057
1944.50,0.0052
1944.25,0.0048
1944.00,0.0045
1943.75,0.0045
1943.50,0.0047
1943.25,0.0052
1943.00,0.0059
1942.75,0.0066
1942.50,0.0070
1942.25,0.0068
1942.00,0.0064
1941.75,0.0060
1941.50,0.0057
1941.25,0.0054
1941.00,0.0050
1940.75,0.0047
1940.50,0.0044
1940.25,0.0043
1940.00,0.0043
1939.75,0.0044
1939.50,0.0046
1939.25,0.0049
1939.00,0.0052
1938.75,0.0054
1938.50,0.0055
1938.25,0.0056
1938.00,0.0055
1937.75,0.0054
1937.50,0.0052
1937.25,0.0051
1937.00,0.0050
1936.75,0.0050
1936.50,0.0052
1936.25,0.0054
1936.00,0.0055
1935.75,0.0056
1935.50,0.0055
1935.25,0.0054
1935.00,0.0055
1934.75,0.0057
1934.50,0.0061
1934.25,0.0064
1934.00,0.0064
1933.75,0.0060
1933.50,0.0055
1933.25,0.0050
1933.00,0.0047
1932.75,0.0044
1932.50,0.0044
1932.25,0.0045
1932.00,0.0047
1931.75,0.0051
1931.50,0.0054
1931.25,0.0056
1931.00,0.0057
1930.75,0.0057
1930.50,0.0055
1930.25,0.0051
1930.00,0.0047
1929.75,0.0046
1929.50,0.0047
1929.25,0.0051
1929.00,0.0054
1928.75,0.0056
1928.50,0.0055
1928.25,0.0054
1928.00,0.0053
1927.75,0.0054
1927.50,0.0056
1927.25,0.0058
1927.00,0.0060
1926.75,0.0061
1926.50,0.0060
1926.25,0.0058
1926.00,0.0054
1925.75,0.0052
1925.50,0.0051
1925.25,0.0053
1925.00,0.0058
1924.75,0.0062
1924.50,0.0065
1924.25,0.0064
1924.00,0.0063
1923.75,0.0060
1923.50,0.0058
1923.25,0.0057
1923.00,0.0057
1922.75,0.0055
1922.50,0.0054
1922.25,0.0052
1922.00,0.0051
1921.75,0.0051
1921.50,0.0051
1921.25,0.0052
1921.00,0.0053
1920.75,0.0055
1920.50,0.0058
1920.25,0.0059
1920.00,0.0060
1919.75,0.0060
1919.50,0.0061
1919.25,0.0061
1919.00,0.0061
1918.75,0.0058
1918.50,0.0054
1918.25,0.0048
1918.00,0.0043
1917.75,0.0041
1917.50,0.0045
1917.25,0.0050
1917.00,0.0054
1916.75,0.0056
1916.50,0.0056
1916.25,0.0056
1916.00,0.0056
1915.75,0.0057
1915.50,0.0057
1915.25,0.0057
1915.00,0.0058
1914.75,0.0058
1914.50,0.0057
1914.25,0.0055
1914.00,0.0053
1913.75,0.0051
1913.50,0.0051
1913.25,0.0053
1913.00,0.0055
1912.75,0.0056
1912.50,0.0057
1912.25,0.0058
1912.00,0.0059
1911.75,0.0059
1911.50,0.0059
1911.25,0.0058
1911.00,0.0057
1910.75,0.0056
1910.50,0.0056
1910.25,0.0056
1910.00,0.0055
1909.75,0.0054
1909.50,0.0054
1909.25,0.0055
1909.00,0.0056
1908.75,0.0056
1908.50,0.0056
1908.25,0.0055
1908.00,0.0055
1907.75,0.0055
1907.50,0.0055
1907.25,0.0055
1907.00,0.0055
1906.75,0.0053
1906.50,0.0052
1906.25,0.0051
1906.00,0.0051
1905.75,0.0052
1905.50,0.0054
1905.25,0.0056
1905.00,0.0058
1904.75,0.0059
1904.50,0.0059
1904.25,0.0058
1904.00,0.0058
1903.75,0.0057
1903.50,0.0058
1903.25,0.0059
1903.00,0.0060
1902.75,0.0061
1902.50,0.0061
1902.25,0.0061
1902.00,0.0060
1901.75,0.0058
1901.50,0.0057
1901.25,0.0056
1901.00,0.0055
1900.75,0.0054
1900.50,0.0053
1900.25,0.0053
1900.00,0.0053
1899.75,0.0053
1899.50,0.0054
1899.25,0.0054
1899.00,0.0053
1898.75,0.0053
1898.50,0.0053
1898.25,0.0053
1898.00,0.0055
1897.75,0.0056
1897.50,0.0057
1897.25,0.0057
1897.00,0.0057
1896.75,0.0055
1896.50,0.0055
1896.25,0.0055
1896.00,0.0057
1895.75,0.0058
1895.50,0.0058
1895.25,0.0056
1895.00,0.0054
1894.75,0.0052
1894.50,0.0052
1894.25,0.0054
1894.00,0.0057
1893.75,0.0061
1893.50,0.0064
1893.25,0.0066
1893.00,0.0066
1892.75,0.0065
1892.50,0.0064
1892.25,0.0064
1892.00,0.0064
1891.75,0.0065
1891.50,0.0065
1891.25,0.0065
1891.00,0.0064
1890.75,0.0061
1890.50,0.0059
1890.25,0.0058
1890.00,0.0057
1889.75,0.0057
1889.50,0.0057
1889.25,0.0055
1889.00,0.0053
1888.75,0.0053
1888.50,0.0053
1888.25,0.0053
1888.00,0.0053
1887.75,0.0053
1887.50,0.0052
1887.25,0.0050
1887.00,0.0049
1886.75,0.0049
1886.50,0.0051
1886.25,0.0054
1886.00,0.0057
1885.75,0.0057
1885.50,0.0056
1885.25,0.0056
1885.00,0.0056
1884.75,0.0056
1884.50,0.0055
1884.25,0.0054
1884.00,0.0053
1883.75,0.0053
1883.50,0.0055
1883.25,0.0057
1883.00,0.0059
1882.75,0.0060
1882.50,0.0060
1882.25,0.0060
1882.00,0.0059
1881.75,0.0058
1881.50,0.0057
1881.25,0.0056
1881.00,0.0055
1880.75,0.0054
1880.50,0.0054
1880.25,0.0055
1880.00,0.0057
1879.75,0.0059
1879.50,0.0060
1879.25,0.0061
1879.00,0.0062
1878.75,0.0062
1878.50,0.0061
1878.25,0.0060
1878.00,0.0059
1877.75,0.0059
1877.50,0.0059
1877.25,0.0058
1877.00,0.0057
1876.75,0.0054
1876.50,0.0052
1876.25,0.0051
1876.00,0.0051
1875.75,0.0052
1875.50,0.0053
1875.25,0.0056
1875.00,0.0058
1874.75,0.0060
1874.50,0.0059
1874.25,0.0057
1874.00,0.0055
1873.75,0.0053
1873.50,0.0053
1873.25,0.0054
1873.00,0.0055
1872.75,0.0056
1872.50,0.0056
1872.25,0.0056
1872.00,0.0056
1871.75,0.0056
1871.50,0.0055
1871.25,0.0055
1871.00,0.0056
1870.75,0.0058
1870.50,0.0060
1870.25,0.0060
1870.00,0.0060
1869.75,0.0058
1869.50,0.0056
1869.25,0.0056
1869.00,0.0057
1868.75,0.0060
1868.50,0.0061
1868.25,0.0059
1868.00,0.0056
1867.75,0.0054
1867.50,0.0053
1867.25,0.0055
1867.00,0.0056
1866.75,0.0058
1866.50,0.0059
1866.25,0.0060
1866.00,0.0061
1865.75,0.0061
1865.50,0.0061
1865.25,0.0060
1865.00,0.0061
1864.75,0.0062
1864.50,0.0064
1864.25,0.0065
1864.00,0.0065
1863.75,0.0064
1863.50,0.0064
1863.25,0.0065
1863.00,0.0065
1862.75,0.0064
1862.50,0.0062
1862.25,0.0059
1862.00,0.0056
1861.75,0.0055
1861.50,0.0055
1861.25,0.0056
1861.00,0.0059
1860.75,0.0060
1860.50,0.0061
1860.25,0.0062
1860.00,0.0062
1859.75,0.0062
1859.50,0.0063
1859.25,0.0064
1859.00,0.0064
1858.75,0.0063
1858.50,0.0061
1858.25,0.0059
1858.00,0.0057
1857.75,0.0055
1857.50,0.0054
1857.25,0.0053
1857.00,0.0054
1856.75,0.0055
1856.50,0.0057
1856.25,0.0058
1856.00,0.0060
1855.75,0.0061
1855.50,0.0063
1855.25,0.0064
1855.00,0.0065
1854.75,0.0065
1854.50,0.0064
1854.25,0.0062
1854.00,0.0060
1853.75,0.0058
1853.50,0.0057
1853.25,0.0056
1853.00,0.0057
1852.75,0.0058
1852.50,0.0059
1852.25,0.0059
1852.00,0.0059
1851.75,0.0059
1851.50,0.0059
1851.25,0.0059
1851.00,0.0059
1850.75,0.0059
1850.50,0.0059
1850.25,0.0060
1850.00,0.0061
1849.75,0.0061
1849.50,0.0061
1849.25,0.0061
1849.00,0.0062
1848.75,0.0063
1848.50,0.0065
1848.25,0.0065
1848.00,0.0064
1847.75,0.0061
1847.50,0.0058
1847.25,0.0056
1847.00,0.0054
1846.75,0.0054
1846.50,0.0055
1846.25,0.0058
1846.00,0.0061
1845.75,0.0064
1845.50,0.0066
1845.25,0.0065
1845.00,0.0063
1844.75,0.0060
1844.50,0.0058
1844.25,0.0056
1844.00,0.0057
1843.75,0.0061
1843.50,0.0064
1843.25,0.0063
1843.00,0.0061
1842.75,0.0059
1842.50,0.0057
1842.25,0.0056
1842.00,0.0056
1841.75,0.0057
1841.50,0.0059
1841.25,0.0060
1841.00,0.0062
1840.75,0.0063
1840.50,0.0062
1840.25,0.0062
1840.00,0.0061
1839.75,0.0061
1839.50,0.0062
1839.25,0.0063
1839.00,0.0063
1838.75,0.0063
1838.50,0.0063
1838.25,0.0063
1838.00,0.0063
1837.75,0.0062
1837.50,0.0060
1837.25,0.0059
1837.00,0.0059
1836.75,0.0059
1836.50,0.0060
1836.25,0.0062
1836.00,0.0063
1835.75,0.0064
1835.50,0.0064
1835.25,0.0064
1835.00,0.0062
1834.75,0.0061
1834.50,0.0060
1834.25,0.0059
1834.00,0.0059
1833.75,0.0060
1833.50,0.0061
1833.25,0.0062
1833.00,0.0062
1832.75,0.0062
1832.50,0.0062
1832.25,0.0061
1832.00,0.0062
1831.75,0.0062
1831.50,0.0063
1831.25,0.0064
1831.00,0.0064
1830.75,0.0063
1830.50,0.0061
1830.25,0.0060
1830.00,0.0061
1829.75,0.0064
1829.50,0.0067
1829.25,0.0069
1829.00,0.0068
1828.75,0.0066
1828.50,0.0064
1828.25,0.0063
1828.00,0.0062
1827.75,0.0061
1827.50,0.0061
1827.25,0.0062
1827.00,0.0063
1826.75,0.0064
1826.50,0.0065
1826.25,0.0066
1826.00,0.0067
1825.75,0.0067
1825.50,0.0067
1825.25,0.0065
1825.00,0.0064
1824.75,0.0064
1824.50,0.0065
1824.25,0.0065
1824.00,0.0064
1823.75,0.0062
1823.50,0.0059
1823.25,0.0059
1823.00,0.0060
1822.75,0.0063
1822.50,0.0066
1822.25,0.0068
1822.00,0.0069
1821.75,0.0069
1821.50,0.0068
1821.25,0.0068
1821.00,0.0068
1820.75,0.0068
1820.50,0.0068
1820.25,0.0067
1820.00,0.0065
1819.75,0.0062
1819.50,0.0061
1819.25,0.0061
1819.00,0.0062
1818.75,0.0063
1818.50,0.0065
1818.25,0.0066
1818.00,0.0065
1817.75,0.0064
1817.50,0.0062
1817.25,0.0061
1817.00,0.0061
1816.75,0.0062
1816.50,0.0063
1816.25,0.0064
1816.00,0.0065
1815.75,0.0065
1815.50,0.0065
1815.25,0.0065
1815.00,0.0065
1814.75,0.0065
1814.50,0.0066
1814.25,0.0066
1814.00,0.0067
1813.75,0.0067
1813.50,0.0067
1813.25,0.0066
1813.00,0.0065
1812.75,0.0063
1812.50,0.0061
1812.25,0.0061
1812.00,0.0061
1811.75,0.0063
1811.50,0.0063
1811.25,0.0064
1811.00,0.0064
1810.75,0.0065
1810.50,0.0065
1810.25,0.0066
1810.00,0.0067
1809.75,0.0067
1809.50,0.0067
1809.25,0.0067
1809.00,0.0067
1808.75,0.0067
1808.50,0.0066
1808.25,0.0065
1808.00,0.0063
1807.75,0.0062
1807.50,0.0062
1807.25,0.0063
1807.00,0.0065
1806.75,0.0066
1806.50,0.0067
1806.25,0.0067
1806.00,0.0067
1805.75,0.0067
1805.50,0.0066
1805.25,0.0065
1805.00,0.0064
1804.75,0.0063
1804.50,0.0063
1804.25,0.0064
1804.00,0.0065
1803.75,0.0067
1803.50,0.0067
1803.25,0.0067
1803.00,0.0065
1802.75,0.0063
1802.50,0.0063
1802.25,0.0064
1802.00,0.0066
1801.75,0.0067
1801.50,0.0067
1801.25,0.0066
1801.00,0.0065
1800.75,0.0065
1800.50,0.0066
1800.25,0.0067
1800.00,0.0068
1799.75,0.0069
1799.50,0.0069
1799.25,0.0069
1799.00,0.0068
1798.75,0.0067
1798.50,0.0066
1798.25,0.0065
1798.00,0.0065
1797.75,0.0065
1797.50,0.0064
1797.25,0.0064
1797.00,0.0064
1796.75,0.0064
1796.50,0.0065
1796.25,0.0066
1796.00,0.0066
1795.75,0.0066
1795.50,0.0066
1795.25,0.0066
1795.00,0.0065
1794.75,0.0065
1794.50,0.0064
1794.25,0.0063
1794.00,0.0062
1793.75,0.0061
1793.50,0.0061
1793.25,0.0061
1793.00,0.0062
1792.75,0.0065
1792.50,0.0068
1792.25,0.0071
1792.00,0.0072
1791.75,0.0071
1791.50,0.0069
1791.25,0.0068
1791.00,0.0067
1790.75,0.0066
1790.50,0.0067
1790.25,0.0068
1790.00,0.0068
1789.75,0.0068
1789.50,0.0069
1789.25,0.0069
1789.00,0.0069
1788.75,0.0069
1788.50,0.0068
1788.25,0.0068
1788.00,0.0068
1787.75,0.0068
1787.50,0.0068
1787.25,0.0068
1787.00,0.0068
1786.75,0.0067
1786.50,0.0067
1786.25,0.0067
1786.00,0.0068
1785.75,0.0068
1785.50,0.0069
1785.25,0.0069
1785.00,0.0068
1784.75,0.0068
1784.50,0.0068
1784.25,0.0068
1784.00,0.0069
1783.75,0.0070
1783.50,0.0071
1783.25,0.0071
1783.00,0.0071
1782.75,0.0070
1782.50,0.0069
1782.25,0.0069
1782.00,0.0068
1781.75,0.0068
1781.50,0.0067
1781.25,0.0066
1781.00,0.0067
1780.75,0.0068
1780.50,0.0070
1780.25,0.0070
1780.00,0.0069
1779.75,0.0068
1779.50,0.0067
1779.25,0.0068
1779.00,0.0069
1778.75,0.0069
1778.50,0.0068
1778.25,0.0067
1778.00,0.0066
1777.75,0.0066
1777.50,0.0067
1777.25,0.0068
1777.00,0.0069
1776.75,0.0070
1776.50,0.0071
1776.25,0.0071
1776.00,0.0072
1775.75,0.0071
1775.50,0.0070
1775.25,0.0069
1775.00,0.0068
1774.75,0.0067
1774.50,0.0067
1774.25,0.0068
1774.00,0.0070
1773.75,0.0071
1773.50,0.0071
1773.25,0.0070
1773.00,0.0069
1772.75,0.0067
1772.50,0.0066
1772.25,0.0067
1772.00,0.0068
1771.75,0.0067
1771.50,0.0065
1771.25,0.0064
1771.00,0.0064
1770.75,0.0066
1770.50,0.0067
1770.25,0.0068
1770.00,0.0069
1769.75,0.0070
1769.50,0.0070
1769.25,0.0070
1769.00,0.0069
1768.75,0.0067
1768.50,0.0065
1768.25,0.0064
1768.00,0.0064
1767.75,0.0066
1767.50,0.0068
1767.25,0.0069
1767.00,0.0069
1766.75,0.0068
1766.50,0.0068
1766.25,0.0069
1766.00,0.0069
1765.75,0.0069
1765.50,0.0068
1765.25,0.0067
1765.00,0.0066
1764.75,0.0067
1764.50,0.0068
1764.25,0.0068
1764.00,0.0068
1763.75,0.0068
1763.50,0.0067
1763.25,0.0067
1763.00,0.0067
1762.75,0.0067
1762.50,0.0066
1762.25,0.0065
1762.00,0.0062
1761.75,0.0059
1761.50,0.0061
1761.25,0.0065
1761.00,0.0068
1760.75,0.0070
1760.50,0.0071
1760.25,0.0071
1760.00,0.0071
1759.75,0.0070
1759.50,0.0070
1759.25,0.0069
1759.00,0.0069
1758.75,0.0068
1758.50,0.0069
1758.25,0.0070
1758.00,0.0070
1757.75,0.0071
1757.50,0.0071
1757.25,0.0072
1757.00,0.0072
1756.75,0.0072
1756.50,0.0072
1756.25,0.0072
1756.00,0.0071
1755.75,0.0069
1755.50,0.0067
1755.25,0.0067
1755.00,0.0068
1754.75,0.0069
1754.50,0.0071
1754.25,0.0071
1754.00,0.0071
1753.75,0.0070
1753.50,0.0069
1753.25,0.0068
1753.00,0.0068
1752.75,0.0067
1752.50,0.0067
1752.25,0.0067
1752.00,0.0067
1751.75,0.0067
1751.50,0.0068
1751.25,0.0068
1751.00,0.0067
1750.75,0.0068
1750.50,0.0069
1750.25,0.0069
1750.00,0.0070
1749.75,0.0071
1749.50,0.0072
1749.25,0.0073
1749.00,0.0073
1748.75,0.0073
1748.50,0.0072
1748.25,0.0071
1748.00,0.0070
1747.75,0.0070
1747.50,0.0071
1747.25,0.0072
1747.00,0.0072
1746.75,0.0072
1746.50,0.0072
1746.25,0.0072
1746.00,0.0072
1745.75,0.0072
1745.50,0.0073
1745.25,0.0073
1745.00,0.0074
1744.75,0.0074
1744.50,0.0073
1744.25,0.0072
1744.00,0.0070
1743.75,0.0070
1743.50,0.0069
1743.25,0.0069
1743.00,0.0070
1742.75,0.0070
1742.50,0.0069
1742.25,0.0068
1742.00,0.0068
1741.75,0.0068
1741.50,0.0068
1741.25,0.0069
1741.00,0.0070
1740.75,0.0070
1740.50,0.0071
1740.25,0.0071
1740.00,0.0071
1739.75,0.0071
1739.50,0.0072
1739.25,0.0073
1739.00,0.0073
1738.75,0.0071
1738.50,0.0069
1738.25,0.0068
1738.00,0.0067
1737.75,0.0067
1737.50,0.0068
1737.25,0.0069
1737.00,0.0069
1736.75,0.0070
1736.50,0.0071
1736.25,0.0072
1736.00,0.0073
1735.75,0.0074
1735.50,0.0074
1735.25,0.0073
1735.00,0.0071
1734.75,0.0068
1734.50,0.0064
1734.25,0.0064
1734.00,0.0067
1733.75,0.0069
1733.50,0.0069
1733.25,0.0068
1733.00,0.0067
1732.75,0.0068
1732.50,0.0068
1732.25,0.0069
1732.00,0.0071
1731.75,0.0073
1731.50,0.0074
1731.25,0.0075
1731.00,0.0076
1730.75,0.0076
1730.50,0.0076
1730.25,0.0075
1730.00,0.0073
1729.75,0.0071
1729.50,0.0070
1729.25,0.0070
1729.00,0.0071
1728.75,0.0071
1728.50,0.0071
1728.25,0.0071
1728.00,0.0071
1727.75,0.0071
1727.50,0.0071
1727.25,0.0071
1727.00,0.0071
1726.75,0.0071
1726.50,0.0071
1726.25,0.0071
1726.00,0.0072
1725.75,0.0073
1725.50,0.0073
1725.25,0.0073
1725.00,0.0071
1724.75,0.0071
1724.50,0.0070
1724.25,0.0071
1724.00,0.0072
1723.75,0.0073
1723.50,0.0074
1723.25,0.0074
1723.00,0.0074
1722.75,0.0074
1722.50,0.0074
1722.25,0.0074
1722.00,0.0074
1721.75,0.0073
1721.50,0.0072
1721.25,0.0071
1721.00,0.0071
1720.75,0.0070
1720.50,0.0071
1720.25,0.0072
1720.00,0.0073
1719.75,0.0073
1719.50,0.0074
1719.25,0.0076
1719.00,0.0077
1718.75,0.0078
1718.50,0.0077
1718.25,0.0075
1718.00,0.0072
1717.75,0.0067
1717.50,0.0060
1717.25,0.0056
1717.00,0.0058
1716.75,0.0063
1716.50,0.0067
1716.25,0.0069
1716.00,0.0071
1715.75,0.0073
1715.50,0.0075
1715.25,0.0077
1715.00,0.0078
1714.75,0.0077
1714.50,0.0076
1714.25,0.0076
1714.00,0.0076
1713.75,0.0077
1713.50,0.0077
1713.25,0.0076
1713.00,0.0075
1712.75,0.0074
1712.50,0.0073
1712.25,0.0073
1712.00,0.0073
1711.75,0.0073
1711.50,0.0075
1711.25,0.0076
1711.00,0.0076
1710.75,0.0076
1710.50,0.0075
1710.25,0.0074
1710.00,0.0073
1709.75,0.0072
1709.50,0.0072
1709.25,0.0072
1709.00,0.0072
1708.75,0.0071
1708.50,0.0071
1708.25,0.0071
1708.00,0.0071
1707.75,0.0071
1707.50,0.0072
1707.25,0.0072
1707.00,0.0072
1706.75,0.0072
1706.50,0.0073
1706.25,0.0073
1706.00,0.0074
1705.75,0.0074
1705.50,0.0074
1705.25,0.0074
1705.00,0.0073
1704.75,0.0074
1704.50,0.0075
1704.25,0.0077
1704.00,0.0078
1703.75,0.0079
1703.50,0.0078
1703.25,0.0077
1703.00,0.0075
1702.75,0.0074
1702.50,0.0073
1702.25,0.0072
1702.00,0.0071
1701.75,0.0071
1701.50,0.0071
1701.25,0.0073
1701.00,0.0075
1700.75,0.0078
1700.50,0.0076
1700.25,0.0062
1700.00,0.0058
1699.75,0.0068
1699.50,0.0073
1699.25,0.0073
1699.00,0.0073
1698.75,0.0073
1698.50,0.0074
1698.25,0.0074
1698.00,0.0074
1697.75,0.0074
1697.50,0.0073
1697.25,0.0072
1697.00,0.0071
1696.75,0.0070
1696.50,0.0069
1696.25,0.0070
1696.00,0.0074
1695.75,0.0076
1695.50,0.0075
1695.25,0.0075
1695.00,0.0074
1694.75,0.0073
1694.50,0.0074
1694.25,0.0074
1694.00,0.0074
1693.75,0.0073
1693.50,0.0072
1693.25,0.0072
1693.00,0.0072
1692.75,0.0073
1692.50,0.0075
1692.25,0.0076
1692.00,0.0077
1691.75,0.0078
1691.50,0.0079
1691.25,0.0078
1691.00,0.0076
1690.75,0.0074
1690.50,0.0072
1690.25,0.0071
1690.00,0.0071
1689.75,0.0072
1689.50,0.0073
1689.25,0.0074
1689.00,0.0074
1688.75,0.0075
1688.50,0.0075
1688.25,0.0076
1688.00,0.0077
1687.75,0.0078
1687.50,0.0079
1687.25,0.0079
1687.00,0.0077
1686.75,0.0075
1686.50,0.0074
1686.25,0.0074
1686.00,0.0074
1685.75,0.0075
1685.50,0.0076
1685.25,0.0079
1685.00,0.0086
1684.75,0.0095
1684.50,0.0100
1684.25,0.0096
1684.00,0.0089
1683.75,0.0084
1683.50,0.0080
1683.25,0.0076
1683.00,0.0073
1682.75,0.0072
1682.50,0.0073
1682.25,0.0074
1682.00,0.0075
1681.75,0.0076
1681.50,0.0077
1681.25,0.0077
1681.00,0.0077
1680.75,0.0076
1680.50,0.0076
1680.25,0.0076
1680.00,0.0076
1679.75,0.0076
1679.50,0.0076
1679.25,0.0075
1679.00,0.0075
1678.75,0.0075
1678.50,0.0076
1678.25,0.0076
1678.00,0.0076
1677.75,0.0076
1677.50,0.0076
1677.25,0.0076
1677.00,0.0075
1676.75,0.0074
1676.50,0.0072
1676.25,0.0071
1676.00,0.0069
1675.75,0.0068
1675.50,0.0067
1675.25,0.0067
1675.00,0.0070
1674.75,0.0075
1674.50,0.0076
1674.25,0.0076
1674.00,0.0075
1673.75,0.0075
1673.50,0.0075
1673.25,0.0076
1673.00,0.0077
1672.75,0.0077
1672.50,0.0078
1672.25,0.0079
1672.00,0.0080
1671.75,0.0080
1671.50,0.0080
1671.25,0.0080
1671.00,0.0079
1670.75,0.0078
1670.50,0.0077
1670.25,0.0076
1670.00,0.0076
1669.75,0.0076
1669.50,0.0077
1669.25,0.0077
1669.00,0.0078
1668.75,0.0079
1668.50,0.0078
1668.25,0.0077
1668.00,0.0076
1667.75,0.0076
1667.50,0.0076
1667.25,0.0076
1667.00,0.0076
1666.75,0.0077
1666.50,0.0077
1666.25,0.0077
1666.00,0.0076
1665.75,0.0076
1665.50,0.0076
1665.25,0.0076
1665.00,0.0076
1664.75,0.0075
1664.50,0.0075
1664.25,0.0076
1664.00,0.0076
1663.75,0.0076
1663.50,0.0076
1663.25,0.0076
1663.00,0.0076
1662.75,0.0076
1662.50,0.0078
1662.25,0.0081
1662.00,0.0082
1661.75,0.0082
1661.50,0.0082
1661.25,0.0081
1661.00,0.0079
1660.75,0.0078
1660.50,0.0077
1660.25,0.0076
1660.00,0.0076
1659.75,0.0076
1659.50,0.0076
1659.25,0.0076
1659.00,0.0076
1658.75,0.0075
1658.50,0.0075
1658.25,0.0075
1658.00,0.0075
1657.75,0.0075
1657.50,0.0075
1657.25,0.0075
1657.00,0.0075
1656.75,0.0075
1656.50,0.0076
1656.25,0.0076
1656.00,0.0076
1655.75,0.0076
1655.50,0.0076
1655.25,0.0076
1655.00,0.0077
1654.75,0.0078
1654.50,0.0080
1654.25,0.0081
1654.00,0.0079
1653.75,0.0075
1653.50,0.0069
1653.25,0.0064
1653.00,0.0058
1652.75,0.0055
1652.50,0.0063
1652.25,0.0073
1652.00,0.0077
1651.75,0.0077
1651.50,0.0076
1651.25,0.0076
1651.00,0.0076
1650.75,0.0077
1650.50,0.0078
1650.25,0.0079
1650.00,0.0080
1649.75,0.0080
1649.50,0.0080
1649.25,0.0080
1649.00,0.0080
1648.75,0.0081
1648.50,0.0082
1648.25,0.0083
1648.00,0.0083
1647.75,0.0083
1647.50,0.0081
1647.25,0.0079
1647.00,0.0077
1646.75,0.0076
1646.50,0.0075
1646.25,0.0076
1646.00,0.0077
1645.75,0.0077
1645.50,0.0077
1645.25,0.0076
1645.00,0.0075
1644.75,0.0074
1644.50,0.0074
1644.25,0.0074
1644.00,0.0075
1643.75,0.0076
1643.50,0.0076
1643.25,0.0077
1643.00,0.0078
1642.75,0.0079
1642.50,0.0080
1642.25,0.0081
1642.00,0.0081
1641.75,0.0081
1641.50,0.0081
1641.25,0.0080
1641.00,0.0080
1640.75,0.0080
1640.50,0.0079
1640.25,0.0078
1640.00,0.0077
1639.75,0.0076
1639.50,0.0076
1639.25,0.0077
1639.00,0.0078
1638.75,0.0079
1638.50,0.0079
1638.25,0.0078
1638.00,0.0078
1637.75,0.0078
1637.50,0.0079
1637.25,0.0080
1637.00,0.0081
1636.75,0.0082
1636.50,0.0082
1636.25,0.0083
1636.00,0.0085
1635.75,0.0089
1635.50,0.0093
1635.25,0.0090
1635.00,0.0084
1634.75,0.0080
1634.50,0.0078
1634.25,0.0077
1634.00,0.0077
1633.75,0.0078
1633.50,0.0080
1633.25,0.0081
1633.00,0.0082
1632.75,0.0083
1632.50,0.0083
1632.25,0.0082
1632.00,0.0081
1631.75,0.0079
1631.50,0.0078
1631.25,0.0078
1631.00,0.0078
1630.75,0.0079
1630.50,0.0080
1630.25,0.0080
1630.00,0.0080
1629.75,0.0080
1629.50,0.0081
1629.25,0.0081
1629.00,0.0082
1628.75,0.0082
1628.50,0.0082
1628.25,0.0081
1628.00,0.0079
1627.75,0.0077
1627.50,0.0077
1627.25,0.0078
1627.00,0.0080
1626.75,0.0082
1626.50,0.0082
1626.25,0.0083
1626.00,0.0083
1625.75,0.0083
1625.50,0.0083
1625.25,0.0084
1625.00,0.0084
1624.75,0.0083
1624.50,0.0082
1624.25,0.0081
1624.00,0.0080
1623.75,0.0079
1623.50,0.0077
1623.25,0.0076
1623.00,0.0076
1622.75,0.0076
1622.50,0.0077
1622.25,0.0078
1622.00,0.0079
1621.75,0.0081
1621.50,0.0082
1621.25,0.0082
1621.00,0.0082
1620.75,0.0081
1620.50,0.0080
1620.25,0.0079
1620.00,0.0079
1619.75,0.0079
1619.50,0.0079
1619.25,0.0080
1619.00,0.0080
1618.75,0.0081
1618.50,0.0081
1618.25,0.0081
1618.00,0.0081
1617.75,0.0081
1617.50,0.0080
1617.25,0.0079
1617.00,0.0078
1616.75,0.0076
1616.50,0.0072
1616.25,0.0072
1616.00,0.0074
1615.75,0.0075
1615.50,0.0077
1615.25,0.0079
1615.00,0.0081
1614.75,0.0083
1614.50,0.0083
1614.25,0.0082
1614.00,0.0082
1613.75,0.0081
1613.50,0.0082
1613.25,0.0083
1613.00,0.0083
1612.75,0.0083
1612.50,0.0082
1612.25,0.0081
1612.00,0.0081
1611.75,0.0081
1611.50,0.0081
1611.25,0.0081
1611.00,0.0081
1610.75,0.0081
1610.50,0.0081
1610.25,0.0082
1610.00,0.0084
1609.75,0.0085
1609.50,0.0086
1609.25,0.0086
1609.00,0.0086
1608.75,0.0085
1608.50,0.0084
1608.25,0.0083
1608.00,0.0082
1607.75,0.0082
1607.50,0.0083
1607.25,0.0085
1607.00,0.0086
1606.75,0.0087
1606.50,0.0087
1606.25,0.0086
1606.00,0.0085
1605.75,0.0084
1605.50,0.0082
1605.25,0.0081
1605.00,0.0080
1604.75,0.0079
1604.50,0.0078
1604.25,0.0079
1604.00,0.0080
1603.75,0.0081
1603.50,0.0082
1603.25,0.0083
1603.00,0.0083
1602.75,0.0083
1602.50,0.0083
1602.25,0.0083
1602.00,0.0083
1601.75,0.0084
1601.50,0.0084
1601.25,0.0085
1601.00,0.0085
1600.75,0.0086
1600.50,0.0086
1600.25,0.0085
1600.00,0.0085
1599.75,0.0085
1599.50,0.0085
1599.25,0.0086
1599.00,0.0087
1598.75,0.0087
1598.50,0.0086
1598.25,0.0086
1598.00,0.0085
1597.75,0.0085
1597.50,0.0085
1597.25,0.0086
1597.00,0.0087
1596.75,0.0088
1596.50,0.0088
1596.25,0.0088
1596.00,0.0087
1595.75,0.0086
1595.50,0.0085
1595.25,0.0085
1595.00,0.0086
1594.75,0.0086
1594.50,0.0087
1594.25,0.0087
1594.00,0.0087
1593.75,0.0087
1593.50,0.0086
1593.25,0.0086
1593.00,0.0086
1592.75,0.0085
1592.50,0.0084
1592.25,0.0083
1592.00,0.0082
1591.75,0.0082
1591.50,0.0082
1591.25,0.0083
1591.00,0.0084
1590.75,0.0085
1590.50,0.0086
1590.25,0.0086
1590.00,0.0084
1589.75,0.0083
1589.50,0.0082
1589.25,0.0082
1589.00,0.0083
1588.75,0.0084
1588.50,0.0085
1588.25,0.0085
1588.00,0.0085
1587.75,0.0085
1587.50,0.0084
1587.25,0.0082
1587.00,0.0080
1586.75,0.0079
1586.50,0.0079
1586.25,0.0080
1586.00,0.0081
1585.75,0.0082
1585.50,0.0082
1585.25,0.0083
1585.00,0.0083
1584.75,0.0084
1584.50,0.0084
1584.25,0.0085
1584.00,0.0084
1583.75,0.0084
1583.50,0.0082
1583.25,0.0081
1583.00,0.0080
1582.75,0.0080
1582.50,0.0080
1582.25,0.0081
1582.00,0.0082
1581.75,0.0082
1581.50,0.0083
1581.25,0.0083
1581.00,0.0083
1580.75,0.0083
1580.50,0.0082
1580.25,0.0081
1580.00,0.0081
1579.75,0.0081
1579.50,0.0082
1579.25,0.0083
1579.00,0.0084
1578.75,0.0083
1578.50,0.0082
1578.25,0.0081
1578.00,0.0080
1577.75,0.0080
1577.50,0.0080
1577.25,0.0081
1577.00,0.0082
1576.75,0.0082
1576.50,0.0080
1576.25,0.0075
1576.00,0.0067
1575.75,0.0066
1575.50,0.0070
1575.25,0.0073
1575.00,0.0076
1574.75,0.0078
1574.50,0.0079
1574.25,0.0079
1574.00,0.0078
1573.75,0.0078
1573.50,0.0078
1573.25,0.0079
1573.00,0.0080
1572.75,0.0081
1572.50,0.0082
1572.25,0.0082
1572.00,0.0081
1571.75,0.0081
1571.50,0.0081
1571.25,0.0081
1571.00,0.0081
1570.75,0.0081
1570.50,0.0081
1570.25,0.0082
1570.00,0.0082
1569.75,0.0082
1569.50,0.0081
1569.25,0.0079
1569.00,0.0078
1568.75,0.0077
1568.50,0.0077
1568.25,0.0078
1568.00,0.0079
1567.75,0.0080
1567.50,0.0081
1567.25,0.0081
1567.00,0.0081
1566.75,0.0081
1566.50,0.0081
1566.25,0.0082
1566.00,0.0082
1565.75,0.0083
1565.50,0.0083
1565.25,0.0084
1565.00,0.0083
1564.75,0.0081
1564.50,0.0079
1564.25,0.0078
1564.00,0.0077
1563.75,0.0077
1563.50,0.0077
1563.25,0.0077
1563.00,0.0077
1562.75,0.0077
1562.50,0.0077
1562.25,0.0077
1562.00,0.0078
1561.75,0.0079
1561.50,0.0080
1561.25,0.0081
1561.00,0.0081
1560.75,0.0081
1560.50,0.0082
1560.25,0.0085
1560.00,0.0084
1559.75,0.0079
1559.50,0.0079
1559.25,0.0081
1559.00,0.0084
1558.75,0.0089
1558.50,0.0095
1558.25,0.0100
1558.00,0.0100
1557.75,0.0097
1557.50,0.0093
1557.25,0.0090
1557.00,0.0087
1556.75,0.0084
1556.50,0.0081
1556.25,0.0080
1556.00,0.0080
1555.75,0.0081
1555.50,0.0081
1555.25,0.0082
1555.00,0.0082
1554.75,0.0081
1554.50,0.0079
1554.25,0.0077
1554.00,0.0076
1553.75,0.0077
1553.50,0.0077
1553.25,0.0077
1553.00,0.0077
1552.75,0.0077
1552.50,0.0078
1552.25,0.0078
1552.00,0.0079
1551.75,0.0079
1551.50,0.0080
1551.25,0.0080
1551.00,0.0079
1550.75,0.0079
1550.50,0.0079
1550.25,0.0079
1550.00,0.0078
1549.75,0.0079
1549.50,0.0080
1549.25,0.0081
1549.00,0.0081
1548.75,0.0080
1548.50,0.0079
1548.25,0.0078
1548.00,0.0078
1547.75,0.0077
1547.50,0.0077
1547.25,0.0077
1547.00,0.0077
1546.75,0.0077
1546.50,0.0078
1546.25,0.0079
1546.00,0.0080
1545.75,0.0081
1545.50,0.0081
1545.25,0.0078
1545.00,0.0075
1544.75,0.0074
1544.50,0.0075
1544.25,0.0075
1544.00,0.0075
1543.75,0.0075
1543.50,0.0074
1543.25,0.0074
1543.00,0.0074
1542.75,0.0074
1542.50,0.0074
1542.25,0.0074
1542.00,0.0073
1541.75,0.0074
1541.50,0.0077
1541.25,0.0078
1541.00,0.0079
1540.75,0.0080
1540.50,0.0082
1540.25,0.0084
1540.00,0.0084
1539.75,0.0084
1539.50,0.0085
1539.25,0.0085
1539.00,0.0084
1538.75,0.0081
1538.50,0.0078
1538.25,0.0076
1538.00,0.0074
1537.75,0.0073
1537.50,0.0073
1537.25,0.0073
1537.00,0.0073
1536.75,0.0074
1536.50,0.0075
1536.25,0.0075
1536.00,0.0076
1535.75,0.0077
1535.50,0.0078
1535.25,0.0078
1535.00,0.0078
1534.75,0.0078
1534.50,0.0077
1534.25,0.0076
1534.00,0.0075
1533.75,0.0076
1533.50,0.0078
1533.25,0.0081
1533.00,0.0083
1532.75,0.0083
1532.50,0.0082
1532.25,0.0080
1532.00,0.0078
1531.75,0.0077
1531.50,0.0076
1531.25,0.0076
1531.00,0.0077
1530.75,0.0078
1530.50,0.0079
1530.25,0.0080
1530.00,0.0080
1529.75,0.0080
1529.50,0.0079
1529.25,0.0078
1529.00,0.0076
1528.75,0.0074
1528.50,0.0074
1528.25,0.0074
1528.00,0.0076
1527.75,0.0079
1527.50,0.0081
1527.25,0.0082
1527.00,0.0082
1526.75,0.0081
1526.50,0.0080
1526.25,0.0079
1526.00,0.0078
1525.75,0.0078
1525.50,0.0077
1525.25,0.0078
1525.00,0.0080
1524.75,0.0081
1524.50,0.0081
1524.25,0.0080
1524.00,0.0078
1523.75,0.0076
1523.50,0.0074
1523.25,0.0074
1523.00,0.0076
1522.75,0.0078
1522.50,0.0080
1522.25,0.0081
1522.00,0.0081
1521.75,0.0081
1521.50,0.0081
1521.25,0.0080
1521.00,0.0080
1520.75,0.0081
1520.50,0.0081
1520.25,0.0081
1520.00,0.0080
1519.75,0.0080
1519.50,0.0079
1519.25,0.0079
1519.00,0.0078
1518.75,0.0077
1518.50,0.0077
1518.25,0.0077
1518.00,0.0078
1517.75,0.0079
1517.50,0.0082
1517.25,0.0084
1517.00,0.0085
1516.75,0.0086
1516.50,0.0086
1516.25,0.0085
1516.00,0.0083
1515.75,0.0082
1515.50,0.0081
1515.25,0.0080
1515.00,0.0081
1514.75,0.0081
1514.50,0.0080
1514.25,0.0079
1514.00,0.0078
1513.75,0.0077
1513.50,0.0077
1513.25,0.0077
1513.00,0.0077
1512.75,0.0077
1512.50,0.0077
1512.25,0.0078
1512.00,0.0077
1511.75,0.0077
1511.50,0.0076
1511.25,0.0075
1511.00,0.0074
1510.75,0.0075
1510.50,0.0076
1510.25,0.0077
1510.00,0.0079
1509.75,0.0080
1509.50,0.0081
1509.25,0.0081
1509.00,0.0081
1508.75,0.0079
1508.50,0.0078
1508.25,0.0076
1508.00,0.0074
1507.75,0.0073
1507.50,0.0071
1507.25,0.0071
1507.00,0.0072
1506.75,0.0075
1506.50,0.0077
1506.25,0.0077
1506.00,0.0074
1505.75,0.0070
1505.50,0.0068
1505.25,0.0069
1505.00,0.0072
1504.75,0.0074
1504.50,0.0075
1504.25,0.0076
1504.00,0.0076
1503.75,0.0076
1503.50,0.0076
1503.25,0.0078
1503.00,0.0079
1502.75,0.0080
1502.50,0.0080
1502.25,0.0079
1502.00,0.0078
1501.75,0.0077
1501.50,0.0077
1501.25,0.0077
1501.00,0.0078
1500.75,0.0079
1500.50,0.0079
1500.25,0.0080
1500.00,0.0080
1499.75,0.0080
1499.50,0.0080
1499.25,0.0081
1499.00,0.0082
1498.75,0.0082
1498.50,0.0081
1498.25,0.0079
1498.00,0.0077
1497.75,0.0076
1497.50,0.0076
1497.25,0.0077
1497.00,0.0077
1496.75,0.0078
1496.50,0.0079
1496.25,0.0080
1496.00,0.0079
1495.75,0.0078
1495.50,0.0077
1495.25,0.0076
1495.00,0.0075
1494.75,0.0075
1494.50,0.0075
1494.25,0.0075
1494.00,0.0076
1493.75,0.0078
1493.50,0.0081
1493.25,0.0082
1493.00,0.0082
1492.75,0.0081
1492.50,0.0079
1492.25,0.0078
1492.00,0.0077
1491.75,0.0077
1491.50,0.0079
1491.25,0.0081
1491.00,0.0083
1490.75,0.0084
1490.50,0.0083
1490.25,0.0082
1490.00,0.0080
1489.75,0.0078
1489.50,0.0079
1489.25,0.0080
1489.00,0.0081
1488.75,0.0081
1488.50,0.0080
1488.25,0.0080
1488.00,0.0080
1487.75,0.0080
1487.50,0.0079
1487.25,0.0078
1487.00,0.0078
1486.75,0.0078
1486.50,0.0079
1486.25,0.0080
1486.00,0.0081
1485.75,0.0081
1485.50,0.0081
1485.25,0.0080
1485.00,0.0079
1484.75,0.0078
1484.50,0.0079
1484.25,0.0080
1484.00,0.0080
1483.75,0.0081
1483.50,0.0081
1483.25,0.0083
1483.00,0.0084
1482.75,0.0085
1482.50,0.0085
1482.25,0.0085
1482.00,0.0084
1481.75,0.0083
1481.50,0.0083
1481.25,0.0083
1481.00,0.0083
1480.75,0.0082
1480.50,0.0082
1480.25,0.0082
1480.00,0.0082
1479.75,0.0082
1479.50,0.0081
1479.25,0.0081
1479.00,0.0081
1478.75,0.0082
1478.50,0.0082
1478.25,0.0082
1478.00,0.0082
1477.75,0.0081
1477.50,0.0081
1477.25,0.0080
1477.00,0.0080
1476.75,0.0081
1476.50,0.0082
1476.25,0.0083
1476.00,0.0083
1475.75,0.0082
1475.50,0.0081
1475.25,0.0080
1475.00,0.0080
1474.75,0.0080
1474.50,0.0080
1474.25,0.0081
1474.00,0.0083
1473.75,0.0087
1473.50,0.0090
1473.25,0.0090
1473.00,0.0088
1472.75,0.0083
1472.50,0.0078
1472.25,0.0075
1472.00,0.0074
1471.75,0.0076
1471.50,0.0081
1471.25,0.0083
1471.00,0.0083
1470.75,0.0082
1470.50,0.0081
1470.25,0.0081
1470.00,0.0082
1469.75,0.0082
1469.50,0.0083
1469.25,0.0083
1469.00,0.0083
1468.75,0.0082
1468.50,0.0082
1468.25,0.0083
1468.00,0.0084
1467.75,0.0084
1467.50,0.0085
1467.25,0.0085
1467.00,0.0086
1466.75,0.0086
1466.50,0.0087
1466.25,0.0086
1466.00,0.0086
1465.75,0.0086
1465.50,0.0086
1465.25,0.0086
1465.00,0.0087
1464.75,0.0088
1464.50,0.0090
1464.25,0.0090
1464.00,0.0089
1463.75,0.0088
1463.50,0.0087
1463.25,0.0087
1463.00,0.0087
1462.75,0.0087
1462.50,0.0088
1462.25,0.0089
1462.00,0.0090
1461.75,0.0090
1461.50,0.0091
1461.25,0.0091
1461.00,0.0092
1460.75,0.0093
1460.50,0.0094
1460.25,0.0094
1460.00,0.0093
1459.75,0.0092
1459.50,0.0091
1459.25,0.0091
1459.00,0.0090
1458.75,0.0089
1458.50,0.0089
1458.25,0.0089
1458.00,0.0091
1457.75,0.0092
1457.50,0.0092
1457.25,0.0091
1457.00,0.0087
1456.75,0.0083
1456.50,0.0084
1456.25,0.0090
1456.00,0.0093
1455.75,0.0094
1455.50,0.0096
1455.25,0.0096
1455.00,0.0097
1454.75,0.0098
1454.50,0.0099
1454.25,0.0100
1454.00,0.0100
1453.75,0.0100
1453.50,0.0099
1453.25,0.0099
1453.00,0.0099
1452.75,0.0100
1452.50,0.0101
1452.25,0.0102
1452.00,0.0102
1451.75,0.0103
1451.50,0.0104
1451.25,0.0104
1451.00,0.0105
1450.75,0.0105
1450.50,0.0105
1450.25,0.0104
1450.00,0.0103
1449.75,0.0102
1449.50,0.0101
1449.25,0.0101
1449.00,0.0102
1448.75,0.0102
1448.50,0.0103
1448.25,0.0104
1448.00,0.0106
1447.75,0.0108
1447.50,0.0109
1447.25,0.0111
1447.00,0.0111
1446.75,0.0112
1446.50,0.0112
1446.25,0.0113
1446.00,0.0113
1445.75,0.0113
1445.50,0.0113
1445.25,0.0113
1445.00,0.0112
1444.75,0.0112
1444.50,0.0112
1444.25,0.0112
1444.00,0.0111
1443.75,0.0111
1443.50,0.0111
1443.25,0.0111
1443.00,0.0110
1442.75,0.0110
1442.50,0.0110
1442.25,0.0110
1442.00,0.0110
1441.75,0.0110
1441.50,0.0109
1441.25,0.0109
1441.00,0.0108
1440.75,0.0107
1440.50,0.0106
1440.25,0.0105
1440.00,0.0104
1439.75,0.0104
1439.50,0.0104
1439.25,0.0105
1439.00,0.0105
1438.75,0.0104
1438.50,0.0103
1438.25,0.0101
1438.00,0.0101
1437.75,0.0101
1437.50,0.0102
1437.25,0.0104
1437.00,0.0106
1436.75,0.0107
1436.50,0.0107
1436.25,0.0107
1436.00,0.0105
1435.75,0.0103
1435.50,0.0102
1435.25,0.0100
1435.00,0.0098
1434.75,0.0097
1434.50,0.0097
1434.25,0.0097
1434.00,0.0098
1433.75,0.0100
1433.50,0.0100
1433.25,0.0101
1433.00,0.0101
1432.75,0.0100
1432.50,0.0100
1432.25,0.0099
1432.00,0.0099
1431.75,0.0099
1431.50,0.0100
1431.25,0.0101
1431.00,0.0102
1430.75,0.0102
1430.50,0.0102
1430.25,0.0100
1430.00,0.0099
1429.75,0.0099
1429.50,0.0099
1429.25,0.0100
1429.00,0.0101
1428.75,0.0101
1428.50,0.0102
1428.25,0.0104
1428.00,0.0106
1427.75,0.0108
1427.50,0.0110
1427.25,0.0110
1427.00,0.0110
1426.75,0.0109
1426.50,0.0107
1426.25,0.0107
1426.00,0.0108
1425.75,0.0110
1425.50,0.0111
1425.25,0.0112
1425.00,0.0112
1424.75,0.0111
1424.50,0.0110
1424.25,0.0111
1424.00,0.0112
1423.75,0.0115
1423.50,0.0117
1423.25,0.0119
1423.00,0.0119
1422.75,0.0119
1422.50,0.0119
1422.25,0.0120
1422.00,0.0122
1421.75,0.0125
1421.50,0.0127
1421.25,0.0128
1421.00,0.0130
1420.75,0.0131
1420.50,0.0131
1420.25,0.0131
1420.00,0.0131
1419.75,0.0130
1419.50,0.0130
1419.25,0.0132
1419.00,0.0137
1418.75,0.0143
1418.50,0.0145
1418.25,0.0146
1418.00,0.0146
1417.75,0.0147
1417.50,0.0148
1417.25,0.0149
1417.00,0.0151
1416.75,0.0152
1416.50,0.0153
1416.25,0.0154
1416.00,0.0155
1415.75,0.0156
1415.50,0.0158
1415.25,0.0158
1415.00,0.0158
1414.75,0.0159
1414.50,0.0160
1414.25,0.0162
1414.00,0.0164
1413.75,0.0166
1413.50,0.0166
1413.25,0.0166
1413.00,0.0166
1412.75,0.0165
1412.50,0.0166
1412.25,0.0166
1412.00,0.0168
1411.75,0.0169
1411.50,0.0169
1411.25,0.0169
1411.00,0.0169
1410.75,0.0168
1410.50,0.0168
1410.25,0.0168
1410.00,0.0168
1409.75,0.0168
1409.50,0.0168
1409.25,0.0168
1409.00,0.0167
1408.75,0.0167
1408.50,0.0166
1408.25,0.0166
1408.00,0.0166
1407.75,0.0165
1407.50,0.0165
1407.25,0.0164
1407.00,0.0162
1406.75,0.0161
1406.50,0.0161
1406.25,0.0160
1406.00,0.0160
1405.75,0.0160
1405.50,0.0159
1405.25,0.0158
1405.00,0.0157
1404.75,0.0156
1404.50,0.0156
1404.25,0.0156
1404.00,0.0157
1403.75,0.0157
1403.50,0.0157
1403.25,0.0157
1403.00,0.0155
1402.75,0.0154
1402.50,0.0152
1402.25,0.0151
1402.00,0.0150
1401.75,0.0150
1401.50,0.0150
1401.25,0.0150
1401.00,0.0150
1400.75,0.0150
1400.50,0.0149
1400.25,0.0148
1400.00,0.0147
1399.75,0.0147
1399.50,0.0147
1399.25,0.0148
1399.00,0.0148
1398.75,0.0147
1398.50,0.0146
1398.25,0.0144
1398.00,0.0142
1397.75,0.0141
1397.50,0.0140
1397.25,0.0139
1397.00,0.0138
1396.75,0.0136
1396.50,0.0135
1396.25,0.0133
1396.00,0.0132
1395.75,0.0131
1395.50,0.0130
1395.25,0.0128
1395.00,0.0127
1394.75,0.0126
1394.50,0.0123
1394.25,0.0121
1394.00,0.0121
1393.75,0.0121
1393.50,0.0122
1393.25,0.0122
1393.00,0.0121
1392.75,0.0120
1392.50,0.0119
1392.25,0.0117
1392.00,0.0115
1391.75,0.0114
1391.50,0.0114
1391.25,0.0113
1391.00,0.0112
1390.75,0.0110
1390.50,0.0109
1390.25,0.0108
1390.00,0.0107
1389.75,0.0107
1389.50,0.0107
1389.25,0.0107
1389.00,0.0107
1388.75,0.0107
1388.50,0.0106
1388.25,0.0104
1388.00,0.0103
1387.75,0.0103
1387.50,0.0104
1387.25,0.0106
1387.00,0.0107
1386.75,0.0107
1386.50,0.0106
1386.25,0.0105
1386.00,0.0104
1385.75,0.0103
1385.50,0.0103
1385.25,0.0103
1385.00,0.0103
1384.75,0.0102
1384.50,0.0101
1384.25,0.0099
1384.00,0.0098
1383.75,0.0097
1383.50,0.0097
1383.25,0.0098
1383.00,0.0100
1382.75,0.0101
1382.50,0.0101
1382.25,0.0101
1382.00,0.0100
1381.75,0.0099
1381.50,0.0098
1381.25,0.0098
1381.00,0.0098
1380.75,0.0098
1380.50,0.0098
1380.25,0.0099
1380.00,0.0098
1379.75,0.0097
1379.50,0.0096
1379.25,0.0095
1379.00,0.0095
1378.75,0.0094
1378.50,0.0094
1378.25,0.0094
1378.00,0.0094
1377.75,0.0094
1377.50,0.0095
1377.25,0.0095
1377.00,0.0096
1376.75,0.0096
1376.50,0.0096
1376.25,0.0095
1376.00,0.0094
1375.75,0.0093
1375.50,0.0092
1375.25,0.0091
1375.00,0.0092
1374.75,0.0094
1374.50,0.0096
1374.25,0.0097
1374.00,0.0098
1373.75,0.0098
1373.50,0.0098
1373.25,0.0098
1373.00,0.0097
1372.75,0.0096
1372.50,0.0095
1372.25,0.0094
1372.00,0.0093
1371.75,0.0093
1371.50,0.0094
1371.25,0.0095
1371.00,0.0095
1370.75,0.0095
1370.50,0.0094
1370.25,0.0093
1370.00,0.0093
1369.75,0.0093
1369.50,0.0094
1369.25,0.0095
1369.00,0.0096
1368.75,0.0097
1368.50,0.0096
1368.25,0.0095
1368.00,0.0094
1367.75,0.0093
1367.50,0.0092
1367.25,0.0092
1367.00,0.0092
1366.75,0.0091
1366.50,0.0091
1366.25,0.0090
1366.00,0.0090
1365.75,0.0090
1365.50,0.0091
1365.25,0.0091
1365.00,0.0092
1364.75,0.0092
1364.50,0.0092
1364.25,0.0091
1364.00,0.0090
1363.75,0.0089
1363.50,0.0089
1363.25,0.0090
1363.00,0.0091
1362.75,0.0092
1362.50,0.0092
1362.25,0.0090
1362.00,0.0089
1361.75,0.0088
1361.50,0.0088
1361.25,0.0088
1361.00,0.0089
1360.75,0.0090
1360.50,0.0090
1360.25,0.0090
1360.00,0.0090
1359.75,0.0090
1359.50,0.0090
1359.25,0.0090
1359.00,0.0090
1358.75,0.0090
1358.50,0.0089
1358.25,0.0090
1358.00,0.0090
1357.75,0.0090
1357.50,0.0090
1357.25,0.0089
1357.00,0.0087
1356.75,0.0086
1356.50,0.0086
1356.25,0.0086
1356.00,0.0087
1355.75,0.0088
1355.50,0.0088
1355.25,0.0088
1355.00,0.0089
1354.75,0.0091
1354.50,0.0093
1354.25,0.0094
1354.00,0.0094
1353.75,0.0093
1353.50,0.0093
1353.25,0.0093
1353.00,0.0092
1352.75,0.0092
1352.50,0.0091
1352.25,0.0091
1352.00,0.0091
1351.75,0.0091
1351.50,0.0090
1351.25,0.0089
1351.00,0.0088
1350.75,0.0088
1350.50,0.0087
1350.25,0.0088
1350.00,0.0088
1349.75,0.0088
1349.50,0.0089
1349.25,0.0089
1349.00,0.0089
1348.75,0.0089
1348.50,0.0089
1348.25,0.0089
1348.00,0.0089
1347.75,0.0090
1347.50,0.0090
1347.25,0.0091
1347.00,0.0091
1346.75,0.0091
1346.50,0.0091
1346.25,0.0091
1346.00,0.0091
1345.75,0.0091
1345.50,0.0091
1345.25,0.0091
1345.00,0.0091
1344.75,0.0090
1344.50,0.0089
1344.25,0.0089
1344.00,0.0090
1343.75,0.0091
1343.50,0.0092
1343.25,0.0091
1343.00,0.0091
1342.75,0.0091
1342.50,0.0091
1342.25,0.0090
1342.00,0.0090
1341.75,0.0090
1341.50,0.0090
1341.25,0.0089
1341.00,0.0088
1340.75,0.0088
1340.50,0.0088
1340.25,0.0089
1340.00,0.0090
1339.75,0.0090
1339.50,0.0090
1339.25,0.0091
1339.00,0.0092
1338.75,0.0092
1338.50,0.0091
1338.25,0.0090
1338.00,0.0088
1337.75,0.0088
1337.50,0.0088
1337.25,0.0090
1337.00,0.0092
1336.75,0.0093
1336.50,0.0093
1336.25,0.0093
1336.00,0.0092
1335.75,0.0092
1335.50,0.0092
1335.25,0.0092
1335.00,0.0092
1334.75,0.0091
1334.50,0.0091
1334.25,0.0091
1334.00,0.0092
1333.75,0.0093
1333.50,0.0093
1333.25,0.0093
1333.00,0.0092
1332.75,0.0092
1332.50,0.0092
1332.25,0.0092
1332.00,0.0091
1331.75,0.0091
1331.50,0.0090
1331.25,0.0090
1331.00,0.0090
1330.75,0.0091
1330.50,0.0092
1330.25,0.0092
1330.00,0.0091
1329.75,0.0090
1329.50,0.0090
1329.25,0.0090
1329.00,0.0091
1328.75,0.0092
1328.50,0.0092
1328.25,0.0093
1328.00,0.0092
1327.75,0.0092
1327.50,0.0092
1327.25,0.0092
1327.00,0.0093
1326.75,0.0094
1326.50,0.0095
1326.25,0.0095
1326.00,0.0094
1325.75,0.0093
1325.50,0.0093
1325.25,0.0093
1325.00,0.0093
1324.75,0.0093
1324.50,0.0093
1324.25,0.0093
1324.00,0.0092
1323.75,0.0093
1323.50,0.0093
1323.25,0.0094
1323.00,0.0095
1322.75,0.0095
1322.50,0.0096
1322.25,0.0096
1322.00,0.0096
1321.75,0.0096
1321.50,0.0096
1321.25,0.0096
1321.00,0.0096
1320.75,0.0097
1320.50,0.0098
1320.25,0.0099
1320.00,0.0099
1319.75,0.0098
1319.50,0.0098
1319.25,0.0098
1319.00,0.0097
1318.75,0.0097
1318.50,0.0097
1318.25,0.0097
1318.00,0.0097
1317.75,0.0098
1317.50,0.0098
1317.25,0.0098
1317.00,0.0098
1316.75,0.0097
1316.50,0.0096
1316.25,0.0096
1316.00,0.0096
1315.75,0.0097
1315.50,0.0098
1315.25,0.0099
1315.00,0.0099
1314.75,0.0100
1314.50,0.0100
1314.25,0.0101
1314.00,0.0101
1313.75,0.0100
1313.50,0.0100
1313.25,0.0099
1313.00,0.0100
1312.75,0.0101
1312.50,0.0102
1312.25,0.0102
1312.00,0.0102
1311.75,0.0101
1311.50,0.0101
1311.25,0.0101
1311.00,0.0102
1310.75,0.0102
1310.50,0.0102
1310.25,0.0103
1310.00,0.0103
1309.75,0.0105
1309.50,0.0106
1309.25,0.0107
1309.00,0.0107
1308.75,0.0107
1308.50,0.0106
1308.25,0.0105
1308.00,0.0104
1307.75,0.0104
1307.50,0.0103
1307.25,0.0103
1307.00,0.0104
1306.75,0.0105
1306.50,0.0106
1306.25,0.0107
1306.00,0.0107
1305.75,0.0108
1305.50,0.0108
1305.25,0.0108
1305.00,0.0108
1304.75,0.0108
1304.50,0.0107
1304.25,0.0107
1304.00,0.0107
1303.75,0.0107
1303.50,0.0108
1303.25,0.0108
1303.00,0.0109
1302.75,0.0110
1302.50,0.0110
1302.25,0.0110
1302.00,0.0110
1301.75,0.0111
1301.50,0.0113
1301.25,0.0115
1301.00,0.0116
1300.75,0.0115
1300.50,0.0114
1300.25,0.0113
1300.00,0.0113
1299.75,0.0112
1299.50,0.0113
1299.25,0.0113
1299.00,0.0113
1298.75,0.0113
1298.50,0.0113
1298.25,0.0113
1298.00,0.0114
1297.75,0.0115
1297.50,0.0116
1297.25,0.0117
1297.00,0.0118
1296.75,0.0118
1296.50,0.0118
1296.25,0.0118
1296.00,0.0119
1295.75,0.0119
1295.50,0.0119
1295.25,0.0118
1295.00,0.0117
1294.75,0.0116
1294.50,0.0116
1294.25,0.0117
1294.00,0.0119
1293.75,0.0121
1293.50,0.0122
1293.25,0.0122
1293.00,0.0122
1292.75,0.0123
1292.50,0.0124
1292.25,0.0125
1292.00,0.0125
1291.75,0.0125
1291.50,0.0126
1291.25,0.0126
1291.00,0.0127
1290.75,0.0128
1290.50,0.0128
1290.25,0.0128
1290.00,0.0128
1289.75,0.0128
1289.50,0.0129
1289.25,0.0131
1289.00,0.0133
1288.75,0.0133
1288.50,0.0134
1288.25,0.0134
1288.00,0.0134
1287.75,0.0134
1287.50,0.0135
1287.25,0.0134
1287.00,0.0134
1286.75,0.0133
1286.50,0.0132
1286.25,0.0133
1286.00,0.0135
1285.75,0.0137
1285.50,0.0139
1285.25,0.0140
1285.00,0.0142
1284.75,0.0143
1284.50,0.0145
1284.25,0.0146
1284.00,0.0148
1283.75,0.0148
1283.50,0.0148
1283.25,0.0148
1283.00,0.0148
1282.75,0.0149
1282.50,0.0149
1282.25,0.0150
1282.00,0.0151
1281.75,0.0153
1281.50,0.0155
1281.25,0.0157
1281.00,0.0160
1280.75,0.0162
1280.50,0.0164
1280.25,0.0165
1280.00,0.0167
1279.75,0.0167
1279.50,0.0169
1279.25,0.0171
1279.00,0.0173
1278.75,0.0176
1278.50,0.0180
1278.25,0.0183
1278.00,0.0185
1277.75,0.0187
1277.50,0.0188
1277.25,0.0189
1277.00,0.0191
1276.75,0.0194
1276.50,0.0197
1276.25,0.0200
1276.00,0.0204
1275.75,0.0207
1275.50,0.0211
1275.25,0.0214
1275.00,0.0217
1274.75,0.0221
1274.50,0.0224
1274.25,0.0228
1274.00,0.0233
1273.75,0.0238
1273.50,0.0244
1273.25,0.0250
1273.00,0.0256
1272.75,0.0262
1272.50,0.0269
1272.25,0.0277
1272.00,0.0284
1271.75,0.0292
1271.50,0.0300
1271.25,0.0308
1271.00,0.0318
1270.75,0.0328
1270.50,0.0339
1270.25,0.0351
1270.00,0.0364
1269.75,0.0377
1269.50,0.0391
1269.25,0.0405
1269.00,0.0421
1268.75,0.0439
1268.50,0.0458
1268.25,0.0479
1268.00,0.0501
1267.75,0.0525
1267.50,0.0550
1267.25,0.0576
1267.00,0.0604
1266.75,0.0634
1266.50,0.0666
1266.25,0.0699
1266.00,0.0735
1265.75,0.0771
1265.50,0.0808
1265.25,0.0845
1265.00,0.0884
1264.75,0.0925
1264.50,0.0967
1264.25,0.1011
1264.00,0.1055
1263.75,0.1101
1263.50,0.1146
1263.25,0.1192
1263.00,0.1239
1262.75,0.1285
1262.50,0.1330
1262.25,0.1373
1262.00,0.1412
1261.75,0.1450
1261.50,0.1486
1261.25,0.1520
1261.00,0.1552
1260.75,0.1582
1260.50,0.1609
1260.25,0.1633
1260.00,0.1655
1259.75,0.1675
1259.50,0.1690
1259.25,0.1701
1259.00,0.1708
1258.75,0.1712
1258.50,0.1714
1258.25,0.1713
1258.00,0.1709
1257.75,0.1702
1257.50,0.1691
1257.25,0.1676
1257.00,0.1657
1256.75,0.1635
1256.50,0.1612
1256.25,0.1589
1256.00,0.1564
1255.75,0.1540
1255.50,0.1514
1255.25,0.1489
1255.00,0.1463
1254.75,0.1437
1254.50,0.1410
1254.25,0.1383
1254.00,0.1356
1253.75,0.1328
1253.50,0.1299
1253.25,0.1269
1253.00,0.1239
1252.75,0.1208
1252.50,0.1175
1252.25,0.1142
1252.00,0.1107
1251.75,0.1071
1251.50,0.1035
1251.25,0.0998
1251.00,0.0960
1250.75,0.0922
1250.50,0.0885
1250.25,0.0848
1250.00,0.0813
1249.75,0.0778
1249.50,0.0744
1249.25,0.0711
1249.00,0.0678
1248.75,0.0646
1248.50,0.0617
1248.25,0.0590
1248.00,0.0565
1247.75,0.0542
1247.50,0.0520
1247.25,0.0499
1247.00,0.0479
1246.75,0.0461
1246.50,0.0444
1246.25,0.0429
1246.00,0.0413
1245.75,0.0399
1245.50,0.0384
1245.25,0.0372
1245.00,0.0360
1244.75,0.0350
1244.50,0.0340
1244.25,0.0331
1244.00,0.0323
1243.75,0.0316
1243.50,0.0310
1243.25,0.0304
1243.00,0.0298
1242.75,0.0292
1242.50,0.0286
1242.25,0.0279
1242.00,0.0273
1241.75,0.0268
1241.50,0.0263
1241.25,0.0260
1241.00,0.0257
1240.75,0.0255
1240.50,0.0252
1240.25,0.0248
1240.00,0.0243
1239.75,0.0238
1239.50,0.0234
1239.25,0.0231
1239.00,0.0229
1238.75,0.0227
1238.50,0.0225
1238.25,0.0223
1238.00,0.0221
1237.75,0.0219
1237.50,0.0217
1237.25,0.0216
1237.00,0.0214
1236.75,0.0212
1236.50,0.0211
1236.25,0.0209
1236.00,0.0208
1235.75,0.0207
1235.50,0.0207
1235.25,0.0206
1235.00,0.0205
1234.75,0.0203
1234.50,0.0200
1234.25,0.0197
1234.00,0.0196
1233.75,0.0196
1233.50,0.0196
1233.25,0.0197
1233.00,0.0197
1232.75,0.0197
1232.50,0.0196
1232.25,0.0196
1232.00,0.0196
1231.75,0.0196
1231.50,0.0196
1231.25,0.0195
1231.00,0.0194
1230.75,0.0193
1230.50,0.0192
1230.25,0.0191
1230.00,0.0191
1229.75,0.0191
1229.50,0.0192
1229.25,0.0193
1229.00,0.0194
1228.75,0.0195
1228.50,0.0195
1228.25,0.0195
1228.00,0.0196
1227.75,0.0196
1227.50,0.0196
1227.25,0.0195
1227.00,0.0194
1226.75,0.0193
1226.50,0.0191
1226.25,0.0191
1226.00,0.0191
1225.75,0.0192
1225.50,0.0193
1225.25,0.0195
1225.00,0.0196
1224.75,0.0197
1224.50,0.0198
1224.25,0.0199
1224.00,0.0199
1223.75,0.0199
1223.50,0.0199
1223.25,0.0199
1223.00,0.0200
1222.75,0.0201
1222.50,0.0202
1222.25,0.0203
1222.00,0.0205
1221.75,0.0206
1221.50,0.0207
1221.25,0.0208
1221.00,0.0208
1220.75,0.0208
1220.50,0.0209
1220.25,0.0209
1220.00,0.0210
1219.75,0.0211
1219.50,0.0212
1219.25,0.0213
1219.00,0.0214
1218.75,0.0215
1218.50,0.0218
1218.25,0.0221
1218.00,0.0224
1217.75,0.0225
1217.50,0.0225
1217.25,0.0225
1217.00,0.0224
1216.75,0.0224
1216.50,0.0224
1216.25,0.0225
1216.00,0.0227
1215.75,0.0228
1215.50,0.0230
1215.25,0.0231
1215.00,0.0232
1214.75,0.0233
1214.50,0.0234
1214.25,0.0235
1214.00,0.0237
1213.75,0.0238
1213.50,0.0240
1213.25,0.0241
1213.00,0.0242
1212.75,0.0243
1212.50,0.0244
1212.25,0.0246
1212.00,0.0248
1211.75,0.0250
1211.50,0.0251
1211.25,0.0253
1211.00,0.0254
1210.75,0.0255
1210.50,0.0257
1210.25,0.0258
1210.00,0.0258
1209.75,0.0257
1209.50,0.0257
1209.25,0.0257
1209.00,0.0259
1208.75,0.0261
1208.50,0.0263
1208.25,0.0263
1208.00,0.0263
1207.75,0.0263
1207.50,0.0263
1207.25,0.0265
1207.00,0.0268
1206.75,0.0271
1206.50,0.0274
1206.25,0.0276
1206.00,0.0275
1205.75,0.0274
1205.50,0.0274
1205.25,0.0274
1205.00,0.0276
1204.75,0.0279
1204.50,0.0281
1204.25,0.0282
1204.00,0.0283
1203.75,0.0284
1203.50,0.0286
1203.25,0.0288
1203.00,0.0290
1202.75,0.0292
1202.50,0.0293
1202.25,0.0294
1202.00,0.0295
1201.75,0.0295
1201.50,0.0295
1201.25,0.0295
1201.00,0.0296
1200.75,0.0297
1200.50,0.0298
1200.25,0.0298
1200.00,0.0299
1199.75,0.0299
1199.50,0.0299
1199.25,0.0300
1199.00,0.0302
1198.75,0.0305
1198.50,0.0308
1198.25,0.0310
1198.00,0.0312
1197.75,0.0312
1197.50,0.0311
1197.25,0.0311
1197.00,0.0311
1196.75,0.0312
1196.50,0.0314
1196.25,0.0316
1196.00,0.0317
1195.75,0.0318
1195.50,0.0318
1195.25,0.0318
1195.00,0.0318
1194.75,0.0318
1194.50,0.0319
1194.25,0.0319
1194.00,0.0320
1193.75,0.0320
1193.50,0.0320
1193.25,0.0319
1193.00,0.0319
1192.75,0.0319
1192.50,0.0319
1192.25,0.0320
1192.00,0.0320
1191.75,0.0321
1191.50,0.0323
1191.25,0.0324
1191.00,0.0325
1190.75,0.0325
1190.50,0.0325
1190.25,0.0325
1190.00,0.0326
1189.75,0.0327
1189.50,0.0327
1189.25,0.0327
1189.00,0.0327
1188.75,0.0327
1188.50,0.0327
1188.25,0.0328
1188.00,0.0328
1187.75,0.0329
1187.50,0.0329
1187.25,0.0330
1187.00,0.0331
1186.75,0.0332
1186.50,0.0333
1186.25,0.0334
1186.00,0.0335
1185.75,0.0336
1185.50,0.0337
1185.25,0.0337
1185.00,0.0338
1184.75,0.0339
1184.50,0.0339
1184.25,0.0339
1184.00,0.0339
1183.75,0.0340
1183.50,0.0339
1183.25,0.0339
1183.00,0.0338
1182.75,0.0337
1182.50,0.0336
1182.25,0.0336
1182.00,0.0337
1181.75,0.0337
1181.50,0.0338
1181.25,0.0339
1181.00,0.0339
1180.75,0.0339
1180.50,0.0339
1180.25,0.0340
1180.00,0.0341
1179.75,0.0342
1179.50,0.0343
1179.25,0.0343
1179.00,0.0343
1178.75,0.0341
1178.50,0.0340
1178.25,0.0340
1178.00,0.0340
1177.75,0.0340
1177.50,0.0340
1177.25,0.0340
1177.00,0.0341
1176.75,0.0342
1176.50,0.0344
1176.25,0.0346
1176.00,0.0347
1175.75,0.0348
1175.50,0.0348
1175.25,0.0347
1175.00,0.0347
1174.75,0.0347
1174.50,0.0347
1174.25,0.0347
1174.00,0.0347
1173.75,0.0346
1173.50,0.0345
1173.25,0.0345
1173.00,0.0345
1172.75,0.0347
1172.50,0.0348
1172.25,0.0350
1172.00,0.0351
1171.75,0.0351
1171.50,0.0351
1171.25,0.0350
1171.00,0.0350
1170.75,0.0350
1170.50,0.0352
1170.25,0.0353
1170.00,0.0355
1169.75,0.0356
1169.50,0.0357
1169.25,0.0358
1169.00,0.0357
1168.75,0.0357
1168.50,0.0356
1168.25,0.0355
1168.00,0.0355
1167.75,0.0354
1167.50,0.0353
1167.25,0.0352
1167.00,0.0353
1166.75,0.0355
1166.50,0.0357
1166.25,0.0359
1166.00,0.0360
1165.75,0.0362
1165.50,0.0362
1165.25,0.0362
1165.00,0.0361
1164.75,0.0359
1164.50,0.0358
1164.25,0.0358
1164.00,0.0358
1163.75,0.0359
1163.50,0.0360
1163.25,0.0360
1163.00,0.0361
1162.75,0.0362
1162.50,0.0362
1162.25,0.0363
1162.00,0.0363
1161.75,0.0363
1161.50,0.0362
1161.25,0.0361
1161.00,0.0361
1160.75,0.0362
1160.50,0.0364
1160.25,0.0365
1160.00,0.0366
1159.75,0.0366
1159.50,0.0365
1159.25,0.0364
1159.00,0.0364
1158.75,0.0365
1158.50,0.0367
1158.25,0.0370
1158.00,0.0372
1157.75,0.0373
1157.50,0.0373
1157.25,0.0372
1157.00,0.0370
1156.75,0.0369
1156.50,0.0368
1156.25,0.0369
1156.00,0.0371
1155.75,0.0374
1155.50,0.0376
1155.25,0.0378
1155.00,0.0380
1154.75,0.0381
1154.50,0.0381
1154.25,0.0381
1154.00,0.0381
1153.75,0.0380
1153.50,0.0380
1153.25,0.0382
1153.00,0.0383
1152.75,0.0384
1152.50,0.0385
1152.25,0.0385
1152.00,0.0385
1151.75,0.0385
1151.50,0.0387
1151.25,0.0389
1151.00,0.0390
1150.75,0.0392
1150.50,0.0394
1150.25,0.0396
1150.00,0.0398
1149.75,0.0399
1149.50,0.0401
1149.25,0.0402
1149.00,0.0403
1148.75,0.0403
1148.50,0.0404
1148.25,0.0405
1148.00,0.0405
1147.75,0.0405
1147.50,0.0404
1147.25,0.0403
1147.00,0.0402
1146.75,0.0404
1146.50,0.0407
1146.25,0.0410
1146.00,0.0413
1145.75,0.0414
1145.50,0.0414
1145.25,0.0414
1145.00,0.0414
1144.75,0.0414
1144.50,0.0415
1144.25,0.0417
1144.00,0.0419
1143.75,0.0422
1143.50,0.0426
1143.25,0.0428
1143.00,0.0430
1142.75,0.0431
1142.50,0.0432
1142.25,0.0433
1142.00,0.0434
1141.75,0.0436
1141.50,0.0438
1141.25,0.0440
1141.00,0.0441
1140.75,0.0443
1140.50,0.0444
1140.25,0.0446
1140.00,0.0447
1139.75,0.0449
1139.50,0.0453
1139.25,0.0456
1139.00,0.0460
1138.75,0.0463
1138.50,0.0465
1138.25,0.0465
1138.00,0.0466
1137.75,0.0467
1137.50,0.0470
1137.25,0.0473
1137.00,0.0476
1136.75,0.0477
1136.50,0.0478
1136.25,0.0479
1136.00,0.0479
1135.75,0.0481
1135.50,0.0483
1135.25,0.0486
1135.00,0.0488
1134.75,0.0491
1134.50,0.0493
1134.25,0.0495
1134.00,0.0496
1133.75,0.0499
1133.50,0.0502
1133.25,0.0507
1133.00,0.0511
1132.75,0.0515
1132.50,0.0517
1132.25,0.0519
1132.00,0.0522
1131.75,0.0525
1131.50,0.0528
1131.25,0.0531
1131.00,0.0535
1130.75,0.0538
1130.50,0.0541
1130.25,0.0543
1130.00,0.0544
1129.75,0.0544
1129.50,0.0544
1129.25,0.0546
1129.00,0.0548
1128.75,0.0552
1128.50,0.0557
1128.25,0.0562
1128.00,0.0567
1127.75,0.0572
1127.50,0.0576
1127.25,0.0580
1127.00,0.0584
1126.75,0.0589
1126.50,0.0594
1126.25,0.0598
1126.00,0.0603
1125.75,0.0607
1125.50,0.0611
1125.25,0.0616
1125.00,0.0621
1124.75,0.0625
1124.50,0.0630
1124.25,0.0634
1124.00,0.0637
1123.75,0.0642
1123.50,0.0647
1123.25,0.0654
1123.00,0.0660
1122.75,0.0667
1122.50,0.0673
1122.25,0.0679
1122.00,0.0685
1121.75,0.0690
1121.50,0.0694
1121.25,0.0698
1121.00,0.0703
1120.75,0.0708
1120.50,0.0716
1120.25,0.0724
1120.00,0.0731
1119.75,0.0738
1119.50,0.0743
1119.25,0.0747
1119.00,0.0752
1118.75,0.0756
1118.50,0.0762
1118.25,0.0768
1118.00,0.0776
1117.75,0.0785
1117.50,0.0794
1117.25,0.0804
1117.00,0.0812
1116.75,0.0819
1116.50,0.0827
1116.25,0.0834
1116.00,0.0842
1115.75,0.0851
1115.50,0.0860
1115.25,0.0868
1115.00,0.0876
1114.75,0.0884
1114.50,0.0891
1114.25,0.0899
1114.00,0.0909
1113.75,0.0919
1113.50,0.0930
1113.25,0.0941
1113.00,0.0951
1112.75,0.0959
1112.50,0.0968
1112.25,0.0976
1112.00,0.0984
1111.75,0.0993
1111.50,0.1003
1111.25,0.1015
1111.00,0.1027
1110.75,0.1040
1110.50,0.1051
1110.25,0.1061
1110.00,0.1071
1109.75,0.1081
1109.50,0.1091
1109.25,0.1101
1109.00,0.1111
1108.75,0.1121
1108.50,0.1132
1108.25,0.1144
1108.00,0.1156
1107.75,0.1169
1107.50,0.1182
1107.25,0.1195
1107.00,0.1208
1106.75,0.1221
1106.50,0.1233
1106.25,0.1246
1106.00,0.1258
1105.75,0.1270
1105.50,0.1283
1105.25,0.1295
1105.00,0.1307
1104.75,0.1319
1104.50,0.1331
1104.25,0.1343
1104.00,0.1354
1103.75,0.1366
1103.50,0.1378
1103.25,0.1392
1103.00,0.1407
1102.75,0.1424
1102.50,0.1440
1102.25,0.1455
1102.00,0.1468
1101.75,0.1480
1101.50,0.1490
1101.25,0.1500
1101.00,0.1511
1100.75,0.1524
1100.50,0.1539
1100.25,0.1555
1100.00,0.1572
1099.75,0.1587
1099.50,0.1602
1099.25,0.1617
1099.00,0.1633
1098.75,0.1650
1098.50,0.1667
1098.25,0.1683
1098.00,0.1697
1097.75,0.1710
1097.50,0.1722
1097.25,0.1735
1097.00,0.1748
1096.75,0.1761
1096.50,0.1775
1096.25,0.1788
1096.00,0.1802
1095.75,0.1816
1095.50,0.1831
1095.25,0.1847
1095.00,0.1863
1094.75,0.1881
1094.50,0.1900
1094.25,0.1917
1094.00,0.1933
1093.75,0.1946
1093.50,0.1960
1093.25,0.1974
1093.00,0.1989
1092.75,0.2004
1092.50,0.2017
1092.25,0.2030
1092.00,0.2041
1091.75,0.2053
1091.50,0.2065
1091.25,0.2078
1091.00,0.2092
1090.75,0.2109
1090.50,0.2126
1090.25,0.2144
1090.00,0.2160
1089.75,0.2174
1089.50,0.2186
1089.25,0.2196
1089.00,0.2206
1088.75,0.2217
1088.50,0.2230
1088.25,0.2244
1088.00,0.2258
1087.75,0.2273
1087.50,0.2289
1087.25,0.2304
1087.00,0.2319
1086.75,0.2333
1086.50,0.2346
1086.25,0.2360
1086.00,0.2374
1085.75,0.2388
1085.50,0.2400
1085.25,0.2410
1085.00,0.2419
1084.75,0.2427
1084.50,0.2433
1084.25,0.2440
1084.00,0.2449
1083.75,0.2460
1083.50,0.2473
1083.25,0.2486
1083.00,0.2498
1082.75,0.2507
1082.50,0.2515
1082.25,0.2523
1082.00,0.2532
1081.75,0.2542
1081.50,0.2554
1081.25,0.2565
1081.00,0.2576
1080.75,0.2586
1080.50,0.2594
1080.25,0.2601
1080.00,0.2608
1079.75,0.2613
1079.50,0.2619
1079.25,0.2624
1079.00,0.2630
1078.75,0.2636
1078.50,0.2643
1078.25,0.2649
1078.00,0.2655
1077.75,0.2661
1077.50,0.2667
1077.25,0.2675
1077.00,0.2683
1076.75,0.2691
1076.50,0.2699
1076.25,0.2704
1076.00,0.2709
1075.75,0.2714
1075.50,0.2719
1075.25,0.2726
1075.00,0.2732
1074.75,0.2738
1074.50,0.2743
1074.25,0.2747
1074.00,0.2749
1073.75,0.2752
1073.50,0.2755
1073.25,0.2759
1073.00,0.2764
1072.75,0.2768
1072.50,0.2771
1072.25,0.2771
1072.00,0.2771
1071.75,0.2770
1071.50,0.2771
1071.25,0.2774
1071.00,0.2779
1070.75,0.2786
1070.50,0.2793
1070.25,0.2800
1070.00,0.2806
1069.75,0.2811
1069.50,0.2814
1069.25,0.2817
1069.00,0.2818
1068.75,0.2818
1068.50,0.2818
1068.25,0.2819
1068.00,0.2821
1067.75,0.2823
1067.50,0.2825
1067.25,0.2828
1067.00,0.2831
1066.75,0.2834
1066.50,0.2837
1066.25,0.2839
1066.00,0.2841
1065.75,0.2842
1065.50,0.2843
1065.25,0.2845
1065.00,0.2845
1064.75,0.2845
1064.50,0.2843
1064.25,0.2841
1064.00,0.2840
1063.75,0.2840
1063.50,0.2843
1063.25,0.2847
1063.00,0.2851
1062.75,0.2854
1062.50,0.2855
1062.25,0.2854
1062.00,0.2851
1061.75,0.2849
1061.50,0.2848
1061.25,0.2848
1061.00,0.2850
1060.75,0.2851
1060.50,0.2850
1060.25,0.2849
1060.00,0.2848
1059.75,0.2848
1059.50,0.2849
1059.25,0.2850
1059.00,0.2852
1058.75,0.2854
1058.50,0.2857
1058.25,0.2860
1058.00,0.2861
1057.75,0.2859
1057.50,0.2854
1057.25,0.2849
1057.00,0.2844
1056.75,0.2841
1056.50,0.2839
1056.25,0.2839
1056.00,0.2839
1055.75,0.2839
1055.50,0.2838
1055.25,0.2836
1055.00,0.2833
1054.75,0.2830
1054.50,0.2827
1054.25,0.2826
1054.00,0.2826
1053.75,0.2826
1053.50,0.2824
1053.25,0.2820
1053.00,0.2815
1052.75,0.2809
1052.50,0.2803
1052.25,0.2798
1052.00,0.2794
1051.75,0.2790
1051.50,0.2788
1051.25,0.2787
1051.00,0.2786
1050.75,0.2785
1050.50,0.2783
1050.25,0.2782
1050.00,0.2780
1049.75,0.2777
1049.50,0.2773
1049.25,0.2768
1049.00,0.2766
1048.75,0.2765
1048.50,0.2765
1048.25,0.2766
1048.00,0.2766
1047.75,0.2765
1047.50,0.2763
1047.25,0.2761
1047.00,0.2759
1046.75,0.2757
1046.50,0.2755
1046.25,0.2751
1046.00,0.2746
1045.75,0.2740
1045.50,0.2736
1045.25,0.2733
1045.00,0.2733
1044.75,0.2734
1044.50,0.2735
1044.25,0.2735
1044.00,0.2734
1043.75,0.2734
1043.50,0.2735
1043.25,0.2736
1043.00,0.2737
1042.75,0.2739
1042.50,0.2740
1042.25,0.2741
1042.00,0.2741
1041.75,0.2743
1041.50,0.2744
1041.25,0.2745
1041.00,0.2746
1040.75,0.2745
1040.50,0.2744
1040.25,0.2742
1040.00,0.2741
1039.75,0.2741
1039.50,0.2745
1039.25,0.2749
1039.00,0.2752
1038.75,0.2753
1038.50,0.2752
1038.25,0.2752
1038.00,0.2753
1037.75,0.2756
1037.50,0.2759
1037.25,0.2763
1037.00,0.2766
1036.75,0.2770
1036.50,0.2773
1036.25,0.2777
1036.00,0.2781
1035.75,0.2786
1035.50,0.2790
1035.25,0.2794
1035.00,0.2798
1034.75,0.2800
1034.50,0.2803
1034.25,0.2808
1034.00,0.2814
1033.75,0.2820
1033.50,0.2827
1033.25,0.2834
1033.00,0.2841
1032.75,0.2849
1032.50,0.2856
1032.25,0.2861
1032.00,0.2865
1031.75,0.2867
1031.50,0.2872
1031.25,0.2878
1031.00,0.2887
1030.75,0.2897
1030.50,0.2906
1030.25,0.2913
1030.00,0.2917
1029.75,0.2921
1029.50,0.2927
1029.25,0.2937
1029.00,0.2951
1028.75,0.2966
1028.50,0.2981
1028.25,0.2993
1028.00,0.3001
1027.75,0.3007
1027.50,0.3012
1027.25,0.3017
1027.00,0.3025
1026.75,0.3034
1026.50,0.3045
1026.25,0.3056
1026.00,0.3069
1025.75,0.3083
1025.50,0.3098
1025.25,0.3115
1025.00,0.3131
1024.75,0.3146
1024.50,0.3160
1024.25,0.3170
1024.00,0.3178
1023.75,0.3186
1023.50,0.3196
1023.25,0.3210
1023.00,0.3225
1022.75,0.3242
1022.50,0.3258
1022.25,0.3273
1022.00,0.3288
1021.75,0.3303
1021.50,0.3319
1021.25,0.3335
1021.00,0.3350
1020.75,0.3365
1020.50,0.3381
1020.25,0.3398
1020.00,0.3417
1019.75,0.3437
1019.50,0.3456
1019.25,0.3475
1019.00,0.3492
1018.75,0.3510
1018.50,0.3528
1018.25,0.3548
1018.00,0.3568
1017.75,0.3585
1017.50,0.3599
1017.25,0.3608
1017.00,0.3616
1016.75,0.3627
1016.50,0.3640
1016.25,0.3658
1016.00,0.3676
1015.75,0.3694
1015.50,0.3710
1015.25,0.3724
1015.00,0.3736
1014.75,0.3747
1014.50,0.3756
1014.25,0.3762
1014.00,0.3766
1013.75,0.3767
1013.50,0.3767
1013.25,0.3768
1013.00,0.3770
1012.75,0.3771
1012.50,0.3771
1012.25,0.3768
1012.00,0.3761
1011.75,0.3751
1011.50,0.3739
1011.25,0.3725
1011.00,0.3709
1010.75,0.3691
1010.50,0.3671
1010.25,0.3651
1010.00,0.3630
1009.75,0.3606
1009.50,0.3578
1009.25,0.3546
1009.00,0.3513
1008.75,0.3478
1008.50,0.3441
1008.25,0.3402
1008.00,0.3360
1007.75,0.3316
1007.50,0.3270
1007.25,0.3225
1007.00,0.3180
1006.75,0.3136
1006.50,0.3093
1006.25,0.3048
1006.00,0.3002
1005.75,0.2954
1005.50,0.2903
1005.25,0.2852
1005.00,0.2800
1004.75,0.2750
1004.50,0.2702
1004.25,0.2654
1004.00,0.2606
1003.75,0.2557
1003.50,0.2506
1003.25,0.2453
1003.00,0.2399
1002.75,0.2345
1002.50,0.2292
1002.25,0.2241
1002.00,0.2193
1001.75,0.2148
1001.50,0.2104
1001.25,0.2061
1001.00,0.2018
1000.75,0.1975
1000.50,0.1933
1000.25,0.1891
1000.00,0.1850
999.75,0.1808
999.50,0.1767
999.25,0.1727
999.00,0.1688
998.75,0.1650
998.50,0.1613
998.25,0.1576
998.00,0.1541
997.75,0.1507
997.50,0.1474
997.25,0.1443
997.00,0.1412
996.75,0.1383
996.50,0.1356
996.25,0.1331
996.00,0.1306
995.75,0.1280
995.50,0.1253
995.25,0.1225
995.00,0.1199
994.75,0.1175
994.50,0.1152
994.25,0.1130
994.00,0.1108
993.75,0.1087
993.50,0.1067
993.25,0.1047
993.00,0.1028
992.75,0.1008
992.50,0.0989
992.25,0.0971
992.00,0.0953
991.75,0.0935
991.50,0.0919
991.25,0.0904
991.00,0.0890
990.75,0.0876
990.50,0.0862
990.25,0.0846
990.00,0.0830
989.75,0.0814
989.50,0.0799
989.25,0.0786
989.00,0.0775
988.75,0.0764
988.50,0.0753
988.25,0.0742
988.00,0.0731
987.75,0.0720
987.50,0.0708
987.25,0.0697
987.00,0.0687
986.75,0.0678
986.50,0.0668
986.25,0.0658
986.00,0.0647
985.75,0.0637
985.50,0.0627
985.25,0.0619
985.00,0.0612
984.75,0.0607
984.50,0.0603
984.25,0.0597
984.00,0.0589
983.75,0.0579
983.50,0.0569
983.25,0.0558
983.00,0.0548
982.75,0.0539
982.50,0.0532
982.25,0.0526
982.00,0.0521
981.75,0.0517
981.50,0.0513
981.25,0.0508
981.00,0.0503
980.75,0.0497
980.50,0.0491
980.25,0.0485
980.00,0.0478
979.75,0.0472
979.50,0.0467
979.25,0.0462
979.00,0.0458
978.75,0.0455
978.50,0.0452
978.25,0.0448
978.00,0.0444
977.75,0.0439
977.50,0.0434
977.25,0.0428
977.00,0.0421
976.75,0.0415
976.50,0.0410
976.25,0.0407
976.00,0.0405
975.75,0.0402
975.50,0.0398
975.25,0.0393
975.00,0.0389
974.75,0.0387
974.50,0.0385
974.25,0.0383
974.00,0.0381
973.75,0.0377
973.50,0.0373
973.25,0.0369
973.00,0.0365
972.75,0.0360
972.50,0.0356
972.25,0.0353
972.00,0.0350
971.75,0.0349
971.50,0.0350
971.25,0.0350
971.00,0.0350
970.75,0.0349
970.50,0.0346
970.25,0.0342
970.00,0.0338
969.75,0.0335
969.50,0.0332
969.25,0.0330
969.00,0.0329
968.75,0.0328
968.50,0.0326
968.25,0.0324
968.00,0.0321
967.75,0.0320
967.50,0.0319
967.25,0.0319
967.00,0.0319
966.75,0.0318
966.50,0.0316
966.25,0.0314
966.00,0.0312
965.75,0.0311
965.50,0.0310
965.25,0.0308
965.00,0.0305
964.75,0.0300
964.50,0.0297
964.25,0.0294
964.00,0.0294
963.75,0.0296
963.50,0.0297
963.25,0.0297
963.00,0.0295
962.75,0.0293
962.50,0.0290
962.25,0.0288
962.00,0.0287
961.75,0.0285
961.50,0.0284
961.25,0.0282
961.00,0.0282
960.75,0.0282
960.50,0.0284
960.25,0.0285
960.00,0.0286
959.75,0.0286
959.50,0.0285
959.25,0.0285
959.00,0.0284
958.75,0.0284
958.50,0.0283
958.25,0.0282
958.00,0.0281
957.75,0.0280
957.50,0.0278
957.25,0.0276
957.00,0.0274
956.75,0.0274
956.50,0.0275
956.25,0.0277
956.00,0.0278
955.75,0.0278
955.50,0.0276
955.25,0.0273
955.00,0.0271
954.75,0.0270
954.50,0.0268
954.25,0.0266
954.00,0.0264
953.75,0.0262
953.50,0.0260
953.25,0.0258
953.00,0.0258
952.75,0.0257
952.50,0.0256
952.25,0.0254
952.00,0.0251
951.75,0.0247
951.50,0.0244
951.25,0.0241
951.00,0.0239
950.75,0.0237
950.50,0.0235
950.25,0.0235
950.00,0.0235
949.75,0.0236
949.50,0.0237
949.25,0.0238
949.00,0.0238
948.75,0.0238
948.50,0.0238
948.25,0.0238
948.00,0.0237
947.75,0.0235
947.50,0.0232
947.25,0.0227
947.00,0.0225
946.75,0.0223
946.50,0.0223
946.25,0.0224
946.00,0.0223
945.75,0.0222
945.50,0.0221
945.25,0.0219
945.00,0.0217
944.75,0.0214
944.50,0.0213
944.25,0.0212
944.00,0.0213
943.75,0.0215
943.50,0.0215
943.25,0.0215
943.00,0.0215
942.75,0.0216
942.50,0.0217
942.25,0.0218
942.00,0.0219
941.75,0.0218
941.50,0.0218
941.25,0.0217
941.00,0.0217
940.75,0.0217
940.50,0.0218
940.25,0.0218
940.00,0.0217
939.75,0.0215
939.50,0.0213
939.25,0.0212
939.00,0.0213
938.75,0.0214
938.50,0.0214
938.25,0.0212
938.00,0.0209
937.75,0.0208
937.50,0.0210
937.25,0.0212
937.00,0.0215
936.75,0.0216
936.50,0.0215
936.25,0.0212
936.00,0.0209
935.75,0.0207
935.50,0.0206
935.25,0.0207
935.00,0.0208
934.75,0.0211
934.50,0.0214
934.25,0.0217
934.00,0.0219
933.75,0.0220
933.50,0.0220
933.25,0.0220
933.00,0.0221
932.75,0.0221
932.50,0.0222
932.25,0.0223
932.00,0.0224
931.75,0.0226
931.50,0.0226
931.25,0.0226
931.00,0.0225
930.75,0.0226
930.50,0.0227
930.25,0.0228
930.00,0.0230
929.75,0.0233
929.50,0.0235
929.25,0.0236
929.00,0.0236
928.75,0.0236
928.50,0.0235
928.25,0.0236
928.00,0.0237
927.75,0.0238
927.50,0.0240
927.25,0.0242
927.00,0.0244
926.75,0.0245
926.50,0.0247
926.25,0.0248
926.00,0.0248
925.75,0.0249
925.50,0.0248
925.25,0.0248
925.00,0.0248
924.75,0.0249
924.50,0.0251
924.25,0.0253
924.00,0.0255
923.75,0.0256
923.50,0.0256
923.25,0.0256
923.00,0.0255
922.75,0.0255
922.50,0.0256
922.25,0.0258
922.00,0.0260
921.75,0.0264
921.50,0.0268
921.25,0.0272
921.00,0.0275
920.75,0.0278
920.50,0.0280
920.25,0.0282
920.00,0.0284
919.75,0.0287
919.50,0.0289
919.25,0.0291
919.00,0.0292
918.75,0.0293
918.50,0.0294
918.25,0.0297
918.00,0.0300
917.75,0.0305
917.50,0.0309
917.25,0.0312
917.00,0.0316
916.75,0.0319
916.50,0.0322
916.25,0.0325
916.00,0.0329
915.75,0.0331
915.50,0.0334
915.25,0.0335
915.00,0.0335
914.75,0.0336
914.50,0.0337
914.25,0.0339
914.00,0.0342
913.75,0.0346
913.50,0.0349
913.25,0.0351
913.00,0.0352
912.75,0.0352
912.50,0.0351
912.25,0.0350
912.00,0.0350
911.75,0.0349
911.50,0.0348
911.25,0.0347
911.00,0.0346
910.75,0.0344
910.50,0.0344
910.25,0.0343
910.00,0.0344
909.75,0.0344
909.50,0.0345
909.25,0.0344
909.00,0.0341
908.75,0.0338
908.50,0.0335
908.25,0.0333
908.00,0.0333
907.75,0.0334
907.50,0.0334
907.25,0.0332
907.00,0.0329
906.75,0.0325
906.50,0.0323
906.25,0.0321
906.00,0.0320
905.75,0.0319
905.50,0.0318
905.25,0.0316
905.00,0.0314
904.75,0.0312
904.50,0.0312
904.25,0.0313
904.00,0.0314
903.75,0.0315
903.50,0.0315
903.25,0.0315
903.00,0.0314
902.75,0.0312
902.50,0.0311
902.25,0.0311
902.00,0.0312
901.75,0.0314
901.50,0.0316
901.25,0.0319
901.00,0.0321
900.75,0.0322
900.50,0.0321
900.25,0.0321
900.00,0.0322
899.75,0.0324
899.50,0.0327
899.25,0.0329
899.00,0.0331
898.75,0.0332
898.50,0.0334
898.25,0.0337
898.00,0.0342
897.75,0.0347
897.50,0.0351
897.25,0.0352
897.00,0.0350
896.75,0.0347
896.50,0.0345
896.25,0.0345
896.00,0.0347
895.75,0.0350
895.50,0.0353
895.25,0.0355
895.00,0.0358
894.75,0.0360
894.50,0.0363
894.25,0.0366
894.00,0.0369
893.75,0.0374
893.50,0.0379
893.25,0.0384
893.00,0.0388
892.75,0.0389
892.50,0.0390
892.25,0.0389
892.00,0.0388
891.75,0.0390
891.50,0.0393
891.25,0.0398
891.00,0.0403
890.75,0.0406
890.50,0.0407
890.25,0.0407
890.00,0.0407
889.75,0.0409
889.50,0.0412
889.25,0.0417
889.00,0.0423
888.75,0.0426
888.50,0.0428
888.25,0.0428
888.00,0.0428
887.75,0.0429
887.50,0.0432
887.25,0.0437
887.00,0.0443
886.75,0.0449
886.50,0.0453
886.25,0.0457
886.00,0.0461
885.75,0.0466
885.50,0.0470
885.25,0.0474
885.00,0.0478
884.75,0.0483
884.50,0.0490
884.25,0.0498
884.00,0.0507
883.75,0.0515
883.50,0.0521
883.25,0.0525
883.00,0.0528
882.75,0.0529
882.50,0.0531
882.25,0.0533
882.00,0.0536
881.75,0.0541
881.50,0.0548
881.25,0.0555
881.00,0.0563
880.75,0.0570
880.50,0.0578
880.25,0.0586
880.00,0.0595
879.75,0.0604
879.50,0.0612
879.25,0.0621
879.00,0.0629
878.75,0.0636
878.50,0.0643
878.25,0.0648
878.00,0.0654
877.75,0.0661
877.50,0.0668
877.25,0.0675
877.00,0.0682
876.75,0.0690
876.50,0.0701
876.25,0.0713
876.00,0.0725
875.75,0.0736
875.50,0.0744
875.25,0.0752
875.00,0.0762
874.75,0.0772
874.50,0.0783
874.25,0.0792
874.00,0.0800
873.75,0.0808
873.50,0.0816
873.25,0.0828
873.00,0.0842
872.75,0.0859
872.50,0.0875
872.25,0.0890
872.00,0.0902
871.75,0.0914
871.50,0.0927
871.25,0.0942
871.00,0.0957
870.75,0.0971
870.50,0.0983
870.25,0.0994
870.00,0.1005
869.75,0.1018
869.50,0.1032
869.25,0.1046
869.00,0.1058
868.75,0.1068
868.50,0.1077
868.25,0.1086
868.00,0.1096
867.75,0.1105
867.50,0.1112
867.25,0.1117
867.00,0.1122
866.75,0.1126
866.50,0.1130
866.25,0.1135
866.00,0.1140
865.75,0.1146
865.50,0.1154
865.25,0.1163
865.00,0.1171
864.75,0.1177
864.50,0.1179
864.25,0.1178
864.00,0.1175
863.75,0.1171
863.50,0.1167
863.25,0.1163
863.00,0.1161
862.75,0.1159
862.50,0.1156
862.25,0.1150
862.00,0.1143
861.75,0.1135
861.50,0.1128
861.25,0.1123
861.00,0.1119
860.75,0.1117
860.50,0.1114
860.25,0.1112
860.00,0.1109
859.75,0.1105
859.50,0.1098
859.25,0.1090
859.00,0.1084
858.75,0.1081
858.50,0.1081
858.25,0.1083
858.00,0.1085
857.75,0.1084
857.50,0.1080
857.25,0.1073
857.00,0.1068
856.75,0.1064
856.50,0.1063
856.25,0.1063
856.00,0.1063
855.75,0.1064
855.50,0.1067
855.25,0.1071
855.00,0.1076
854.75,0.1080
854.50,0.1082
854.25,0.1083
854.00,0.1085
853.75,0.1087
853.50,0.1091
853.25,0.1097
853.00,0.1106
852.75,0.1116
852.50,0.1126
852.25,0.1134
852.00,0.1141
851.75,0.1148
851.50,0.1157
851.25,0.1170
851.00,0.1183
850.75,0.1194
850.50,0.1202
850.25,0.1209
850.00,0.1218
849.75,0.1230
849.50,0.1245
849.25,0.1259
849.00,0.1272
848.75,0.1282
848.50,0.1291
848.25,0.1300
848.00,0.1310
847.75,0.1319
847.50,0.1328
847.25,0.1337
847.00,0.1348
846.75,0.1360
846.50,0.1370
846.25,0.1379
846.00,0.1389
845.75,0.1400
845.50,0.1412
845.25,0.1423
845.00,0.1431
844.75,0.1435
844.50,0.1438
844.25,0.1442
844.00,0.1449
843.75,0.1457
843.50,0.1462
843.25,0.1464
843.00,0.1462
842.75,0.1458
842.50,0.1453
842.25,0.1449
842.00,0.1446
841.75,0.1444
841.50,0.1442
841.25,0.1438
841.00,0.1433
840.75,0.1425
840.50,0.1416
840.25,0.1407
840.00,0.1400
839.75,0.1392
839.50,0.1384
839.25,0.1374
839.00,0.1362
838.75,0.1349
838.50,0.1336
838.25,0.1324
838.00,0.1313
837.75,0.1302
837.50,0.1292
837.25,0.1280
837.00,0.1268
836.75,0.1257
836.50,0.1246
836.25,0.1236
836.00,0.1225
835.75,0.1212
835.50,0.1197
835.25,0.1183
835.00,0.1172
834.75,0.1166
834.50,0.1162
834.25,0.1160
834.00,0.1157
833.75,0.1153
833.50,0.1149
833.25,0.1145
833.00,0.1142
832.75,0.1139
832.50,0.1136
832.25,0.1133
832.00,0.1130
831.75,0.1127
831.50,0.1126
831.25,0.1125
831.00,0.1123
830.75,0.1121
830.50,0.1119
830.25,0.1119
830.00,0.1121
829.75,0.1127
829.50,0.1135
829.25,0.1143
829.00,0.1152
828.75,0.1160
828.50,0.1166
828.25,0.1172
828.00,0.1177
827.75,0.1185
827.50,0.1195
827.25,0.1206
827.00,0.1217
826.75,0.1230
826.50,0.1243
826.25,0.1257
826.00,0.1272
825.75,0.1286
825.50,0.1301
825.25,0.1318
825.00,0.1338
824.75,0.1359
824.50,0.1382
824.25,0.1405
824.00,0.1429
823.75,0.1453
823.50,0.1473
823.25,0.1490
823.00,0.1507
822.75,0.1526
822.50,0.1549
822.25,0.1574
822.00,0.1600
821.75,0.1624
821.50,0.1646
821.25,0.1666
821.00,0.1685
820.75,0.1705
820.50,0.1723
820.25,0.1739
820.00,0.1752
819.75,0.1765
819.50,0.1779
819.25,0.1796
819.00,0.1814
818.75,0.1834
818.50,0.1852
818.25,0.1868
818.00,0.1882
817.75,0.1895
817.50,0.1906
817.25,0.1918
817.00,0.1928
816.75,0.1941
816.50,0.1955
816.25,0.1973
816.00,0.1990
815.75,0.2006
815.50,0.2018
815.25,0.2027
815.00,0.2035
814.75,0.2041
814.50,0.2049
814.25,0.2058
814.00,0.2069
813.75,0.2082
813.50,0.2094
813.25,0.2106
813.00,0.2118
812.75,0.2131
812.50,0.2149
812.25,0.2172
812.00,0.2197
811.75,0.2220
811.50,0.2240
811.25,0.2258
811.00,0.2276
810.75,0.2297
810.50,0.2319
810.25,0.2343
810.00,0.2367
809.75,0.2392
809.50,0.2416
809.25,0.2443
809.00,0.2472
808.75,0.2503
808.50,0.2534
808.25,0.2563
808.00,0.2590
807.75,0.2616
807.50,0.2643
807.25,0.2673
807.00,0.2706
806.75,0.2741
806.50,0.2776
806.25,0.2811
806.00,0.2844
805.75,0.2878
805.50,0.2913
805.25,0.2952
805.00,0.2992
804.75,0.3034
804.50,0.3077
804.25,0.3121
804.00,0.3165
803.75,0.3210
803.50,0.3254
803.25,0.3297
803.00,0.3336
802.75,0.3374
802.50,0.3412
802.25,0.3452
802.00,0.3498
801.75,0.3548
801.50,0.3600
801.25,0.3651
801.00,0.3700
800.75,0.3749
800.50,0.3796
800.25,0.3840
800.00,0.3882
