Created as New Dataset,Sample 032 By irlear Date Thursday, January 01 2009
cm-1,A
4000.00,0.0053
3999.75,0.0052
3999.50,0.0051
3999.25,0.0050
3999.00,0.0050
3998.75,0.0049
3998.50,0.0050
3998.25,0.0049
3998.00,0.0049
3997.75,0.0049
3997.50,0.0049
3997.25,0.0050
3997.00,0.0051
3996.75,0.0053
3996.50,0.0054
3996.25,0.0054
3996.00,0.0054
3995.75,0.0053
3995.50,0.0052
3995.25,0.0052
3995.00,0.0052
3994.75,0.0053
3994.50,0.0054
3994.25,0.0054
3994.00,0.0054
3993.75,0.0052
3993.50,0.0051
3993.25,0.0050
3993.00,0.0049
3992.75,0.0049
3992.50,0.0048
3992.25,0.0048
3992.00,0.0048
3991.75,0.0048
3991.50,0.0048
3991.25,0.0050
3991.00,0.0051
3990.75,0.0052
3990.50,0.0053
3990.25,0.0054
3990.00,0.0054
3989.75,0.0053
3989.50,0.0052
3989.25,0.0051
3989.00,0.0050
3988.75,0.0050
3988.50,0.0049
3988.25,0.0049
3988.00,0.0048
3987.75,0.0048
3987.50,0.0049
3987.25,0.0050
3987.00,0.0051
3986.75,0.0052
3986.50,0.0052
3986.25,0.0053
3986.00,0.0052
3985.75,0.0052
3985.50,0.0052
3985.25,0.0051
3985.00,0.0051
3984.75,0.0051
3984.50,0.0052
3984.25,0.0053
3984.00,0.0053
3983.75,0.0053
3983.50,0.0053
3983.25,0.0053
3983.00,0.0053
3982.75,0.0053
3982.50,0.0054
3982.25,0.0054
3982.00,0.0053
3981.75,0.0052
3981.50,0.0051
3981.25,0.0051
3981.00,0.0050
3980.75,0.0050
3980.50,0.0050
3980.25,0.0050
3980.00,0.0050
3979.75,0.0050
3979.50,0.0050
3979.25,0.0050
3979.00,0.0051
3978.75,0.0051
3978.50,0.0051
3978.25,0.0051
3978.00,0.0051
3977.75,0.0050
3977.50,0.0049
3977.25,0.0049
3977.00,0.0049
3976.75,0.0050
3976.50,0.0052
3976.25,0.0053
3976.00,0.0054
3975.75,0.0054
3975.50,0.0053
3975.25,0.0052
3975.00,0.0050
3974.75,0.0050
3974.50,0.0049
3974.25,0.0050
3974.00,0.0051
3973.75,0.0051
3973.50,0.0052
3973.25,0.0053
3973.00,0.0054
3972.75,0.0056
3972.50,0.0058
3972.25,0.0060
3972.00,0.0060
3971.75,0.0058
3971.50,0.0055
3971.25,0.0051
3971.00,0.0049
3970.75,0.0048
3970.50,0.0048
3970.25,0.0050
3970.00,0.0052
3969.75,0.0053
3969.50,0.0054
3969.25,0.0054
3969.00,0.0053
3968.75,0.0051
3968.50,0.0049
3968.25,0.0047
3968.00,0.0047
3967.75,0.0047
3967.50,0.0048
3967.25,0.0050
3967.00,0.0051
3966.75,0.0052
3966.50,0.0052
3966.25,0.0053
3966.00,0.0053
3965.75,0.0052
3965.50,0.0052
3965.25,0.0051
3965.00,0.0049
3964.75,0.0047
3964.50,0.0046
3964.25,0.0045
3964.00,0.0045
3963.75,0.0047
3963.50,0.0048
3963.25,0.0050
3963.00,0.0050
3962.75,0.0050
3962.50,0.0050
3962.25,0.0049
3962.00,0.0049
3961.75,0.0049
3961.50,0.0049
3961.25,0.0049
3961.00,0.0050
3960.75,0.0051
3960.50,0.0052
3960.25,0.0053
3960.00,0.0053
3959.75,0.0052
3959.50,0.0050
3959.25,0.0049
3959.00,0.0048
3958.75,0.0049
3958.50,0.0050
3958.25,0.0052
3958.00,0.0053
3957.75,0.0054
3957.50,0.0053
3957.25,0.0053
3957.00,0.0053
3956.75,0.0052
3956.50,0.0051
3956.25,0.0050
3956.00,0.0049
3955.75,0.0048
3955.50,0.0047
3955.25,0.0047
3955.00,0.0046
3954.75,0.0046
3954.50,0.0046
3954.25,0.0046
3954.00,0.0046
3953.75,0.0046
3953.50,0.0047
3953.25,0.0048
3953.00,0.0050
3952.75,0.0051
3952.50,0.0051
3952.25,0.0051
3952.00,0.0050
3951.75,0.0050
3951.50,0.0050
3951.25,0.0050
3951.00,0.0051
3950.75,0.0052
3950.50,0.0052
3950.25,0.0053
3950.00,0.0053
3949.75,0.0053
3949.50,0.0053
3949.25,0.0052
3949.00,0.0051
3948.75,0.0050
3948.50,0.0050
3948.25,0.0051
3948.00,0.0051
3947.75,0.0051
3947.50,0.0051
3947.25,0.0051
3947.00,0.0051
3946.75,0.0051
3946.50,0.0050
3946.25,0.0050
3946.00,0.0050
3945.75,0.0050
3945.50,0.0050
3945.25,0.0051
3945.00,0.0053
3944.75,0.0055
3944.50,0.0056
3944.25,0.0057
3944.00,0.0056
3943.75,0.0054
3943.50,0.0052
3943.25,0.0050
3943.00,0.0049
3942.75,0.0049
3942.50,0.0049
3942.25,0.0049
3942.00,0.0049
3941.75,0.0049
3941.50,0.0050
3941.25,0.0050
3941.00,0.0050
3940.75,0.0050
3940.50,0.0050
3940.25,0.0049
3940.00,0.0049
3939.75,0.0049
3939.50,0.0050
3939.25,0.0051
3939.00,0.0052
3938.75,0.0052
3938.50,0.0052
3938.25,0.0052
3938.00,0.0050
3937.75,0.0049
3937.50,0.0049
3937.25,0.0049
3937.00,0.0048
3936.75,0.0047
3936.50,0.0046
3936.25,0.0045
3936.00,0.0045
3935.75,0.0046
3935.50,0.0046
3935.25,0.0047
3935.00,0.0049
3934.75,0.0050
3934.50,0.0051
3934.25,0.0052
3934.00,0.0053
3933.75,0.0053
3933.50,0.0053
3933.25,0.0052
3933.00,0.0051
3932.75,0.0051
3932.50,0.0052
3932.25,0.0054
3932.00,0.0053
3931.75,0.0052
3931.50,0.0050
3931.25,0.0050
3931.00,0.0051
3930.75,0.0052
3930.50,0.0053
3930.25,0.0052
3930.00,0.0051
3929.75,0.0050
3929.50,0.0050
3929.25,0.0049
3929.00,0.0050
3928.75,0.0051
3928.50,0.0052
3928.25,0.0053
3928.00,0.0054
3927.75,0.0054
3927.50,0.0054
3927.25,0.0054
3927.00,0.0052
3926.75,0.0051
3926.50,0.0050
3926.25,0.0049
3926.00,0.0049
3925.75,0.0049
3925.50,0.0049
3925.25,0.0049
3925.00,0.0049
3924.75,0.0049
3924.50,0.0049
3924.25,0.0048
3924.00,0.0048
3923.75,0.0049
3923.50,0.0050
3923.25,0.0051
3923.00,0.0053
3922.75,0.0055
3922.50,0.0056
3922.25,0.0057
3922.00,0.0057
3921.75,0.0056
3921.50,0.0055
3921.25,0.0053
3921.00,0.0052
3920.75,0.0051
3920.50,0.0050
3920.25,0.0050
3920.00,0.0049
3919.75,0.0048
3919.50,0.0046
3919.25,0.0046
3919.00,0.0046
3918.75,0.0048
3918.50,0.0049
3918.25,0.0051
3918.00,0.0052
3917.75,0.0052
3917.50,0.0052
3917.25,0.0051
3917.00,0.0051
3916.75,0.0052
3916.50,0.0052
3916.25,0.0052
3916.00,0.0052
3915.75,0.0052
3915.50,0.0052
3915.25,0.0052
3915.00,0.0053
3914.75,0.0054
3914.50,0.0054
3914.25,0.0053
3914.00,0.0052
3913.75,0.0051
3913.50,0.0050
3913.25,0.0050
3913.00,0.0050
3912.75,0.0050
3912.50,0.0050
3912.25,0.0050
3912.00,0.0051
3911.75,0.0052
3911.50,0.0053
3911.25,0.0053
3911.00,0.0053
3910.75,0.0053
3910.50,0.0052
3910.25,0.0051
3910.00,0.0050
3909.75,0.0050
3909.50,0.0049
3909.25,0.0049
3909.00,0.0050
3908.75,0.0051
3908.50,0.0052
3908.25,0.0053
3908.00,0.0054
3907.75,0.0054
3907.50,0.0055
3907.25,0.0055
3907.00,0.0054
3906.75,0.0053
3906.50,0.0052
3906.25,0.0052
3906.00,0.0053
3905.75,0.0054
3905.50,0.0054
3905.25,0.0054
3905.00,0.0053
3904.75,0.0052
3904.50,0.0050
3904.25,0.0049
3904.00,0.0048
3903.75,0.0047
3903.50,0.0047
3903.25,0.0047
3903.00,0.0048
3902.75,0.0049
3902.50,0.0051
3902.25,0.0053
3902.00,0.0054
3901.75,0.0053
3901.50,0.0050
3901.25,0.0047
3901.00,0.0047
3900.75,0.0048
3900.50,0.0050
3900.25,0.0053
3900.00,0.0054
3899.75,0.0055
3899.50,0.0053
3899.25,0.0050
3899.00,0.0047
3898.75,0.0046
3898.50,0.0045
3898.25,0.0045
3898.00,0.0046
3897.75,0.0047
3897.50,0.0048
3897.25,0.0048
3897.00,0.0049
3896.75,0.0049
3896.50,0.0049
3896.25,0.0050
3896.00,0.0051
3895.75,0.0052
3895.50,0.0052
3895.25,0.0052
3895.00,0.0052
3894.75,0.0052
3894.50,0.0051
3894.25,0.0050
3894.00,0.0049
3893.75,0.0049
3893.50,0.0049
3893.25,0.0049
3893.00,0.0050
3892.75,0.0051
3892.50,0.0052
3892.25,0.0052
3892.00,0.0053
3891.75,0.0053
3891.50,0.0053
3891.25,0.0054
3891.00,0.0054
3890.75,0.0052
3890.50,0.0050
3890.25,0.0049
3890.00,0.0049
3889.75,0.0050
3889.50,0.0052
3889.25,0.0054
3889.00,0.0055
3888.75,0.0055
3888.50,0.0055
3888.25,0.0055
3888.00,0.0054
3887.75,0.0052
3887.50,0.0051
3887.25,0.0049
3887.00,0.0048
3886.75,0.0049
3886.50,0.0050
3886.25,0.0051
3886.00,0.0053
3885.75,0.0055
3885.50,0.0056
3885.25,0.0054
3885.00,0.0053
3884.75,0.0053
3884.50,0.0053
3884.25,0.0054
3884.00,0.0054
3883.75,0.0055
3883.50,0.0054
3883.25,0.0053
3883.00,0.0051
3882.75,0.0049
3882.50,0.0048
3882.25,0.0048
3882.00,0.0049
3881.75,0.0051
3881.50,0.0052
3881.25,0.0052
3881.00,0.0051
3880.75,0.0049
3880.50,0.0046
3880.25,0.0045
3880.00,0.0045
3879.75,0.0045
3879.50,0.0046
3879.25,0.0047
3879.00,0.0048
3878.75,0.0049
3878.50,0.0050
3878.25,0.0050
3878.00,0.0051
3877.75,0.0051
3877.50,0.0050
3877.25,0.0049
3877.00,0.0048
3876.75,0.0047
3876.50,0.0048
3876.25,0.0049
3876.00,0.0050
3875.75,0.0051
3875.50,0.0052
3875.25,0.0051
3875.00,0.0049
3874.75,0.0046
3874.50,0.0043
3874.25,0.0043
3874.00,0.0043
3873.75,0.0045
3873.50,0.0045
3873.25,0.0045
3873.00,0.0045
3872.75,0.0045
3872.50,0.0046
3872.25,0.0047
3872.00,0.0048
3871.75,0.0049
3871.50,0.0050
3871.25,0.0051
3871.00,0.0052
3870.75,0.0052
3870.50,0.0052
3870.25,0.0051
3870.00,0.0051
3869.75,0.0051
3869.50,0.0051
3869.25,0.0049
3869.00,0.0047
3868.75,0.0046
3868.50,0.0045
3868.25,0.0046
3868.00,0.0047
3867.75,0.0048
3867.50,0.0049
3867.25,0.0050
3867.00,0.0050
3866.75,0.0049
3866.50,0.0048
3866.25,0.0047
3866.00,0.0047
3865.75,0.0046
3865.50,0.0046
3865.25,0.0046
3865.00,0.0047
3864.75,0.0048
3864.50,0.0050
3864.25,0.0051
3864.00,0.0052
3863.75,0.0052
3863.50,0.0052
3863.25,0.0052
3863.00,0.0052
3862.75,0.0053
3862.50,0.0053
3862.25,0.0053
3862.00,0.0052
3861.75,0.0051
3861.50,0.0050
3861.25,0.0050
3861.00,0.0049
3860.75,0.0049
3860.50,0.0048
3860.25,0.0047
3860.00,0.0047
3859.75,0.0048
3859.50,0.0049
3859.25,0.0050
3859.00,0.0051
3858.75,0.0052
3858.50,0.0052
3858.25,0.0052
3858.00,0.0052
3857.75,0.0051
3857.50,0.0049
3857.25,0.0047
3857.00,0.0047
3856.75,0.0048
3856.50,0.0049
3856.25,0.0050
3856.00,0.0050
3855.75,0.0049
3855.50,0.0048
3855.25,0.0048
3855.00,0.0048
3854.75,0.0049
3854.50,0.0048
3854.25,0.0045
3854.00,0.0044
3853.75,0.0046
3853.50,0.0048
3853.25,0.0049
3853.00,0.0048
3852.75,0.0046
3852.50,0.0045
3852.25,0.0044
3852.00,0.0044
3851.75,0.0045
3851.50,0.0046
3851.25,0.0047
3851.00,0.0048
3850.75,0.0048
3850.50,0.0047
3850.25,0.0047
3850.00,0.0047
3849.75,0.0048
3849.50,0.0049
3849.25,0.0051
3849.00,0.0053
3848.75,0.0054
3848.50,0.0055
3848.25,0.0055
3848.00,0.0055
3847.75,0.0055
3847.50,0.0055
3847.25,0.0055
3847.00,0.0054
3846.75,0.0052
3846.50,0.0051
3846.25,0.0050
3846.00,0.0051
3845.75,0.0052
3845.50,0.0052
3845.25,0.0052
3845.00,0.0052
3844.75,0.0053
3844.50,0.0053
3844.25,0.0053
3844.00,0.0053
3843.75,0.0052
3843.50,0.0051
3843.25,0.0049
3843.00,0.0047
3842.75,0.0047
3842.50,0.0047
3842.25,0.0048
3842.00,0.0050
3841.75,0.0051
3841.50,0.0050
3841.25,0.0047
3841.00,0.0044
3840.75,0.0041
3840.50,0.0041
3840.25,0.0042
3840.00,0.0044
3839.75,0.0046
3839.50,0.0048
3839.25,0.0048
3839.00,0.0048
3838.75,0.0047
3838.50,0.0046
3838.25,0.0044
3838.00,0.0043
3837.75,0.0043
3837.50,0.0043
3837.25,0.0045
3837.00,0.0047
3836.75,0.0049
3836.50,0.0050
3836.25,0.0050
3836.00,0.0050
3835.75,0.0049
3835.50,0.0049
3835.25,0.0048
3835.00,0.0048
3834.75,0.0048
3834.50,0.0049
3834.25,0.0049
3834.00,0.0049
3833.75,0.0049
3833.50,0.0049
3833.25,0.0049
3833.00,0.0050
3832.75,0.0051
3832.50,0.0052
3832.25,0.0051
3832.00,0.0050
3831.75,0.0049
3831.50,0.0050
3831.25,0.0050
3831.00,0.0051
3830.75,0.0051
3830.50,0.0051
3830.25,0.0051
3830.00,0.0052
3829.75,0.0052
3829.50,0.0053
3829.25,0.0052
3829.00,0.0052
3828.75,0.0050
3828.50,0.0049
3828.25,0.0048
3828.00,0.0048
3827.75,0.0048
3827.50,0.0048
3827.25,0.0048
3827.00,0.0048
3826.75,0.0049
3826.50,0.0050
3826.25,0.0049
3826.00,0.0049
3825.75,0.0048
3825.50,0.0048
3825.25,0.0050
3825.00,0.0051
3824.75,0.0053
3824.50,0.0054
3824.25,0.0054
3824.00,0.0054
3823.75,0.0055
3823.50,0.0055
3823.25,0.0055
3823.00,0.0054
3822.75,0.0053
3822.50,0.0051
3822.25,0.0048
3822.00,0.0044
3821.75,0.0041
3821.50,0.0041
3821.25,0.0042
3821.00,0.0043
3820.75,0.0046
3820.50,0.0048
3820.25,0.0050
3820.00,0.0050
3819.75,0.0049
3819.50,0.0048
3819.25,0.0048
3819.00,0.0048
3818.75,0.0049
3818.50,0.0050
3818.25,0.0052
3818.00,0.0052
3817.75,0.0052
3817.50,0.0052
3817.25,0.0052
3817.00,0.0052
3816.75,0.0053
3816.50,0.0054
3816.25,0.0056
3816.00,0.0059
3815.75,0.0059
3815.50,0.0055
3815.25,0.0051
3815.00,0.0049
3814.75,0.0048
3814.50,0.0050
3814.25,0.0052
3814.00,0.0054
3813.75,0.0056
3813.50,0.0056
3813.25,0.0056
3813.00,0.0055
3812.75,0.0056
3812.50,0.0056
3812.25,0.0056
3812.00,0.0055
3811.75,0.0053
3811.50,0.0052
3811.25,0.0051
3811.00,0.0050
3810.75,0.0050
3810.50,0.0050
3810.25,0.0050
3810.00,0.0051
3809.75,0.0052
3809.50,0.0053
3809.25,0.0053
3809.00,0.0053
3808.75,0.0052
3808.50,0.0052
3808.25,0.0052
3808.00,0.0052
3807.75,0.0051
3807.50,0.0050
3807.25,0.0050
3807.00,0.0051
3806.75,0.0053
3806.50,0.0052
3806.25,0.0051
3806.00,0.0049
3805.75,0.0048
3805.50,0.0049
3805.25,0.0050
3805.00,0.0051
3804.75,0.0051
3804.50,0.0051
3804.25,0.0050
3804.00,0.0048
3803.75,0.0047
3803.50,0.0047
3803.25,0.0047
3803.00,0.0048
3802.75,0.0049
3802.50,0.0048
3802.25,0.0045
3802.00,0.0041
3801.75,0.0038
3801.50,0.0038
3801.25,0.0043
3801.00,0.0049
3800.75,0.0052
3800.50,0.0052
3800.25,0.0051
3800.00,0.0049
3799.75,0.0047
3799.50,0.0047
3799.25,0.0047
3799.00,0.0049
3798.75,0.0051
3798.50,0.0052
3798.25,0.0054
3798.00,0.0054
3797.75,0.0055
3797.50,0.0055
3797.25,0.0055
3797.00,0.0054
3796.75,0.0054
3796.50,0.0053
3796.25,0.0053
3796.00,0.0052
3795.75,0.0051
3795.50,0.0051
3795.25,0.0051
3795.00,0.0051
3794.75,0.0052
3794.50,0.0052
3794.25,0.0053
3794.00,0.0053
3793.75,0.0053
3793.50,0.0053
3793.25,0.0053
3793.00,0.0053
3792.75,0.0052
3792.50,0.0052
3792.25,0.0052
3792.00,0.0052
3791.75,0.0051
3791.50,0.0051
3791.25,0.0049
3791.00,0.0048
3790.75,0.0048
3790.50,0.0048
3790.25,0.0048
3790.00,0.0048
3789.75,0.0048
3789.50,0.0048
3789.25,0.0048
3789.00,0.0049
3788.75,0.0050
3788.50,0.0051
3788.25,0.0053
3788.00,0.0054
3787.75,0.0055
3787.50,0.0056
3787.25,0.0055
3787.00,0.0054
3786.75,0.0054
3786.50,0.0054
3786.25,0.0054
3786.00,0.0054
3785.75,0.0054
3785.50,0.0053
3785.25,0.0052
3785.00,0.0051
3784.75,0.0051
3784.50,0.0052
3784.25,0.0052
3784.00,0.0052
3783.75,0.0051
3783.50,0.0050
3783.25,0.0050
3783.00,0.0051
3782.75,0.0053
3782.50,0.0055
3782.25,0.0056
3782.00,0.0057
3781.75,0.0056
3781.50,0.0056
3781.25,0.0055
3781.00,0.0054
3780.75,0.0053
3780.50,0.0053
3780.25,0.0051
3780.00,0.0049
3779.75,0.0045
3779.50,0.0042
3779.25,0.0040
3779.00,0.0040
3778.75,0.0042
3778.50,0.0045
3778.25,0.0048
3778.00,0.0051
3777.75,0.0053
3777.50,0.0053
3777.25,0.0052
3777.00,0.0051
3776.75,0.0051
3776.50,0.0051
3776.25,0.0052
3776.00,0.0052
3775.75,0.0052
3775.50,0.0052
3775.25,0.0052
3775.00,0.0052
3774.75,0.0052
3774.50,0.0052
3774.25,0.0052
3774.00,0.0052
3773.75,0.0053
3773.50,0.0053
3773.25,0.0053
3773.00,0.0053
3772.75,0.0052
3772.50,0.0052
3772.25,0.0052
3772.00,0.0053
3771.75,0.0054
3771.50,0.0054
3771.25,0.0055
3771.00,0.0054
3770.75,0.0054
3770.50,0.0053
3770.25,0.0052
3770.00,0.0051
3769.75,0.0051
3769.50,0.0051
3769.25,0.0051
3769.00,0.0051
3768.75,0.0050
3768.50,0.0050
3768.25,0.0050
3768.00,0.0050
3767.75,0.0050
3767.50,0.0050
3767.25,0.0051
3767.00,0.0052
3766.75,0.0052
3766.50,0.0054
3766.25,0.0054
3766.00,0.0055
3765.75,0.0055
3765.50,0.0054
3765.25,0.0052
3765.00,0.0049
3764.75,0.0048
3764.50,0.0048
3764.25,0.0050
3764.00,0.0051
3763.75,0.0054
3763.50,0.0056
3763.25,0.0057
3763.00,0.0057
3762.75,0.0057
3762.50,0.0055
3762.25,0.0054
3762.00,0.0053
3761.75,0.0052
3761.50,0.0053
3761.25,0.0053
3761.00,0.0052
3760.75,0.0051
3760.50,0.0049
3760.25,0.0047
3760.00,0.0046
3759.75,0.0045
3759.50,0.0046
3759.25,0.0049
3759.00,0.0051
3758.75,0.0054
3758.50,0.0056
3758.25,0.0056
3758.00,0.0056
3757.75,0.0056
3757.50,0.0056
3757.25,0.0056
3757.00,0.0056
3756.75,0.0057
3756.50,0.0057
3756.25,0.0056
3756.00,0.0055
3755.75,0.0053
3755.50,0.0053
3755.25,0.0053
3755.00,0.0054
3754.75,0.0055
3754.50,0.0055
3754.25,0.0054
3754.00,0.0053
3753.75,0.0052
3753.50,0.0051
3753.25,0.0050
3753.00,0.0049
3752.75,0.0048
3752.50,0.0047
3752.25,0.0047
3752.00,0.0048
3751.75,0.0050
3751.50,0.0052
3751.25,0.0053
3751.00,0.0054
3750.75,0.0055
3750.50,0.0057
3750.25,0.0060
3750.00,0.0064
3749.75,0.0067
3749.50,0.0067
3749.25,0.0062
3749.00,0.0053
3748.75,0.0048
3748.50,0.0048
3748.25,0.0049
3748.00,0.0052
3747.75,0.0055
3747.50,0.0057
3747.25,0.0059
3747.00,0.0059
3746.75,0.0058
3746.50,0.0056
3746.25,0.0053
3746.00,0.0051
3745.75,0.0050
3745.50,0.0050
3745.25,0.0048
3745.00,0.0043
3744.75,0.0032
3744.50,0.0019
3744.25,0.0015
3744.00,0.0024
3743.75,0.0036
3743.50,0.0043
3743.25,0.0046
3743.00,0.0047
3742.75,0.0047
3742.50,0.0048
3742.25,0.0050
3742.00,0.0051
3741.75,0.0052
3741.50,0.0052
3741.25,0.0053
3741.00,0.0054
3740.75,0.0055
3740.50,0.0056
3740.25,0.0056
3740.00,0.0056
3739.75,0.0056
3739.50,0.0055
3739.25,0.0053
3739.00,0.0052
3738.75,0.0052
3738.50,0.0052
3738.25,0.0053
3738.00,0.0055
3737.75,0.0056
3737.50,0.0057
3737.25,0.0057
3737.00,0.0056
3736.75,0.0055
3736.50,0.0055
3736.25,0.0055
3736.00,0.0055
3735.75,0.0054
3735.50,0.0050
3735.25,0.0047
3735.00,0.0047
3734.75,0.0049
3734.50,0.0051
3734.25,0.0051
3734.00,0.0051
3733.75,0.0050
3733.50,0.0049
3733.25,0.0049
3733.00,0.0050
3732.75,0.0052
3732.50,0.0054
3732.25,0.0057
3732.00,0.0059
3731.75,0.0058
3731.50,0.0054
3731.25,0.0051
3731.00,0.0050
3730.75,0.0050
3730.50,0.0051
3730.25,0.0053
3730.00,0.0053
3729.75,0.0054
3729.50,0.0055
3729.25,0.0055
3729.00,0.0056
3728.75,0.0056
3728.50,0.0055
3728.25,0.0054
3728.00,0.0054
3727.75,0.0054
3727.50,0.0054
3727.25,0.0054
3727.00,0.0053
3726.75,0.0052
3726.50,0.0051
3726.25,0.0050
3726.00,0.0050
3725.75,0.0051
3725.50,0.0052
3725.25,0.0054
3725.00,0.0057
3724.75,0.0058
3724.50,0.0058
3724.25,0.0058
3724.00,0.0058
3723.75,0.0059
3723.50,0.0059
3723.25,0.0059
3723.00,0.0060
3722.75,0.0060
3722.50,0.0059
3722.25,0.0057
3722.00,0.0054
3721.75,0.0053
3721.50,0.0052
3721.25,0.0053
3721.00,0.0054
3720.75,0.0055
3720.50,0.0055
3720.25,0.0055
3720.00,0.0055
3719.75,0.0054
3719.50,0.0052
3719.25,0.0050
3719.00,0.0047
3718.75,0.0044
3718.50,0.0042
3718.25,0.0042
3718.00,0.0045
3717.75,0.0048
3717.50,0.0051
3717.25,0.0053
3717.00,0.0053
3716.75,0.0052
3716.50,0.0053
3716.25,0.0054
3716.00,0.0056
3715.75,0.0059
3715.50,0.0061
3715.25,0.0063
3715.00,0.0064
3714.75,0.0063
3714.50,0.0061
3714.25,0.0057
3714.00,0.0053
3713.75,0.0051
3713.50,0.0051
3713.25,0.0053
3713.00,0.0055
3712.75,0.0057
3712.50,0.0059
3712.25,0.0062
3712.00,0.0063
3711.75,0.0061
3711.50,0.0056
3711.25,0.0051
3711.00,0.0048
3710.75,0.0047
3710.50,0.0047
3710.25,0.0048
3710.00,0.0049
3709.75,0.0049
3709.50,0.0050
3709.25,0.0051
3709.00,0.0053
3708.75,0.0055
3708.50,0.0056
3708.25,0.0058
3708.00,0.0059
3707.75,0.0060
3707.50,0.0060
3707.25,0.0059
3707.00,0.0057
3706.75,0.0056
3706.50,0.0055
3706.25,0.0056
3706.00,0.0057
3705.75,0.0058
3705.50,0.0058
3705.25,0.0057
3705.00,0.0056
3704.75,0.0055
3704.50,0.0055
3704.25,0.0054
3704.00,0.0054
3703.75,0.0054
3703.50,0.0054
3703.25,0.0053
3703.00,0.0053
3702.75,0.0053
3702.50,0.0052
3702.25,0.0052
3702.00,0.0052
3701.75,0.0052
3701.50,0.0052
3701.25,0.0052
3701.00,0.0053
3700.75,0.0055
3700.50,0.0058
3700.25,0.0059
3700.00,0.0058
3699.75,0.0056
3699.50,0.0054
3699.25,0.0052
3699.00,0.0051
3698.75,0.0052
3698.50,0.0053
3698.25,0.0053
3698.00,0.0053
3697.75,0.0053
3697.50,0.0054
3697.25,0.0054
3697.00,0.0055
3696.75,0.0056
3696.50,0.0056
3696.25,0.0055
3696.00,0.0055
3695.75,0.0054
3695.50,0.0053
3695.25,0.0052
3695.00,0.0051
3694.75,0.0050
3694.50,0.0050
3694.25,0.0050
3694.00,0.0051
3693.75,0.0053
3693.50,0.0055
3693.25,0.0055
3693.00,0.0054
3692.75,0.0052
3692.50,0.0050
3692.25,0.0048
3692.00,0.0048
3691.75,0.0048
3691.50,0.0048
3691.25,0.0050
3691.00,0.0052
3690.75,0.0054
3690.50,0.0053
3690.25,0.0052
3690.00,0.0050
3689.75,0.0050
3689.50,0.0050
3689.25,0.0050
3689.00,0.0050
3688.75,0.0050
3688.50,0.0050
3688.25,0.0051
3688.00,0.0049
3687.75,0.0048
3687.50,0.0048
3687.25,0.0048
3687.00,0.0049
3686.75,0.0050
3686.50,0.0051
3686.25,0.0051
3686.00,0.0051
3685.75,0.0050
3685.50,0.0051
3685.25,0.0051
3685.00,0.0053
3684.75,0.0054
3684.50,0.0055
3684.25,0.0055
3684.00,0.0055
3683.75,0.0056
3683.50,0.0056
3683.25,0.0055
3683.00,0.0055
3682.75,0.0055
3682.50,0.0054
3682.25,0.0055
3682.00,0.0055
3681.75,0.0055
3681.50,0.0055
3681.25,0.0054
3681.00,0.0055
3680.75,0.0055
3680.50,0.0056
3680.25,0.0056
3680.00,0.0055
3679.75,0.0053
3679.50,0.0051
3679.25,0.0049
3679.00,0.0049
3678.75,0.0049
3678.50,0.0048
3678.25,0.0048
3678.00,0.0048
3677.75,0.0048
3677.50,0.0050
3677.25,0.0052
3677.00,0.0054
3676.75,0.0055
3676.50,0.0054
3676.25,0.0051
3676.00,0.0049
3675.75,0.0049
3675.50,0.0052
3675.25,0.0053
3675.00,0.0051
3674.75,0.0049
3674.50,0.0047
3674.25,0.0048
3674.00,0.0050
3673.75,0.0051
3673.50,0.0052
3673.25,0.0052
3673.00,0.0053
3672.75,0.0052
3672.50,0.0051
3672.25,0.0050
3672.00,0.0050
3671.75,0.0050
3671.50,0.0051
3671.25,0.0052
3671.00,0.0053
3670.75,0.0053
3670.50,0.0053
3670.25,0.0053
3670.00,0.0053
3669.75,0.0052
3669.50,0.0051
3669.25,0.0050
3669.00,0.0050
3668.75,0.0051
3668.50,0.0051
3668.25,0.0050
3668.00,0.0049
3667.75,0.0049
3667.50,0.0050
3667.25,0.0051
3667.00,0.0052
3666.75,0.0053
3666.50,0.0053
3666.25,0.0053
3666.00,0.0052
3665.75,0.0053
3665.50,0.0054
3665.25,0.0056
3665.00,0.0058
3664.75,0.0060
3664.50,0.0060
3664.25,0.0060
3664.00,0.0060
3663.75,0.0059
3663.50,0.0059
3663.25,0.0058
3663.00,0.0057
3662.75,0.0055
3662.50,0.0054
3662.25,0.0053
3662.00,0.0052
3661.75,0.0051
3661.50,0.0051
3661.25,0.0052
3661.00,0.0054
3660.75,0.0056
3660.50,0.0057
3660.25,0.0058
3660.00,0.0058
3659.75,0.0058
3659.50,0.0057
3659.25,0.0057
3659.00,0.0056
3658.75,0.0056
3658.50,0.0056
3658.25,0.0055
3658.00,0.0055
3657.75,0.0054
3657.50,0.0054
3657.25,0.0055
3657.00,0.0055
3656.75,0.0054
3656.50,0.0053
3656.25,0.0052
3656.00,0.0053
3655.75,0.0056
3655.50,0.0059
3655.25,0.0061
3655.00,0.0062
3654.75,0.0061
3654.50,0.0060
3654.25,0.0058
3654.00,0.0056
3653.75,0.0054
3653.50,0.0053
3653.25,0.0053
3653.00,0.0053
3652.75,0.0053
3652.50,0.0053
3652.25,0.0052
3652.00,0.0050
3651.75,0.0049
3651.50,0.0047
3651.25,0.0047
3651.00,0.0047
3650.75,0.0047
3650.50,0.0047
3650.25,0.0048
3650.00,0.0050
3649.75,0.0053
3649.50,0.0056
3649.25,0.0058
3649.00,0.0059
3648.75,0.0059
3648.50,0.0057
3648.25,0.0055
3648.00,0.0053
3647.75,0.0051
3647.50,0.0051
3647.25,0.0052
3647.00,0.0054
3646.75,0.0055
3646.50,0.0055
3646.25,0.0056
3646.00,0.0058
3645.75,0.0060
3645.50,0.0061
3645.25,0.0061
3645.00,0.0060
3644.75,0.0060
3644.50,0.0060
3644.25,0.0059
3644.00,0.0059
3643.75,0.0057
3643.50,0.0055
3643.25,0.0054
3643.00,0.0053
3642.75,0.0053
3642.50,0.0054
3642.25,0.0056
3642.00,0.0057
3641.75,0.0057
3641.50,0.0056
3641.25,0.0055
3641.00,0.0053
3640.75,0.0052
3640.50,0.0053
3640.25,0.0054
3640.00,0.0055
3639.75,0.0056
3639.50,0.0057
3639.25,0.0058
3639.00,0.0057
3638.75,0.0057
3638.50,0.0056
3638.25,0.0055
3638.00,0.0055
3637.75,0.0054
3637.50,0.0054
3637.25,0.0053
3637.00,0.0054
3636.75,0.0054
3636.50,0.0055
3636.25,0.0056
3636.00,0.0057
3635.75,0.0056
3635.50,0.0055
3635.25,0.0054
3635.00,0.0054
3634.75,0.0055
3634.50,0.0057
3634.25,0.0059
3634.00,0.0062
3633.75,0.0064
3633.50,0.0064
3633.25,0.0062
3633.00,0.0059
3632.75,0.0057
3632.50,0.0057
3632.25,0.0057
3632.00,0.0058
3631.75,0.0059
3631.50,0.0060
3631.25,0.0060
3631.00,0.0060
3630.75,0.0060
3630.50,0.0060
3630.25,0.0059
3630.00,0.0058
3629.75,0.0055
3629.50,0.0052
3629.25,0.0051
3629.00,0.0051
3628.75,0.0050
3628.50,0.0048
3628.25,0.0047
3628.00,0.0048
3627.75,0.0051
3627.50,0.0055
3627.25,0.0058
3627.00,0.0059
3626.75,0.0058
3626.50,0.0057
3626.25,0.0055
3626.00,0.0054
3625.75,0.0053
3625.50,0.0053
3625.25,0.0053
3625.00,0.0053
3624.75,0.0054
3624.50,0.0055
3624.25,0.0055
3624.00,0.0056
3623.75,0.0056
3623.50,0.0057
3623.25,0.0058
3623.00,0.0058
3622.75,0.0058
3622.50,0.0058
3622.25,0.0058
3622.00,0.0058
3621.75,0.0059
3621.50,0.0061
3621.25,0.0063
3621.00,0.0064
3620.75,0.0063
3620.50,0.0060
3620.25,0.0056
3620.00,0.0052
3619.75,0.0050
3619.50,0.0051
3619.25,0.0055
3619.00,0.0059
3618.75,0.0061
3618.50,0.0061
3618.25,0.0060
3618.00,0.0057
3617.75,0.0054
3617.50,0.0051
3617.25,0.0050
3617.00,0.0050
3616.75,0.0052
3616.50,0.0054
3616.25,0.0056
3616.00,0.0058
3615.75,0.0061
3615.50,0.0063
3615.25,0.0064
3615.00,0.0063
3614.75,0.0062
3614.50,0.0060
3614.25,0.0057
3614.00,0.0056
3613.75,0.0056
3613.50,0.0056
3613.25,0.0056
3613.00,0.0057
3612.75,0.0058
3612.50,0.0059
3612.25,0.0059
3612.00,0.0057
3611.75,0.0055
3611.50,0.0054
3611.25,0.0053
3611.00,0.0053
3610.75,0.0054
3610.50,0.0055
3610.25,0.0056
3610.00,0.0056
3609.75,0.0056
3609.50,0.0057
3609.25,0.0058
3609.00,0.0060
3608.75,0.0062
3608.50,0.0063
3608.25,0.0062
3608.00,0.0060
3607.75,0.0059
3607.50,0.0058
3607.25,0.0060
3607.00,0.0061
3606.75,0.0062
3606.50,0.0060
3606.25,0.0056
3606.00,0.0053
3605.75,0.0052
3605.50,0.0052
3605.25,0.0052
3605.00,0.0053
3604.75,0.0054
3604.50,0.0054
3604.25,0.0055
3604.00,0.0056
3603.75,0.0056
3603.50,0.0056
3603.25,0.0056
3603.00,0.0055
3602.75,0.0055
3602.50,0.0054
3602.25,0.0054
3602.00,0.0054
3601.75,0.0054
3601.50,0.0055
3601.25,0.0056
3601.00,0.0058
3600.75,0.0060
3600.50,0.0062
3600.25,0.0063
3600.00,0.0063
3599.75,0.0062
3599.50,0.0062
3599.25,0.0061
3599.00,0.0061
3598.75,0.0061
3598.50,0.0060
3598.25,0.0058
3598.00,0.0057
3597.75,0.0055
3597.50,0.0054
3597.25,0.0053
3597.00,0.0052
3596.75,0.0050
3596.50,0.0050
3596.25,0.0049
3596.00,0.0050
3595.75,0.0051
3595.50,0.0053
3595.25,0.0055
3595.00,0.0057
3594.75,0.0058
3594.50,0.0059
3594.25,0.0058
3594.00,0.0057
3593.75,0.0056
3593.50,0.0056
3593.25,0.0055
3593.00,0.0055
3592.75,0.0055
3592.50,0.0054
3592.25,0.0053
3592.00,0.0053
3591.75,0.0054
3591.50,0.0055
3591.25,0.0056
3591.00,0.0058
3590.75,0.0060
3590.50,0.0061
3590.25,0.0061
3590.00,0.0060
3589.75,0.0058
3589.50,0.0057
3589.25,0.0056
3589.00,0.0056
3588.75,0.0057
3588.50,0.0057
3588.25,0.0056
3588.00,0.0055
3587.75,0.0053
3587.50,0.0053
3587.25,0.0053
3587.00,0.0055
3586.75,0.0056
3586.50,0.0055
3586.25,0.0053
3586.00,0.0051
3585.75,0.0052
3585.50,0.0053
3585.25,0.0054
3585.00,0.0054
3584.75,0.0055
3584.50,0.0055
3584.25,0.0055
3584.00,0.0056
3583.75,0.0057
3583.50,0.0057
3583.25,0.0056
3583.00,0.0055
3582.75,0.0054
3582.50,0.0055
3582.25,0.0057
3582.00,0.0058
3581.75,0.0059
3581.50,0.0059
3581.25,0.0058
3581.00,0.0057
3580.75,0.0057
3580.50,0.0057
3580.25,0.0057
3580.00,0.0056
3579.75,0.0056
3579.50,0.0057
3579.25,0.0058
3579.00,0.0058
3578.75,0.0058
3578.50,0.0058
3578.25,0.0058
3578.00,0.0057
3577.75,0.0056
3577.50,0.0056
3577.25,0.0055
3577.00,0.0055
3576.75,0.0054
3576.50,0.0053
3576.25,0.0052
3576.00,0.0053
3575.75,0.0054
3575.50,0.0055
3575.25,0.0056
3575.00,0.0056
3574.75,0.0056
3574.50,0.0056
3574.25,0.0056
3574.00,0.0058
3573.75,0.0059
3573.50,0.0059
3573.25,0.0059
3573.00,0.0059
3572.75,0.0058
3572.50,0.0058
3572.25,0.0057
3572.00,0.0057
3571.75,0.0057
3571.50,0.0058
3571.25,0.0058
3571.00,0.0059
3570.75,0.0059
3570.50,0.0059
3570.25,0.0059
3570.00,0.0059
3569.75,0.0059
3569.50,0.0058
3569.25,0.0058
3569.00,0.0057
3568.75,0.0056
3568.50,0.0054
3568.25,0.0053
3568.00,0.0053
3567.75,0.0054
3567.50,0.0055
3567.25,0.0057
3567.00,0.0059
3566.75,0.0061
3566.50,0.0064
3566.25,0.0065
3566.00,0.0064
3565.75,0.0060
3565.50,0.0057
3565.25,0.0054
3565.00,0.0054
3564.75,0.0054
3564.50,0.0056
3564.25,0.0057
3564.00,0.0059
3563.75,0.0059
3563.50,0.0059
3563.25,0.0058
3563.00,0.0057
3562.75,0.0056
3562.50,0.0056
3562.25,0.0057
3562.00,0.0059
3561.75,0.0060
3561.50,0.0061
3561.25,0.0062
3561.00,0.0062
3560.75,0.0062
3560.50,0.0061
3560.25,0.0059
3560.00,0.0056
3559.75,0.0054
3559.50,0.0053
3559.25,0.0052
3559.00,0.0053
3558.75,0.0055
3558.50,0.0058
3558.25,0.0060
3558.00,0.0061
3557.75,0.0061
3557.50,0.0060
3557.25,0.0058
3557.00,0.0057
3556.75,0.0056
3556.50,0.0056
3556.25,0.0056
3556.00,0.0057
3555.75,0.0057
3555.50,0.0056
3555.25,0.0056
3555.00,0.0055
3554.75,0.0054
3554.50,0.0053
3554.25,0.0052
3554.00,0.0053
3553.75,0.0053
3553.50,0.0054
3553.25,0.0055
3553.00,0.0056
3552.75,0.0056
3552.50,0.0056
3552.25,0.0057
3552.00,0.0057
3551.75,0.0056
3551.50,0.0055
3551.25,0.0055
3551.00,0.0054
3550.75,0.0054
3550.50,0.0054
3550.25,0.0054
3550.00,0.0054
3549.75,0.0055
3549.50,0.0056
3549.25,0.0056
3549.00,0.0056
3548.75,0.0056
3548.50,0.0058
3548.25,0.0060
3548.00,0.0061
3547.75,0.0061
3547.50,0.0060
3547.25,0.0058
3547.00,0.0057
3546.75,0.0056
3546.50,0.0057
3546.25,0.0058
3546.00,0.0060
3545.75,0.0062
3545.50,0.0062
3545.25,0.0063
3545.00,0.0062
3544.75,0.0060
3544.50,0.0059
3544.25,0.0058
3544.00,0.0057
3543.75,0.0057
3543.50,0.0056
3543.25,0.0056
3543.00,0.0055
3542.75,0.0055
3542.50,0.0056
3542.25,0.0057
3542.00,0.0057
3541.75,0.0058
3541.50,0.0058
3541.25,0.0058
3541.00,0.0058
3540.75,0.0058
3540.50,0.0057
3540.25,0.0057
3540.00,0.0056
3539.75,0.0056
3539.50,0.0055
3539.25,0.0053
3539.00,0.0053
3538.75,0.0053
3538.50,0.0054
3538.25,0.0055
3538.00,0.0056
3537.75,0.0056
3537.50,0.0056
3537.25,0.0056
3537.00,0.0057
3536.75,0.0057
3536.50,0.0058
3536.25,0.0058
3536.00,0.0057
3535.75,0.0056
3535.50,0.0056
3535.25,0.0055
3535.00,0.0055
3534.75,0.0055
3534.50,0.0055
3534.25,0.0054
3534.00,0.0054
3533.75,0.0054
3533.50,0.0055
3533.25,0.0057
3533.00,0.0058
3532.75,0.0059
3532.50,0.0060
3532.25,0.0059
3532.00,0.0059
3531.75,0.0059
3531.50,0.0059
3531.25,0.0060
3531.00,0.0060
3530.75,0.0060
3530.50,0.0059
3530.25,0.0057
3530.00,0.0056
3529.75,0.0056
3529.50,0.0056
3529.25,0.0057
3529.00,0.0056
3528.75,0.0055
3528.50,0.0053
3528.25,0.0051
3528.00,0.0051
3527.75,0.0052
3527.50,0.0054
3527.25,0.0056
3527.00,0.0058
3526.75,0.0058
3526.50,0.0058
3526.25,0.0058
3526.00,0.0058
3525.75,0.0058
3525.50,0.0059
3525.25,0.0059
3525.00,0.0059
3524.75,0.0059
3524.50,0.0060
3524.25,0.0060
3524.00,0.0060
3523.75,0.0060
3523.50,0.0059
3523.25,0.0059
3523.00,0.0058
3522.75,0.0058
3522.50,0.0058
3522.25,0.0057
3522.00,0.0056
3521.75,0.0056
3521.50,0.0056
3521.25,0.0057
3521.00,0.0058
3520.75,0.0058
3520.50,0.0058
3520.25,0.0056
3520.00,0.0055
3519.75,0.0054
3519.50,0.0054
3519.25,0.0055
3519.00,0.0056
3518.75,0.0056
3518.50,0.0056
3518.25,0.0055
3518.00,0.0055
3517.75,0.0055
3517.50,0.0054
3517.25,0.0054
3517.00,0.0053
3516.75,0.0053
3516.50,0.0053
3516.25,0.0054
3516.00,0.0054
3515.75,0.0054
3515.50,0.0054
3515.25,0.0054
3515.00,0.0055
3514.75,0.0056
3514.50,0.0058
3514.25,0.0059
3514.00,0.0059
3513.75,0.0058
3513.50,0.0056
3513.25,0.0055
3513.00,0.0054
3512.75,0.0054
3512.50,0.0055
3512.25,0.0057
3512.00,0.0058
3511.75,0.0059
3511.50,0.0059
3511.25,0.0058
3511.00,0.0058
3510.75,0.0057
3510.50,0.0056
3510.25,0.0054
3510.00,0.0053
3509.75,0.0053
3509.50,0.0054
3509.25,0.0055
3509.00,0.0056
3508.75,0.0057
3508.50,0.0059
3508.25,0.0060
3508.00,0.0062
3507.75,0.0064
3507.50,0.0065
3507.25,0.0065
3507.00,0.0065
3506.75,0.0063
3506.50,0.0061
3506.25,0.0059
3506.00,0.0057
3505.75,0.0055
3505.50,0.0054
3505.25,0.0054
3505.00,0.0055
3504.75,0.0056
3504.50,0.0057
3504.25,0.0056
3504.00,0.0054
3503.75,0.0052
3503.50,0.0051
3503.25,0.0050
3503.00,0.0052
3502.75,0.0054
3502.50,0.0056
3502.25,0.0058
3502.00,0.0059
3501.75,0.0059
3501.50,0.0059
3501.25,0.0058
3501.00,0.0057
3500.75,0.0056
3500.50,0.0055
3500.25,0.0055
3500.00,0.0056
3499.75,0.0057
3499.50,0.0058
3499.25,0.0058
3499.00,0.0059
3498.75,0.0058
3498.50,0.0057
3498.25,0.0056
3498.00,0.0055
3497.75,0.0054
3497.50,0.0054
3497.25,0.0054
3497.00,0.0054
3496.75,0.0055
3496.50,0.0056
3496.25,0.0056
3496.00,0.0056
3495.75,0.0056
3495.50,0.0055
3495.25,0.0055
3495.00,0.0056
3494.75,0.0057
3494.50,0.0057
3494.25,0.0057
3494.00,0.0057
3493.75,0.0057
3493.50,0.0057
3493.25,0.0057
3493.00,0.0057
3492.75,0.0057
3492.50,0.0058
3492.25,0.0059
3492.00,0.0059
3491.75,0.0059
3491.50,0.0057
3491.25,0.0056
3491.00,0.0055
3490.75,0.0054
3490.50,0.0055
3490.25,0.0055
3490.00,0.0056
3489.75,0.0057
3489.50,0.0057
3489.25,0.0057
3489.00,0.0057
3488.75,0.0056
3488.50,0.0057
3488.25,0.0057
3488.00,0.0057
3487.75,0.0057
3487.50,0.0056
3487.25,0.0055
3487.00,0.0055
3486.75,0.0055
3486.50,0.0056
3486.25,0.0056
3486.00,0.0056
3485.75,0.0057
3485.50,0.0057
3485.25,0.0058
3485.00,0.0058
3484.75,0.0059
3484.50,0.0059
3484.25,0.0060
3484.00,0.0060
3483.75,0.0059
3483.50,0.0057
3483.25,0.0055
3483.00,0.0054
3482.75,0.0055
3482.50,0.0056
3482.25,0.0058
3482.00,0.0059
3481.75,0.0059
3481.50,0.0059
3481.25,0.0058
3481.00,0.0058
3480.75,0.0057
3480.50,0.0058
3480.25,0.0058
3480.00,0.0058
3479.75,0.0058
3479.50,0.0058
3479.25,0.0057
3479.00,0.0056
3478.75,0.0056
3478.50,0.0057
3478.25,0.0057
3478.00,0.0058
3477.75,0.0058
3477.50,0.0059
3477.25,0.0059
3477.00,0.0059
3476.75,0.0059
3476.50,0.0059
3476.25,0.0058
3476.00,0.0057
3475.75,0.0057
3475.50,0.0057
3475.25,0.0057
3475.00,0.0056
3474.75,0.0056
3474.50,0.0056
3474.25,0.0056
3474.00,0.0056
3473.75,0.0055
3473.50,0.0055
3473.25,0.0054
3473.00,0.0053
3472.75,0.0053
3472.50,0.0053
3472.25,0.0053
3472.00,0.0054
3471.75,0.0055
3471.50,0.0056
3471.25,0.0057
3471.00,0.0058
3470.75,0.0058
3470.50,0.0059
3470.25,0.0059
3470.00,0.0059
3469.75,0.0059
3469.50,0.0058
3469.25,0.0057
3469.00,0.0057
3468.75,0.0056
3468.50,0.0055
3468.25,0.0055
3468.00,0.0056
3467.75,0.0057
3467.50,0.0058
3467.25,0.0058
3467.00,0.0057
3466.75,0.0056
3466.50,0.0056
3466.25,0.0056
3466.00,0.0057
3465.75,0.0058
3465.50,0.0059
3465.25,0.0058
3465.00,0.0057
3464.75,0.0056
3464.50,0.0055
3464.25,0.0055
3464.00,0.0056
3463.75,0.0056
3463.50,0.0055
3463.25,0.0055
3463.00,0.0054
3462.75,0.0054
3462.50,0.0054
3462.25,0.0055
3462.00,0.0055
3461.75,0.0055
3461.50,0.0055
3461.25,0.0055
3461.00,0.0056
3460.75,0.0056
3460.50,0.0056
3460.25,0.0056
3460.00,0.0056
3459.75,0.0057
3459.50,0.0058
3459.25,0.0059
3459.00,0.0060
3458.75,0.0061
3458.50,0.0060
3458.25,0.0058
3458.00,0.0057
3457.75,0.0056
3457.50,0.0055
3457.25,0.0056
3457.00,0.0056
3456.75,0.0056
3456.50,0.0055
3456.25,0.0055
3456.00,0.0055
3455.75,0.0055
3455.50,0.0054
3455.25,0.0054
3455.00,0.0053
3454.75,0.0053
3454.50,0.0052
3454.25,0.0052
3454.00,0.0051
3453.75,0.0052
3453.50,0.0052
3453.25,0.0054
3453.00,0.0055
3452.75,0.0055
3452.50,0.0055
3452.25,0.0054
3452.00,0.0054
3451.75,0.0054
3451.50,0.0055
3451.25,0.0057
3451.00,0.0058
3450.75,0.0058
3450.50,0.0057
3450.25,0.0056
3450.00,0.0054
3449.75,0.0053
3449.50,0.0053
3449.25,0.0054
3449.00,0.0055
3448.75,0.0056
3448.50,0.0056
3448.25,0.0056
3448.00,0.0056
3447.75,0.0055
3447.50,0.0056
3447.25,0.0058
3447.00,0.0061
3446.75,0.0063
3446.50,0.0063
3446.25,0.0062
3446.00,0.0060
3445.75,0.0059
3445.50,0.0058
3445.25,0.0059
3445.00,0.0059
3444.75,0.0060
3444.50,0.0060
3444.25,0.0060
3444.00,0.0060
3443.75,0.0059
3443.50,0.0059
3443.25,0.0058
3443.00,0.0059
3442.75,0.0058
3442.50,0.0057
3442.25,0.0055
3442.00,0.0053
3441.75,0.0052
3441.50,0.0051
3441.25,0.0052
3441.00,0.0052
3440.75,0.0053
3440.50,0.0053
3440.25,0.0054
3440.00,0.0054
3439.75,0.0054
3439.50,0.0055
3439.25,0.0055
3439.00,0.0055
3438.75,0.0055
3438.50,0.0055
3438.25,0.0055
3438.00,0.0055
3437.75,0.0055
3437.50,0.0055
3437.25,0.0056
3437.00,0.0056
3436.75,0.0056
3436.50,0.0056
3436.25,0.0057
3436.00,0.0056
3435.75,0.0056
3435.50,0.0055
3435.25,0.0054
3435.00,0.0055
3434.75,0.0055
3434.50,0.0055
3434.25,0.0054
3434.00,0.0054
3433.75,0.0053
3433.50,0.0053
3433.25,0.0054
3433.00,0.0054
3432.75,0.0055
3432.50,0.0055
3432.25,0.0055
3432.00,0.0055
3431.75,0.0056
3431.50,0.0057
3431.25,0.0059
3431.00,0.0060
3430.75,0.0060
3430.50,0.0058
3430.25,0.0055
3430.00,0.0053
3429.75,0.0051
3429.50,0.0051
3429.25,0.0053
3429.00,0.0055
3428.75,0.0056
3428.50,0.0056
3428.25,0.0056
3428.00,0.0055
3427.75,0.0055
3427.50,0.0056
3427.25,0.0056
3427.00,0.0057
3426.75,0.0058
3426.50,0.0059
3426.25,0.0060
3426.00,0.0061
3425.75,0.0061
3425.50,0.0060
3425.25,0.0058
3425.00,0.0057
3424.75,0.0057
3424.50,0.0058
3424.25,0.0059
3424.00,0.0060
3423.75,0.0059
3423.50,0.0059
3423.25,0.0058
3423.00,0.0058
3422.75,0.0058
3422.50,0.0058
3422.25,0.0059
3422.00,0.0059
3421.75,0.0058
3421.50,0.0057
3421.25,0.0055
3421.00,0.0054
3420.75,0.0054
3420.50,0.0054
3420.25,0.0054
3420.00,0.0053
3419.75,0.0052
3419.50,0.0052
3419.25,0.0053
3419.00,0.0054
3418.75,0.0054
3418.50,0.0054
3418.25,0.0053
3418.00,0.0052
3417.75,0.0052
3417.50,0.0053
3417.25,0.0055
3417.00,0.0056
3416.75,0.0056
3416.50,0.0057
3416.25,0.0057
3416.00,0.0057
3415.75,0.0056
3415.50,0.0055
3415.25,0.0053
3415.00,0.0053
3414.75,0.0054
3414.50,0.0055
3414.25,0.0056
3414.00,0.0056
3413.75,0.0056
3413.50,0.0056
3413.25,0.0056
3413.00,0.0056
3412.75,0.0056
3412.50,0.0055
3412.25,0.0054
3412.00,0.0054
3411.75,0.0054
3411.50,0.0055
3411.25,0.0056
3411.00,0.0057
3410.75,0.0058
3410.50,0.0057
3410.25,0.0055
3410.00,0.0053
3409.75,0.0052
3409.50,0.0052
3409.25,0.0053
3409.00,0.0053
3408.75,0.0054
3408.50,0.0054
3408.25,0.0054
3408.00,0.0055
3407.75,0.0055
3407.50,0.0054
3407.25,0.0053
3407.00,0.0053
3406.75,0.0052
3406.50,0.0052
3406.25,0.0052
3406.00,0.0052
3405.75,0.0052
3405.50,0.0052
3405.25,0.0052
3405.00,0.0052
3404.75,0.0052
3404.50,0.0052
3404.25,0.0052
3404.00,0.0053
3403.75,0.0055
3403.50,0.0057
3403.25,0.0058
3403.00,0.0058
3402.75,0.0057
3402.50,0.0055
3402.25,0.0054
3402.00,0.0053
3401.75,0.0054
3401.50,0.0054
3401.25,0.0055
3401.00,0.0055
3400.75,0.0055
3400.50,0.0055
3400.25,0.0055
3400.00,0.0055
3399.75,0.0054
3399.50,0.0055
3399.25,0.0055
3399.00,0.0056
3398.75,0.0056
3398.50,0.0057
3398.25,0.0057
3398.00,0.0057
3397.75,0.0056
3397.50,0.0056
3397.25,0.0056
3397.00,0.0057
3396.75,0.0058
3396.50,0.0059
3396.25,0.0060
3396.00,0.0060
3395.75,0.0059
3395.50,0.0057
3395.25,0.0056
3395.00,0.0055
3394.75,0.0054
3394.50,0.0054
3394.25,0.0055
3394.00,0.0056
3393.75,0.0057
3393.50,0.0058
3393.25,0.0057
3393.00,0.0057
3392.75,0.0056
3392.50,0.0056
3392.25,0.0056
3392.00,0.0056
3391.75,0.0056
3391.50,0.0056
3391.25,0.0056
3391.00,0.0057
3390.75,0.0057
3390.50,0.0058
3390.25,0.0058
3390.00,0.0059
3389.75,0.0060
3389.50,0.0060
3389.25,0.0059
3389.00,0.0057
3388.75,0.0056
3388.50,0.0054
3388.25,0.0054
3388.00,0.0054
3387.75,0.0054
3387.50,0.0054
3387.25,0.0055
3387.00,0.0055
3386.75,0.0056
3386.50,0.0057
3386.25,0.0057
3386.00,0.0057
3385.75,0.0056
3385.50,0.0056
3385.25,0.0056
3385.00,0.0057
3384.75,0.0058
3384.50,0.0058
3384.25,0.0057
3384.00,0.0055
3383.75,0.0052
3383.50,0.0050
3383.25,0.0049
3383.00,0.0049
3382.75,0.0050
3382.50,0.0052
3382.25,0.0053
3382.00,0.0054
3381.75,0.0055
3381.50,0.0056
3381.25,0.0056
3381.00,0.0056
3380.75,0.0057
3380.50,0.0057
3380.25,0.0057
3380.00,0.0056
3379.75,0.0054
3379.50,0.0052
3379.25,0.0051
3379.00,0.0052
3378.75,0.0053
3378.50,0.0054
3378.25,0.0055
3378.00,0.0055
3377.75,0.0055
3377.50,0.0055
3377.25,0.0056
3377.00,0.0057
3376.75,0.0058
3376.50,0.0058
3376.25,0.0057
3376.00,0.0056
3375.75,0.0054
3375.50,0.0052
3375.25,0.0050
3375.00,0.0051
3374.75,0.0052
3374.50,0.0054
3374.25,0.0056
3374.00,0.0057
3373.75,0.0057
3373.50,0.0056
3373.25,0.0054
3373.00,0.0052
3372.75,0.0051
3372.50,0.0051
3372.25,0.0052
3372.00,0.0053
3371.75,0.0055
3371.50,0.0055
3371.25,0.0055
3371.00,0.0054
3370.75,0.0054
3370.50,0.0053
3370.25,0.0054
3370.00,0.0055
3369.75,0.0057
3369.50,0.0058
3369.25,0.0058
3369.00,0.0058
3368.75,0.0057
3368.50,0.0055
3368.25,0.0054
3368.00,0.0053
3367.75,0.0054
3367.50,0.0056
3367.25,0.0058
3367.00,0.0060
3366.75,0.0060
3366.50,0.0060
3366.25,0.0060
3366.00,0.0059
3365.75,0.0059
3365.50,0.0058
3365.25,0.0057
3365.00,0.0056
3364.75,0.0056
3364.50,0.0056
3364.25,0.0056
3364.00,0.0056
3363.75,0.0056
3363.50,0.0056
3363.25,0.0056
3363.00,0.0056
3362.75,0.0057
3362.50,0.0058
3362.25,0.0058
3362.00,0.0059
3361.75,0.0059
3361.50,0.0058
3361.25,0.0057
3361.00,0.0056
3360.75,0.0055
3360.50,0.0054
3360.25,0.0055
3360.00,0.0056
3359.75,0.0057
3359.50,0.0057
3359.25,0.0057
3359.00,0.0057
3358.75,0.0057
3358.50,0.0057
3358.25,0.0059
3358.00,0.0060
3357.75,0.0060
3357.50,0.0059
3357.25,0.0058
3357.00,0.0056
3356.75,0.0055
3356.50,0.0055
3356.25,0.0055
3356.00,0.0056
3355.75,0.0056
3355.50,0.0056
3355.25,0.0055
3355.00,0.0055
3354.75,0.0055
3354.50,0.0055
3354.25,0.0055
3354.00,0.0055
3353.75,0.0055
3353.50,0.0054
3353.25,0.0054
3353.00,0.0054
3352.75,0.0054
3352.50,0.0054
3352.25,0.0055
3352.00,0.0055
3351.75,0.0056
3351.50,0.0057
3351.25,0.0059
3351.00,0.0060
3350.75,0.0060
3350.50,0.0059
3350.25,0.0058
3350.00,0.0058
3349.75,0.0059
3349.50,0.0059
3349.25,0.0059
3349.00,0.0058
3348.75,0.0057
3348.50,0.0056
3348.25,0.0054
3348.00,0.0053
3347.75,0.0053
3347.50,0.0054
3347.25,0.0054
3347.00,0.0054
3346.75,0.0053
3346.50,0.0053
3346.25,0.0054
3346.00,0.0056
3345.75,0.0057
3345.50,0.0058
3345.25,0.0058
3345.00,0.0058
3344.75,0.0058
3344.50,0.0057
3344.25,0.0056
3344.00,0.0055
3343.75,0.0054
3343.50,0.0053
3343.25,0.0053
3343.00,0.0054
3342.75,0.0056
3342.50,0.0056
3342.25,0.0056
3342.00,0.0055
3341.75,0.0053
3341.50,0.0052
3341.25,0.0051
3341.00,0.0051
3340.75,0.0051
3340.50,0.0052
3340.25,0.0053
3340.00,0.0054
3339.75,0.0055
3339.50,0.0056
3339.25,0.0056
3339.00,0.0056
3338.75,0.0056
3338.50,0.0055
3338.25,0.0055
3338.00,0.0055
3337.75,0.0056
3337.50,0.0057
3337.25,0.0057
3337.00,0.0056
3336.75,0.0056
3336.50,0.0055
3336.25,0.0055
3336.00,0.0056
3335.75,0.0056
3335.50,0.0056
3335.25,0.0055
3335.00,0.0055
3334.75,0.0055
3334.50,0.0055
3334.25,0.0056
3334.00,0.0057
3333.75,0.0057
3333.50,0.0058
3333.25,0.0058
3333.00,0.0058
3332.75,0.0058
3332.50,0.0058
3332.25,0.0057
3332.00,0.0055
3331.75,0.0054
3331.50,0.0053
3331.25,0.0053
3331.00,0.0053
3330.75,0.0055
3330.50,0.0055
3330.25,0.0056
3330.00,0.0056
3329.75,0.0055
3329.50,0.0055
3329.25,0.0054
3329.00,0.0054
3328.75,0.0054
3328.50,0.0053
3328.25,0.0053
3328.00,0.0053
3327.75,0.0053
3327.50,0.0054
3327.25,0.0056
3327.00,0.0057
3326.75,0.0057
3326.50,0.0056
3326.25,0.0054
3326.00,0.0053
3325.75,0.0052
3325.50,0.0051
3325.25,0.0052
3325.00,0.0053
3324.75,0.0054
3324.50,0.0056
3324.25,0.0056
3324.00,0.0056
3323.75,0.0056
3323.50,0.0055
3323.25,0.0054
3323.00,0.0053
3322.75,0.0051
3322.50,0.0050
3322.25,0.0049
3322.00,0.0050
3321.75,0.0051
3321.50,0.0051
3321.25,0.0052
3321.00,0.0052
3320.75,0.0052
3320.50,0.0052
3320.25,0.0051
3320.00,0.0052
3319.75,0.0052
3319.50,0.0053
3319.25,0.0054
3319.00,0.0056
3318.75,0.0057
3318.50,0.0057
3318.25,0.0056
3318.00,0.0056
3317.75,0.0056
3317.50,0.0056
3317.25,0.0056
3317.00,0.0057
3316.75,0.0057
3316.50,0.0057
3316.25,0.0057
3316.00,0.0056
3315.75,0.0055
3315.50,0.0054
3315.25,0.0054
3315.00,0.0055
3314.75,0.0056
3314.50,0.0055
3314.25,0.0054
3314.00,0.0053
3313.75,0.0052
3313.50,0.0052
3313.25,0.0052
3313.00,0.0053
3312.75,0.0052
3312.50,0.0051
3312.25,0.0050
3312.00,0.0050
3311.75,0.0052
3311.50,0.0054
3311.25,0.0056
3311.00,0.0057
3310.75,0.0058
3310.50,0.0058
3310.25,0.0058
3310.00,0.0058
3309.75,0.0057
3309.50,0.0056
3309.25,0.0054
3309.00,0.0052
3308.75,0.0051
3308.50,0.0051
3308.25,0.0053
3308.00,0.0054
3307.75,0.0056
3307.50,0.0057
3307.25,0.0058
3307.00,0.0058
3306.75,0.0057
3306.50,0.0056
3306.25,0.0056
3306.00,0.0055
3305.75,0.0055
3305.50,0.0054
3305.25,0.0055
3305.00,0.0055
3304.75,0.0056
3304.50,0.0056
3304.25,0.0056
3304.00,0.0055
3303.75,0.0055
3303.50,0.0055
3303.25,0.0055
3303.00,0.0056
3302.75,0.0057
3302.50,0.0058
3302.25,0.0058
3302.00,0.0057
3301.75,0.0056
3301.50,0.0055
3301.25,0.0054
3301.00,0.0053
3300.75,0.0052
3300.50,0.0051
3300.25,0.0049
3300.00,0.0049
3299.75,0.0051
3299.50,0.0053
3299.25,0.0055
3299.00,0.0057
3298.75,0.0057
3298.50,0.0057
3298.25,0.0056
3298.00,0.0055
3297.75,0.0054
3297.50,0.0053
3297.25,0.0053
3297.00,0.0053
3296.75,0.0053
3296.50,0.0053
3296.25,0.0053
3296.00,0.0053
3295.75,0.0054
3295.50,0.0054
3295.25,0.0055
3295.00,0.0055
3294.75,0.0055
3294.50,0.0054
3294.25,0.0054
3294.00,0.0055
3293.75,0.0057
3293.50,0.0058
3293.25,0.0058
3293.00,0.0057
3292.75,0.0055
3292.50,0.0052
3292.25,0.0050
3292.00,0.0050
3291.75,0.0051
3291.50,0.0053
3291.25,0.0056
3291.00,0.0057
3290.75,0.0058
3290.50,0.0057
3290.25,0.0057
3290.00,0.0056
3289.75,0.0056
3289.50,0.0056
3289.25,0.0056
3289.00,0.0056
3288.75,0.0056
3288.50,0.0055
3288.25,0.0054
3288.00,0.0053
3287.75,0.0053
3287.50,0.0054
3287.25,0.0055
3287.00,0.0056
3286.75,0.0055
3286.50,0.0054
3286.25,0.0053
3286.00,0.0052
3285.75,0.0051
3285.50,0.0051
3285.25,0.0050
3285.00,0.0050
3284.75,0.0051
3284.50,0.0053
3284.25,0.0054
3284.00,0.0055
3283.75,0.0054
3283.50,0.0054
3283.25,0.0053
3283.00,0.0053
3282.75,0.0054
3282.50,0.0055
3282.25,0.0056
3282.00,0.0058
3281.75,0.0060
3281.50,0.0061
3281.25,0.0061
3281.00,0.0060
3280.75,0.0059
3280.50,0.0059
3280.25,0.0058
3280.00,0.0057
3279.75,0.0056
3279.50,0.0054
3279.25,0.0053
3279.00,0.0053
3278.75,0.0054
3278.50,0.0055
3278.25,0.0056
3278.00,0.0057
3277.75,0.0057
3277.50,0.0056
3277.25,0.0055
3277.00,0.0054
3276.75,0.0053
3276.50,0.0053
3276.25,0.0052
3276.00,0.0052
3275.75,0.0051
3275.50,0.0051
3275.25,0.0051
3275.00,0.0052
3274.75,0.0053
3274.50,0.0054
3274.25,0.0054
3274.00,0.0055
3273.75,0.0055
3273.50,0.0056
3273.25,0.0056
3273.00,0.0056
3272.75,0.0056
3272.50,0.0057
3272.25,0.0058
3272.00,0.0059
3271.75,0.0060
3271.50,0.0060
3271.25,0.0059
3271.00,0.0058
3270.75,0.0057
3270.50,0.0057
3270.25,0.0056
3270.00,0.0056
3269.75,0.0056
3269.50,0.0056
3269.25,0.0056
3269.00,0.0055
3268.75,0.0055
3268.50,0.0055
3268.25,0.0056
3268.00,0.0056
3267.75,0.0056
3267.50,0.0056
3267.25,0.0056
3267.00,0.0056
3266.75,0.0057
3266.50,0.0057
3266.25,0.0057
3266.00,0.0056
3265.75,0.0055
3265.50,0.0055
3265.25,0.0055
3265.00,0.0056
3264.75,0.0058
3264.50,0.0059
3264.25,0.0060
3264.00,0.0059
3263.75,0.0058
3263.50,0.0056
3263.25,0.0054
3263.00,0.0053
3262.75,0.0051
3262.50,0.0051
3262.25,0.0051
3262.00,0.0052
3261.75,0.0053
3261.50,0.0054
3261.25,0.0055
3261.00,0.0055
3260.75,0.0055
3260.50,0.0055
3260.25,0.0056
3260.00,0.0056
3259.75,0.0056
3259.50,0.0055
3259.25,0.0055
3259.00,0.0054
3258.75,0.0055
3258.50,0.0056
3258.25,0.0057
3258.00,0.0058
3257.75,0.0058
3257.50,0.0058
3257.25,0.0057
3257.00,0.0057
3256.75,0.0057
3256.50,0.0059
3256.25,0.0060
3256.00,0.0061
3255.75,0.0060
3255.50,0.0059
3255.25,0.0058
3255.00,0.0057
3254.75,0.0058
3254.50,0.0059
3254.25,0.0060
3254.00,0.0060
3253.75,0.0060
3253.50,0.0059
3253.25,0.0058
3253.00,0.0058
3252.75,0.0059
3252.50,0.0059
3252.25,0.0059
3252.00,0.0058
3251.75,0.0058
3251.50,0.0057
3251.25,0.0056
3251.00,0.0055
3250.75,0.0053
3250.50,0.0051
3250.25,0.0050
3250.00,0.0050
3249.75,0.0052
3249.50,0.0054
3249.25,0.0057
3249.00,0.0059
3248.75,0.0060
3248.50,0.0060
3248.25,0.0060
3248.00,0.0058
3247.75,0.0058
3247.50,0.0057
3247.25,0.0057
3247.00,0.0057
3246.75,0.0057
3246.50,0.0058
3246.25,0.0058
3246.00,0.0058
3245.75,0.0057
3245.50,0.0055
3245.25,0.0055
3245.00,0.0055
3244.75,0.0055
3244.50,0.0057
3244.25,0.0058
3244.00,0.0059
3243.75,0.0060
3243.50,0.0060
3243.25,0.0059
3243.00,0.0058
3242.75,0.0056
3242.50,0.0055
3242.25,0.0053
3242.00,0.0053
3241.75,0.0053
3241.50,0.0053
3241.25,0.0055
3241.00,0.0057
3240.75,0.0058
3240.50,0.0058
3240.25,0.0057
3240.00,0.0056
3239.75,0.0055
3239.50,0.0055
3239.25,0.0054
3239.00,0.0052
3238.75,0.0050
3238.50,0.0049
3238.25,0.0049
3238.00,0.0051
3237.75,0.0054
3237.50,0.0056
3237.25,0.0057
3237.00,0.0056
3236.75,0.0054
3236.50,0.0053
3236.25,0.0052
3236.00,0.0053
3235.75,0.0054
3235.50,0.0054
3235.25,0.0054
3235.00,0.0054
3234.75,0.0054
3234.50,0.0055
3234.25,0.0056
3234.00,0.0058
3233.75,0.0059
3233.50,0.0060
3233.25,0.0060
3233.00,0.0059
3232.75,0.0057
3232.50,0.0056
3232.25,0.0054
3232.00,0.0053
3231.75,0.0052
3231.50,0.0052
3231.25,0.0051
3231.00,0.0051
3230.75,0.0051
3230.50,0.0052
3230.25,0.0053
3230.00,0.0055
3229.75,0.0056
3229.50,0.0056
3229.25,0.0056
3229.00,0.0055
3228.75,0.0054
3228.50,0.0054
3228.25,0.0054
3228.00,0.0055
3227.75,0.0056
3227.50,0.0058
3227.25,0.0060
3227.00,0.0060
3226.75,0.0060
3226.50,0.0059
3226.25,0.0057
3226.00,0.0056
3225.75,0.0055
3225.50,0.0055
3225.25,0.0056
3225.00,0.0056
3224.75,0.0056
3224.50,0.0054
3224.25,0.0053
3224.00,0.0053
3223.75,0.0053
3223.50,0.0053
3223.25,0.0054
3223.00,0.0055
3222.75,0.0056
3222.50,0.0057
3222.25,0.0057
3222.00,0.0056
3221.75,0.0055
3221.50,0.0054
3221.25,0.0055
3221.00,0.0056
3220.75,0.0057
3220.50,0.0058
3220.25,0.0057
3220.00,0.0056
3219.75,0.0055
3219.50,0.0054
3219.25,0.0054
3219.00,0.0054
3218.75,0.0055
3218.50,0.0056
3218.25,0.0058
3218.00,0.0059
3217.75,0.0060
3217.50,0.0060
3217.25,0.0059
3217.00,0.0057
3216.75,0.0056
3216.50,0.0056
3216.25,0.0056
3216.00,0.0057
3215.75,0.0057
3215.50,0.0057
3215.25,0.0057
3215.00,0.0056
3214.75,0.0055
3214.50,0.0054
3214.25,0.0054
3214.00,0.0055
3213.75,0.0056
3213.50,0.0057
3213.25,0.0057
3213.00,0.0056
3212.75,0.0055
3212.50,0.0054
3212.25,0.0053
3212.00,0.0053
3211.75,0.0054
3211.50,0.0055
3211.25,0.0055
3211.00,0.0055
3210.75,0.0055
3210.50,0.0055
3210.25,0.0055
3210.00,0.0056
3209.75,0.0058
3209.50,0.0060
3209.25,0.0062
3209.00,0.0063
3208.75,0.0062
3208.50,0.0059
3208.25,0.0056
3208.00,0.0053
3207.75,0.0052
3207.50,0.0051
3207.25,0.0052
3207.00,0.0053
3206.75,0.0054
3206.50,0.0055
3206.25,0.0055
3206.00,0.0056
3205.75,0.0055
3205.50,0.0055
3205.25,0.0054
3205.00,0.0054
3204.75,0.0053
3204.50,0.0053
3204.25,0.0052
3204.00,0.0052
3203.75,0.0052
3203.50,0.0053
3203.25,0.0054
3203.00,0.0054
3202.75,0.0055
3202.50,0.0055
3202.25,0.0055
3202.00,0.0055
3201.75,0.0055
3201.50,0.0056
3201.25,0.0056
3201.00,0.0057
3200.75,0.0057
3200.50,0.0058
3200.25,0.0057
3200.00,0.0055
3199.75,0.0053
3199.50,0.0051
3199.25,0.0050
3199.00,0.0050
3198.75,0.0050
3198.50,0.0051
3198.25,0.0053
3198.00,0.0054
3197.75,0.0055
3197.50,0.0055
3197.25,0.0055
3197.00,0.0056
3196.75,0.0057
3196.50,0.0057
3196.25,0.0057
3196.00,0.0057
3195.75,0.0056
3195.50,0.0056
3195.25,0.0056
3195.00,0.0057
3194.75,0.0057
3194.50,0.0056
3194.25,0.0056
3194.00,0.0057
3193.75,0.0057
3193.50,0.0058
3193.25,0.0057
3193.00,0.0055
3192.75,0.0054
3192.50,0.0054
3192.25,0.0054
3192.00,0.0055
3191.75,0.0056
3191.50,0.0057
3191.25,0.0057
3191.00,0.0057
3190.75,0.0056
3190.50,0.0055
3190.25,0.0054
3190.00,0.0054
3189.75,0.0054
3189.50,0.0055
3189.25,0.0055
3189.00,0.0057
3188.75,0.0058
3188.50,0.0059
3188.25,0.0060
3188.00,0.0060
3187.75,0.0059
3187.50,0.0058
3187.25,0.0057
3187.00,0.0055
3186.75,0.0054
3186.50,0.0053
3186.25,0.0052
3186.00,0.0052
3185.75,0.0053
3185.50,0.0054
3185.25,0.0054
3185.00,0.0055
3184.75,0.0055
3184.50,0.0054
3184.25,0.0054
3184.00,0.0055
3183.75,0.0056
3183.50,0.0057
3183.25,0.0057
3183.00,0.0056
3182.75,0.0055
3182.50,0.0054
3182.25,0.0053
3182.00,0.0053
3181.75,0.0054
3181.50,0.0055
3181.25,0.0055
3181.00,0.0055
3180.75,0.0055
3180.50,0.0054
3180.25,0.0055
3180.00,0.0056
3179.75,0.0057
3179.50,0.0057
3179.25,0.0057
3179.00,0.0056
3178.75,0.0056
3178.50,0.0056
3178.25,0.0056
3178.00,0.0057
3177.75,0.0056
3177.50,0.0056
3177.25,0.0055
3177.00,0.0055
3176.75,0.0055
3176.50,0.0055
3176.25,0.0056
3176.00,0.0057
3175.75,0.0058
3175.50,0.0060
3175.25,0.0060
3175.00,0.0060
3174.75,0.0060
3174.50,0.0060
3174.25,0.0060
3174.00,0.0060
3173.75,0.0059
3173.50,0.0058
3173.25,0.0056
3173.00,0.0054
3172.75,0.0054
3172.50,0.0056
3172.25,0.0057
3172.00,0.0058
3171.75,0.0058
3171.50,0.0057
3171.25,0.0056
3171.00,0.0056
3170.75,0.0056
3170.50,0.0055
3170.25,0.0054
3170.00,0.0053
3169.75,0.0053
3169.50,0.0053
3169.25,0.0054
3169.00,0.0054
3168.75,0.0055
3168.50,0.0055
3168.25,0.0055
3168.00,0.0055
3167.75,0.0056
3167.50,0.0056
3167.25,0.0056
3167.00,0.0056
3166.75,0.0057
3166.50,0.0058
3166.25,0.0058
3166.00,0.0059
3165.75,0.0058
3165.50,0.0058
3165.25,0.0058
3165.00,0.0059
3164.75,0.0059
3164.50,0.0058
3164.25,0.0057
3164.00,0.0056
3163.75,0.0055
3163.50,0.0053
3163.25,0.0052
3163.00,0.0052
3162.75,0.0052
3162.50,0.0053
3162.25,0.0054
3162.00,0.0055
3161.75,0.0054
3161.50,0.0053
3161.25,0.0052
3161.00,0.0052
3160.75,0.0053
3160.50,0.0053
3160.25,0.0054
3160.00,0.0054
3159.75,0.0054
3159.50,0.0054
3159.25,0.0055
3159.00,0.0056
3158.75,0.0056
3158.50,0.0056
3158.25,0.0056
3158.00,0.0056
3157.75,0.0055
3157.50,0.0054
3157.25,0.0053
3157.00,0.0053
3156.75,0.0054
3156.50,0.0055
3156.25,0.0056
3156.00,0.0058
3155.75,0.0059
3155.50,0.0061
3155.25,0.0062
3155.00,0.0062
3154.75,0.0062
3154.50,0.0061
3154.25,0.0060
3154.00,0.0059
3153.75,0.0057
3153.50,0.0056
3153.25,0.0055
3153.00,0.0056
3152.75,0.0057
3152.50,0.0058
3152.25,0.0060
3152.00,0.0060
3151.75,0.0059
3151.50,0.0058
3151.25,0.0057
3151.00,0.0056
3150.75,0.0055
3150.50,0.0055
3150.25,0.0055
3150.00,0.0055
3149.75,0.0056
3149.50,0.0058
3149.25,0.0059
3149.00,0.0060
3148.75,0.0059
3148.50,0.0058
3148.25,0.0057
3148.00,0.0057
3147.75,0.0056
3147.50,0.0056
3147.25,0.0056
3147.00,0.0057
3146.75,0.0058
3146.50,0.0059
3146.25,0.0059
3146.00,0.0059
3145.75,0.0059
3145.50,0.0058
3145.25,0.0058
3145.00,0.0058
3144.75,0.0059
3144.50,0.0059
3144.25,0.0060
3144.00,0.0060
3143.75,0.0059
3143.50,0.0059
3143.25,0.0059
3143.00,0.0058
3142.75,0.0058
3142.50,0.0057
3142.25,0.0056
3142.00,0.0056
3141.75,0.0055
3141.50,0.0054
3141.25,0.0054
3141.00,0.0053
3140.75,0.0053
3140.50,0.0055
3140.25,0.0056
3140.00,0.0058
3139.75,0.0058
3139.50,0.0058
3139.25,0.0058
3139.00,0.0057
3138.75,0.0057
3138.50,0.0056
3138.25,0.0055
3138.00,0.0054
3137.75,0.0053
3137.50,0.0052
3137.25,0.0052
3137.00,0.0053
3136.75,0.0055
3136.50,0.0056
3136.25,0.0056
3136.00,0.0056
3135.75,0.0054
3135.50,0.0052
3135.25,0.0051
3135.00,0.0052
3134.75,0.0053
3134.50,0.0055
3134.25,0.0057
3134.00,0.0058
3133.75,0.0058
3133.50,0.0057
3133.25,0.0056
3133.00,0.0056
3132.75,0.0056
3132.50,0.0057
3132.25,0.0058
3132.00,0.0059
3131.75,0.0058
3131.50,0.0058
3131.25,0.0057
3131.00,0.0057
3130.75,0.0058
3130.50,0.0059
3130.25,0.0060
3130.00,0.0061
3129.75,0.0062
3129.50,0.0061
3129.25,0.0060
3129.00,0.0059
3128.75,0.0057
3128.50,0.0055
3128.25,0.0054
3128.00,0.0054
3127.75,0.0055
3127.50,0.0056
3127.25,0.0058
3127.00,0.0058
3126.75,0.0057
3126.50,0.0056
3126.25,0.0056
3126.00,0.0056
3125.75,0.0057
3125.50,0.0059
3125.25,0.0059
3125.00,0.0059
3124.75,0.0058
3124.50,0.0057
3124.25,0.0057
3124.00,0.0057
3123.75,0.0057
3123.50,0.0058
3123.25,0.0059
3123.00,0.0059
3122.75,0.0059
3122.50,0.0058
3122.25,0.0058
3122.00,0.0057
3121.75,0.0057
3121.50,0.0057
3121.25,0.0058
3121.00,0.0059
3120.75,0.0059
3120.50,0.0059
3120.25,0.0059
3120.00,0.0058
3119.75,0.0057
3119.50,0.0057
3119.25,0.0056
3119.00,0.0056
3118.75,0.0056
3118.50,0.0057
3118.25,0.0057
3118.00,0.0056
3117.75,0.0056
3117.50,0.0056
3117.25,0.0056
3117.00,0.0057
3116.75,0.0057
3116.50,0.0058
3116.25,0.0058
3116.00,0.0058
3115.75,0.0057
3115.50,0.0057
3115.25,0.0057
3115.00,0.0057
3114.75,0.0058
3114.50,0.0058
3114.25,0.0059
3114.00,0.0059
3113.75,0.0059
3113.50,0.0060
3113.25,0.0060
3113.00,0.0059
3112.75,0.0058
3112.50,0.0057
3112.25,0.0056
3112.00,0.0055
3111.75,0.0055
3111.50,0.0056
3111.25,0.0056
3111.00,0.0056
3110.75,0.0057
3110.50,0.0058
3110.25,0.0059
3110.00,0.0060
3109.75,0.0060
3109.50,0.0060
3109.25,0.0058
3109.00,0.0057
3108.75,0.0057
3108.50,0.0056
3108.25,0.0056
3108.00,0.0056
3107.75,0.0057
3107.50,0.0058
3107.25,0.0059
3107.00,0.0059
3106.75,0.0059
3106.50,0.0060
3106.25,0.0060
3106.00,0.0060
3105.75,0.0061
3105.50,0.0061
3105.25,0.0060
3105.00,0.0058
3104.75,0.0055
3104.50,0.0053
3104.25,0.0051
3104.00,0.0051
3103.75,0.0051
3103.50,0.0052
3103.25,0.0054
3103.00,0.0055
3102.75,0.0056
3102.50,0.0056
3102.25,0.0057
3102.00,0.0057
3101.75,0.0058
3101.50,0.0058
3101.25,0.0059
3101.00,0.0059
3100.75,0.0059
3100.50,0.0059
3100.25,0.0059
3100.00,0.0059
3099.75,0.0059
3099.50,0.0059
3099.25,0.0058
3099.00,0.0058
3098.75,0.0056
3098.50,0.0055
3098.25,0.0054
3098.00,0.0053
3097.75,0.0054
3097.50,0.0056
3097.25,0.0057
3097.00,0.0058
3096.75,0.0058
3096.50,0.0058
3096.25,0.0059
3096.00,0.0060
3095.75,0.0060
3095.50,0.0060
3095.25,0.0059
3095.00,0.0057
3094.75,0.0055
3094.50,0.0054
3094.25,0.0053
3094.00,0.0053
3093.75,0.0054
3093.50,0.0056
3093.25,0.0058
3093.00,0.0059
3092.75,0.0060
3092.50,0.0059
3092.25,0.0058
3092.00,0.0056
3091.75,0.0054
3091.50,0.0053
3091.25,0.0053
3091.00,0.0053
3090.75,0.0053
3090.50,0.0052
3090.25,0.0051
3090.00,0.0050
3089.75,0.0049
3089.50,0.0049
3089.25,0.0050
3089.00,0.0052
3088.75,0.0053
3088.50,0.0054
3088.25,0.0056
3088.00,0.0056
3087.75,0.0057
3087.50,0.0057
3087.25,0.0057
3087.00,0.0056
3086.75,0.0055
3086.50,0.0056
3086.25,0.0056
3086.00,0.0056
3085.75,0.0056
3085.50,0.0055
3085.25,0.0055
3085.00,0.0055
3084.75,0.0055
3084.50,0.0056
3084.25,0.0056
3084.00,0.0055
3083.75,0.0054
3083.50,0.0053
3083.25,0.0053
3083.00,0.0052
3082.75,0.0053
3082.50,0.0055
3082.25,0.0056
3082.00,0.0057
3081.75,0.0057
3081.50,0.0057
3081.25,0.0056
3081.00,0.0055
3080.75,0.0055
3080.50,0.0055
3080.25,0.0054
3080.00,0.0055
3079.75,0.0055
3079.50,0.0055
3079.25,0.0056
3079.00,0.0057
3078.75,0.0057
3078.50,0.0056
3078.25,0.0056
3078.00,0.0056
3077.75,0.0057
3077.50,0.0058
3077.25,0.0059
3077.00,0.0060
3076.75,0.0059
3076.50,0.0059
3076.25,0.0058
3076.00,0.0057
3075.75,0.0056
3075.50,0.0056
3075.25,0.0056
3075.00,0.0057
3074.75,0.0057
3074.50,0.0057
3074.25,0.0056
3074.00,0.0056
3073.75,0.0055
3073.50,0.0055
3073.25,0.0054
3073.00,0.0054
3072.75,0.0055
3072.50,0.0056
3072.25,0.0057
3072.00,0.0057
3071.75,0.0058
3071.50,0.0057
3071.25,0.0057
3071.00,0.0057
3070.75,0.0057
3070.50,0.0057
3070.25,0.0058
3070.00,0.0057
3069.75,0.0057
3069.50,0.0055
3069.25,0.0054
3069.00,0.0054
3068.75,0.0054
3068.50,0.0055
3068.25,0.0055
3068.00,0.0056
3067.75,0.0056
3067.50,0.0055
3067.25,0.0054
3067.00,0.0054
3066.75,0.0054
3066.50,0.0055
3066.25,0.0055
3066.00,0.0055
3065.75,0.0054
3065.50,0.0054
3065.25,0.0053
3065.00,0.0053
3064.75,0.0053
3064.50,0.0053
3064.25,0.0054
3064.00,0.0055
3063.75,0.0056
3063.50,0.0057
3063.25,0.0057
3063.00,0.0057
3062.75,0.0056
3062.50,0.0054
3062.25,0.0053
3062.00,0.0053
3061.75,0.0053
3061.50,0.0054
3061.25,0.0055
3061.00,0.0056
3060.75,0.0056
3060.50,0.0056
3060.25,0.0056
3060.00,0.0056
3059.75,0.0057
3059.50,0.0058
3059.25,0.0058
3059.00,0.0059
3058.75,0.0059
3058.50,0.0060
3058.25,0.0060
3058.00,0.0061
3057.75,0.0061
3057.50,0.0061
3057.25,0.0060
3057.00,0.0059
3056.75,0.0058
3056.50,0.0056
3056.25,0.0055
3056.00,0.0056
3055.75,0.0056
3055.50,0.0057
3055.25,0.0058
3055.00,0.0059
3054.75,0.0060
3054.50,0.0060
3054.25,0.0060
3054.00,0.0060
3053.75,0.0059
3053.50,0.0058
3053.25,0.0057
3053.00,0.0056
3052.75,0.0055
3052.50,0.0055
3052.25,0.0056
3052.00,0.0057
3051.75,0.0059
3051.50,0.0060
3051.25,0.0060
3051.00,0.0060
3050.75,0.0059
3050.50,0.0058
3050.25,0.0057
3050.00,0.0055
3049.75,0.0054
3049.50,0.0054
3049.25,0.0054
3049.00,0.0054
3048.75,0.0054
3048.50,0.0053
3048.25,0.0053
3048.00,0.0053
3047.75,0.0054
3047.50,0.0055
3047.25,0.0056
3047.00,0.0056
3046.75,0.0055
3046.50,0.0054
3046.25,0.0052
3046.00,0.0051
3045.75,0.0049
3045.50,0.0049
3045.25,0.0049
3045.00,0.0051
3044.75,0.0054
3044.50,0.0055
3044.25,0.0054
3044.00,0.0052
3043.75,0.0049
3043.50,0.0046
3043.25,0.0046
3043.00,0.0047
3042.75,0.0048
3042.50,0.0049
3042.25,0.0050
3042.00,0.0051
3041.75,0.0053
3041.50,0.0055
3041.25,0.0056
3041.00,0.0056
3040.75,0.0055
3040.50,0.0053
3040.25,0.0051
3040.00,0.0050
3039.75,0.0050
3039.50,0.0051
3039.25,0.0051
3039.00,0.0051
3038.75,0.0051
3038.50,0.0051
3038.25,0.0052
3038.00,0.0053
3037.75,0.0055
3037.50,0.0056
3037.25,0.0056
3037.00,0.0055
3036.75,0.0054
3036.50,0.0053
3036.25,0.0053
3036.00,0.0053
3035.75,0.0055
3035.50,0.0056
3035.25,0.0056
3035.00,0.0056
3034.75,0.0054
3034.50,0.0053
3034.25,0.0052
3034.00,0.0051
3033.75,0.0051
3033.50,0.0050
3033.25,0.0050
3033.00,0.0050
3032.75,0.0050
3032.50,0.0050
3032.25,0.0051
3032.00,0.0052
3031.75,0.0052
3031.50,0.0053
3031.25,0.0053
3031.00,0.0053
3030.75,0.0052
3030.50,0.0052
3030.25,0.0051
3030.00,0.0051
3029.75,0.0050
3029.50,0.0050
3029.25,0.0050
3029.00,0.0051
3028.75,0.0052
3028.50,0.0053
3028.25,0.0054
3028.00,0.0054
3027.75,0.0055
3027.50,0.0056
3027.25,0.0056
3027.00,0.0057
3026.75,0.0057
3026.50,0.0057
3026.25,0.0056
3026.00,0.0055
3025.75,0.0055
3025.50,0.0055
3025.25,0.0055
3025.00,0.0055
3024.75,0.0055
3024.50,0.0056
3024.25,0.0057
3024.00,0.0057
3023.75,0.0058
3023.50,0.0057
3023.25,0.0057
3023.00,0.0057
3022.75,0.0057
3022.50,0.0057
3022.25,0.0057
3022.00,0.0056
3021.75,0.0056
3021.50,0.0056
3021.25,0.0056
3021.00,0.0057
3020.75,0.0058
3020.50,0.0058
3020.25,0.0058
3020.00,0.0058
3019.75,0.0058
3019.50,0.0058
3019.25,0.0058
3019.00,0.0058
3018.75,0.0058
3018.50,0.0058
3018.25,0.0059
3018.00,0.0060
3017.75,0.0061
3017.50,0.0063
3017.25,0.0063
3017.00,0.0063
3016.75,0.0062
3016.50,0.0060
3016.25,0.0059
3016.00,0.0058
3015.75,0.0058
3015.50,0.0058
3015.25,0.0059
3015.00,0.0059
3014.75,0.0060
3014.50,0.0060
3014.25,0.0061
3014.00,0.0061
3013.75,0.0061
3013.50,0.0060
3013.25,0.0059
3013.00,0.0058
3012.75,0.0057
3012.50,0.0056
3012.25,0.0057
3012.00,0.0059
3011.75,0.0060
3011.50,0.0062
3011.25,0.0062
3011.00,0.0063
3010.75,0.0064
3010.50,0.0064
3010.25,0.0064
3010.00,0.0063
3009.75,0.0062
3009.50,0.0060
3009.25,0.0060
3009.00,0.0060
3008.75,0.0060
3008.50,0.0061
3008.25,0.0063
3008.00,0.0063
3007.75,0.0063
3007.50,0.0063
3007.25,0.0062
3007.00,0.0062
3006.75,0.0062
3006.50,0.0061
3006.25,0.0061
3006.00,0.0061
3005.75,0.0062
3005.50,0.0062
3005.25,0.0062
3005.00,0.0062
3004.75,0.0061
3004.50,0.0062
3004.25,0.0062
3004.00,0.0063
3003.75,0.0064
3003.50,0.0065
3003.25,0.0066
3003.00,0.0067
3002.75,0.0067
3002.50,0.0067
3002.25,0.0067
3002.00,0.0067
3001.75,0.0068
3001.50,0.0068
3001.25,0.0069
3001.00,0.0068
3000.75,0.0067
3000.50,0.0065
3000.25,0.0063
3000.00,0.0062
2999.75,0.0062
2999.50,0.0062
2999.25,0.0063
2999.00,0.0064
2998.75,0.0065
2998.50,0.0066
2998.25,0.0067
2998.00,0.0067
2997.75,0.0068
2997.50,0.0068
2997.25,0.0068
2997.00,0.0068
2996.75,0.0068
2996.50,0.0069
2996.25,0.0069
2996.00,0.0070
2995.75,0.0071
2995.50,0.0071
2995.25,0.0071
2995.00,0.0071
2994.75,0.0071
2994.50,0.0070
2994.25,0.0069
2994.00,0.0069
2993.75,0.0070
2993.50,0.0070
2993.25,0.0071
2993.00,0.0071
2992.75,0.0072
2992.50,0.0072
2992.25,0.0072
2992.00,0.0071
2991.75,0.0071
2991.50,0.0071
2991.25,0.0072
2991.00,0.0073
2990.75,0.0073
2990.50,0.0074
2990.25,0.0075
2990.00,0.0075
2989.75,0.0076
2989.50,0.0077
2989.25,0.0078
2989.00,0.0080
2988.75,0.0080
2988.50,0.0080
2988.25,0.0079
2988.00,0.0078
2987.75,0.0077
2987.50,0.0078
2987.25,0.0079
2987.00,0.0080
2986.75,0.0081
2986.50,0.0083
2986.25,0.0083
2986.00,0.0083
2985.75,0.0083
2985.50,0.0083
2985.25,0.0084
2985.00,0.0086
2984.75,0.0089
2984.50,0.0090
2984.25,0.0090
2984.00,0.0090
2983.75,0.0089
2983.50,0.0089
2983.25,0.0090
2983.00,0.0092
2982.75,0.0093
2982.50,0.0094
2982.25,0.0095
2982.00,0.0096
2981.75,0.0098
2981.50,0.0099
2981.25,0.0100
2981.00,0.0101
2980.75,0.0101
2980.50,0.0101
2980.25,0.0102
2980.00,0.0105
2979.75,0.0107
2979.50,0.0110
2979.25,0.0113
2979.00,0.0116
2978.75,0.0118
2978.50,0.0120
2978.25,0.0122
2978.00,0.0123
2977.75,0.0124
2977.50,0.0126
2977.25,0.0127
2977.00,0.0128
2976.75,0.0130
2976.50,0.0133
2976.25,0.0135
2976.00,0.0137
2975.75,0.0140
2975.50,0.0142
2975.25,0.0145
2975.00,0.0148
2974.75,0.0151
2974.50,0.0154
2974.25,0.0157
2974.00,0.0161
2973.75,0.0165
2973.50,0.0170
2973.25,0.0174
2973.00,0.0178
2972.75,0.0180
2972.50,0.0183
2972.25,0.0186
2972.00,0.0190
2971.75,0.0195
2971.50,0.0200
2971.25,0.0205
2971.00,0.0210
2970.75,0.0215
2970.50,0.0220
2970.25,0.0226
2970.00,0.0232
2969.75,0.0237
2969.50,0.0242
2969.25,0.0247
2969.00,0.0251
2968.75,0.0255
2968.50,0.0259
2968.25,0.0264
2968.00,0.0269
2967.75,0.0275
2967.50,0.0282
2967.25,0.0290
2967.00,0.0298
2966.75,0.0305
2966.50,0.0311
2966.25,0.0316
2966.00,0.0320
2965.75,0.0325
2965.50,0.0329
2965.25,0.0334
2965.00,0.0339
2964.75,0.0345
2964.50,0.0350
2964.25,0.0355
2964.00,0.0359
2963.75,0.0362
2963.50,0.0363
2963.25,0.0363
2963.00,0.0363
2962.75,0.0364
2962.50,0.0365
2962.25,0.0366
2962.00,0.0368
2961.75,0.0369
2961.50,0.0369
2961.25,0.0369
2961.00,0.0367
2960.75,0.0363
2960.50,0.0359
2960.25,0.0354
2960.00,0.0349
2959.75,0.0345
2959.50,0.0341
2959.25,0.0337
2959.00,0.0333
2958.75,0.0329
2958.50,0.0323
2958.25,0.0316
2958.00,0.0309
2957.75,0.0303
2957.50,0.0297
2957.25,0.0291
2957.00,0.0285
2956.75,0.0278
2956.50,0.0270
2956.25,0.0264
2956.00,0.0258
2955.75,0.0252
2955.50,0.0247
2955.25,0.0242
2955.00,0.0237
2954.75,0.0232
2954.50,0.0226
2954.25,0.0220
2954.00,0.0213
2953.75,0.0207
2953.50,0.0202
2953.25,0.0197
2953.00,0.0192
2952.75,0.0187
2952.50,0.0182
2952.25,0.0177
2952.00,0.0173
2951.75,0.0170
2951.50,0.0167
2951.25,0.0163
2951.00,0.0160
2950.75,0.0158
2950.50,0.0156
2950.25,0.0154
2950.00,0.0151
2949.75,0.0147
2949.50,0.0143
2949.25,0.0140
2949.00,0.0137
2948.75,0.0134
2948.50,0.0131
2948.25,0.0128
2948.00,0.0125
2947.75,0.0124
2947.50,0.0124
2947.25,0.0124
2947.00,0.0124
2946.75,0.0123
2946.50,0.0122
2946.25,0.0120
2946.00,0.0118
2945.75,0.0115
2945.50,0.0112
2945.25,0.0109
2945.00,0.0107
2944.75,0.0105
2944.50,0.0103
2944.25,0.0101
2944.00,0.0100
2943.75,0.0100
2943.50,0.0099
2943.25,0.0099
2943.00,0.0099
2942.75,0.0099
2942.50,0.0099
2942.25,0.0099
2942.00,0.0098
2941.75,0.0096
2941.50,0.0094
2941.25,0.0092
2941.00,0.0092
2940.75,0.0091
2940.50,0.0091
2940.25,0.0090
2940.00,0.0090
2939.75,0.0089
2939.50,0.0089
2939.25,0.0089
2939.00,0.0088
2938.75,0.0086
2938.50,0.0084
2938.25,0.0083
2938.00,0.0084
2937.75,0.0084
2937.50,0.0084
2937.25,0.0084
2937.00,0.0083
2936.75,0.0082
2936.50,0.0081
2936.25,0.0080
2936.00,0.0080
2935.75,0.0079
2935.50,0.0078
2935.25,0.0077
2935.00,0.0077
2934.75,0.0078
2934.50,0.0078
2934.25,0.0078
2934.00,0.0077
2933.75,0.0078
2933.50,0.0078
2933.25,0.0079
2933.00,0.0079
2932.75,0.0080
2932.50,0.0079
2932.25,0.0079
2932.00,0.0078
2931.75,0.0077
2931.50,0.0075
2931.25,0.0074
2931.00,0.0073
2930.75,0.0073
2930.50,0.0073
2930.25,0.0074
2930.00,0.0075
2929.75,0.0076
2929.50,0.0076
2929.25,0.0077
2929.00,0.0078
2928.75,0.0078
2928.50,0.0077
2928.25,0.0075
2928.00,0.0074
2927.75,0.0074
2927.50,0.0074
2927.25,0.0074
2927.00,0.0074
2926.75,0.0073
2926.50,0.0071
2926.25,0.0070
2926.00,0.0070
2925.75,0.0070
2925.50,0.0071
2925.25,0.0072
2925.00,0.0073
2924.75,0.0073
2924.50,0.0073
2924.25,0.0073
2924.00,0.0073
2923.75,0.0073
2923.50,0.0073
2923.25,0.0073
2923.00,0.0073
2922.75,0.0074
2922.50,0.0075
2922.25,0.0076
2922.00,0.0076
2921.75,0.0076
2921.50,0.0075
2921.25,0.0074
2921.00,0.0073
2920.75,0.0073
2920.50,0.0073
2920.25,0.0073
2920.00,0.0073
2919.75,0.0073
2919.50,0.0073
2919.25,0.0073
2919.00,0.0074
2918.75,0.0074
2918.50,0.0075
2918.25,0.0076
2918.00,0.0077
2917.75,0.0078
2917.50,0.0080
2917.25,0.0081
2917.00,0.0082
2916.75,0.0081
2916.50,0.0080
2916.25,0.0078
2916.00,0.0077
2915.75,0.0076
2915.50,0.0076
2915.25,0.0076
2915.00,0.0078
2914.75,0.0079
2914.50,0.0080
2914.25,0.0082
2914.00,0.0083
2913.75,0.0084
2913.50,0.0085
2913.25,0.0085
2913.00,0.0085
2912.75,0.0085
2912.50,0.0084
2912.25,0.0083
2912.00,0.0083
2911.75,0.0083
2911.50,0.0084
2911.25,0.0086
2911.00,0.0086
2910.75,0.0086
2910.50,0.0086
2910.25,0.0087
2910.00,0.0088
2909.75,0.0089
2909.50,0.0091
2909.25,0.0091
2909.00,0.0091
2908.75,0.0091
2908.50,0.0092
2908.25,0.0094
2908.00,0.0096
2907.75,0.0097
2907.50,0.0097
2907.25,0.0097
2907.00,0.0097
2906.75,0.0098
2906.50,0.0099
2906.25,0.0100
2906.00,0.0101
2905.75,0.0101
2905.50,0.0100
2905.25,0.0099
2905.00,0.0098
2904.75,0.0096
2904.50,0.0096
2904.25,0.0096
2904.00,0.0097
2903.75,0.0098
2903.50,0.0099
2903.25,0.0099
2903.00,0.0099
2902.75,0.0100
2902.50,0.0100
2902.25,0.0101
2902.00,0.0101
2901.75,0.0101
2901.50,0.0101
2901.25,0.0100
2901.00,0.0099
2900.75,0.0098
2900.50,0.0097
2900.25,0.0096
2900.00,0.0095
2899.75,0.0095
2899.50,0.0094
2899.25,0.0093
2899.00,0.0092
2898.75,0.0091
2898.50,0.0090
2898.25,0.0089
2898.00,0.0088
2897.75,0.0087
2897.50,0.0087
2897.25,0.0087
2897.00,0.0086
2896.75,0.0085
2896.50,0.0084
2896.25,0.0082
2896.00,0.0081
2895.75,0.0081
2895.50,0.0081
2895.25,0.0082
2895.00,0.0082
2894.75,0.0082
2894.50,0.0082
2894.25,0.0082
2894.00,0.0081
2893.75,0.0081
2893.50,0.0081
2893.25,0.0080
2893.00,0.0079
2892.75,0.0078
2892.50,0.0077
2892.25,0.0076
2892.00,0.0075
2891.75,0.0074
2891.50,0.0074
2891.25,0.0075
2891.00,0.0075
2890.75,0.0075
2890.50,0.0074
2890.25,0.0073
2890.00,0.0071
2889.75,0.0069
2889.50,0.0068
2889.25,0.0068
2889.00,0.0069
2888.75,0.0070
2888.50,0.0072
2888.25,0.0073
2888.00,0.0073
2887.75,0.0073
2887.50,0.0071
2887.25,0.0070
2887.00,0.0070
2886.75,0.0070
2886.50,0.0070
2886.25,0.0069
2886.00,0.0069
2885.75,0.0068
2885.50,0.0067
2885.25,0.0067
2885.00,0.0067
2884.75,0.0068
2884.50,0.0069
2884.25,0.0069
2884.00,0.0069
2883.75,0.0069
2883.50,0.0068
2883.25,0.0067
2883.00,0.0067
2882.75,0.0067
2882.50,0.0068
2882.25,0.0069
2882.00,0.0070
2881.75,0.0070
2881.50,0.0069
2881.25,0.0068
2881.00,0.0066
2880.75,0.0066
2880.50,0.0066
2880.25,0.0067
2880.00,0.0068
2879.75,0.0068
2879.50,0.0068
2879.25,0.0068
2879.00,0.0066
2878.75,0.0065
2878.50,0.0064
2878.25,0.0065
2878.00,0.0066
2877.75,0.0066
2877.50,0.0066
2877.25,0.0066
2877.00,0.0065
2876.75,0.0064
2876.50,0.0063
2876.25,0.0063
2876.00,0.0063
2875.75,0.0062
2875.50,0.0063
2875.25,0.0064
2875.00,0.0067
2874.75,0.0068
2874.50,0.0069
2874.25,0.0069
2874.00,0.0067
2873.75,0.0064
2873.50,0.0062
2873.25,0.0061
2873.00,0.0060
2872.75,0.0060
2872.50,0.0060
2872.25,0.0060
2872.00,0.0061
2871.75,0.0062
2871.50,0.0063
2871.25,0.0063
2871.00,0.0063
2870.75,0.0063
2870.50,0.0064
2870.25,0.0065
2870.00,0.0066
2869.75,0.0066
2869.50,0.0066
2869.25,0.0066
2869.00,0.0065
2868.75,0.0065
2868.50,0.0065
2868.25,0.0065
2868.00,0.0065
2867.75,0.0064
2867.50,0.0063
2867.25,0.0062
2867.00,0.0061
2866.75,0.0060
2866.50,0.0060
2866.25,0.0059
2866.00,0.0059
2865.75,0.0060
2865.50,0.0061
2865.25,0.0063
2865.00,0.0063
2864.75,0.0063
2864.50,0.0062
2864.25,0.0062
2864.00,0.0062
2863.75,0.0062
2863.50,0.0063
2863.25,0.0064
2863.00,0.0065
2862.75,0.0064
2862.50,0.0063
2862.25,0.0061
2862.00,0.0060
2861.75,0.0060
2861.50,0.0061
2861.25,0.0061
2861.00,0.0062
2860.75,0.0062
2860.50,0.0061
2860.25,0.0061
2860.00,0.0060
2859.75,0.0059
2859.50,0.0059
2859.25,0.0059
2859.00,0.0060
2858.75,0.0060
2858.50,0.0061
2858.25,0.0061
2858.00,0.0062
2857.75,0.0063
2857.50,0.0064
2857.25,0.0066
2857.00,0.0066
2856.75,0.0064
2856.50,0.0062
2856.25,0.0059
2856.00,0.0057
2855.75,0.0057
2855.50,0.0057
2855.25,0.0057
2855.00,0.0058
2854.75,0.0060
2854.50,0.0061
2854.25,0.0063
2854.00,0.0064
2853.75,0.0064
2853.50,0.0063
2853.25,0.0062
2853.00,0.0061
2852.75,0.0060
2852.50,0.0059
2852.25,0.0058
2852.00,0.0058
2851.75,0.0058
2851.50,0.0059
2851.25,0.0061
2851.00,0.0062
2850.75,0.0063
2850.50,0.0063
2850.25,0.0064
2850.00,0.0064
2849.75,0.0064
2849.50,0.0063
2849.25,0.0063
2849.00,0.0062
2848.75,0.0062
2848.50,0.0061
2848.25,0.0060
2848.00,0.0060
2847.75,0.0059
2847.50,0.0060
2847.25,0.0061
2847.00,0.0061
2846.75,0.0062
2846.50,0.0062
2846.25,0.0061
2846.00,0.0061
2845.75,0.0061
2845.50,0.0060
2845.25,0.0059
2845.00,0.0059
2844.75,0.0059
2844.50,0.0059
2844.25,0.0060
2844.00,0.0060
2843.75,0.0061
2843.50,0.0061
2843.25,0.0062
2843.00,0.0062
2842.75,0.0062
2842.50,0.0062
2842.25,0.0061
2842.00,0.0061
2841.75,0.0060
2841.50,0.0059
2841.25,0.0059
2841.00,0.0060
2840.75,0.0060
2840.50,0.0060
2840.25,0.0060
2840.00,0.0060
2839.75,0.0060
2839.50,0.0059
2839.25,0.0059
2839.00,0.0059
2838.75,0.0060
2838.50,0.0061
2838.25,0.0062
2838.00,0.0065
2837.75,0.0067
2837.50,0.0067
2837.25,0.0066
2837.00,0.0064
2836.75,0.0062
2836.50,0.0061
2836.25,0.0060
2836.00,0.0060
2835.75,0.0060
2835.50,0.0060
2835.25,0.0060
2835.00,0.0060
2834.75,0.0060
2834.50,0.0060
2834.25,0.0060
2834.00,0.0060
2833.75,0.0060
2833.50,0.0060
2833.25,0.0060
2833.00,0.0059
2832.75,0.0059
2832.50,0.0059
2832.25,0.0060
2832.00,0.0062
2831.75,0.0064
2831.50,0.0065
2831.25,0.0065
2831.00,0.0064
2830.75,0.0063
2830.50,0.0062
2830.25,0.0062
2830.00,0.0062
2829.75,0.0062
2829.50,0.0062
2829.25,0.0063
2829.00,0.0063
2828.75,0.0063
2828.50,0.0063
2828.25,0.0062
2828.00,0.0061
2827.75,0.0060
2827.50,0.0059
2827.25,0.0059
2827.00,0.0058
2826.75,0.0058
2826.50,0.0059
2826.25,0.0060
2826.00,0.0061
2825.75,0.0062
2825.50,0.0063
2825.25,0.0063
2825.00,0.0063
2824.75,0.0063
2824.50,0.0062
2824.25,0.0061
2824.00,0.0060
2823.75,0.0060
2823.50,0.0059
2823.25,0.0059
2823.00,0.0059
2822.75,0.0059
2822.50,0.0059
2822.25,0.0059
2822.00,0.0060
2821.75,0.0061
2821.50,0.0061
2821.25,0.0061
2821.00,0.0062
2820.75,0.0062
2820.50,0.0062
2820.25,0.0062
2820.00,0.0062
2819.75,0.0062
2819.50,0.0062
2819.25,0.0061
2819.00,0.0061
2818.75,0.0060
2818.50,0.0060
2818.25,0.0059
2818.00,0.0059
2817.75,0.0059
2817.50,0.0059
2817.25,0.0060
2817.00,0.0061
2816.75,0.0061
2816.50,0.0062
2816.25,0.0062
2816.00,0.0061
2815.75,0.0061
2815.50,0.0061
2815.25,0.0061
2815.00,0.0062
2814.75,0.0062
2814.50,0.0063
2814.25,0.0063
2814.00,0.0063
2813.75,0.0062
2813.50,0.0062
2813.25,0.0061
2813.00,0.0061
2812.75,0.0060
2812.50,0.0060
2812.25,0.0060
2812.00,0.0059
2811.75,0.0059
2811.50,0.0059
2811.25,0.0059
2811.00,0.0059
2810.75,0.0059
2810.50,0.0059
2810.25,0.0059
2810.00,0.0060
2809.75,0.0061
2809.50,0.0061
2809.25,0.0062
2809.00,0.0062
2808.75,0.0061
2808.50,0.0061
2808.25,0.0061
2808.00,0.0061
2807.75,0.0061
2807.50,0.0062
2807.25,0.0063
2807.00,0.0063
2806.75,0.0062
2806.50,0.0062
2806.25,0.0062
2806.00,0.0062
2805.75,0.0063
2805.50,0.0063
2805.25,0.0063
2805.00,0.0062
2804.75,0.0061
2804.50,0.0060
2804.25,0.0060
2804.00,0.0059
2803.75,0.0059
2803.50,0.0058
2803.25,0.0058
2803.00,0.0057
2802.75,0.0057
2802.50,0.0058
2802.25,0.0060
2802.00,0.0061
2801.75,0.0062
2801.50,0.0063
2801.25,0.0062
2801.00,0.0062
2800.75,0.0061
2800.50,0.0060
2800.25,0.0059
2800.00,0.0059
2799.75,0.0060
2799.50,0.0061
2799.25,0.0062
2799.00,0.0062
2798.75,0.0061
2798.50,0.0059
2798.25,0.0058
2798.00,0.0057
2797.75,0.0058
2797.50,0.0059
2797.25,0.0060
2797.00,0.0060
2796.75,0.0060
2796.50,0.0061
2796.25,0.0061
2796.00,0.0060
2795.75,0.0060
2795.50,0.0059
2795.25,0.0058
2795.00,0.0058
2794.75,0.0059
2794.50,0.0060
2794.25,0.0061
2794.00,0.0061
2793.75,0.0061
2793.50,0.0060
2793.25,0.0059
2793.00,0.0059
2792.75,0.0059
2792.50,0.0060
2792.25,0.0061
2792.00,0.0062
2791.75,0.0062
2791.50,0.0063
2791.25,0.0063
2791.00,0.0063
2790.75,0.0062
2790.50,0.0062
2790.25,0.0061
2790.00,0.0061
2789.75,0.0060
2789.50,0.0060
2789.25,0.0060
2789.00,0.0060
2788.75,0.0061
2788.50,0.0061
2788.25,0.0061
2788.00,0.0062
2787.75,0.0063
2787.50,0.0064
2787.25,0.0063
2787.00,0.0062
2786.75,0.0061
2786.50,0.0059
2786.25,0.0059
2786.00,0.0058
2785.75,0.0058
2785.50,0.0058
2785.25,0.0058
2785.00,0.0058
2784.75,0.0059
2784.50,0.0060
2784.25,0.0060
2784.00,0.0060
2783.75,0.0060
2783.50,0.0059
2783.25,0.0059
2783.00,0.0059
2782.75,0.0058
2782.50,0.0058
2782.25,0.0057
2782.00,0.0057
2781.75,0.0057
2781.50,0.0057
2781.25,0.0058
2781.00,0.0059
2780.75,0.0061
2780.50,0.0062
2780.25,0.0062
2780.00,0.0062
2779.75,0.0061
2779.50,0.0059
2779.25,0.0057
2779.00,0.0055
2778.75,0.0054
2778.50,0.0054
2778.25,0.0055
2778.00,0.0056
2777.75,0.0058
2777.50,0.0059
2777.25,0.0059
2777.00,0.0059
2776.75,0.0058
2776.50,0.0057
2776.25,0.0056
2776.00,0.0056
2775.75,0.0056
2775.50,0.0056
2775.25,0.0056
2775.00,0.0057
2774.75,0.0057
2774.50,0.0057
2774.25,0.0057
2774.00,0.0057
2773.75,0.0056
2773.50,0.0056
2773.25,0.0056
2773.00,0.0056
2772.75,0.0056
2772.50,0.0057
2772.25,0.0057
2772.00,0.0058
2771.75,0.0057
2771.50,0.0057
2771.25,0.0056
2771.00,0.0056
2770.75,0.0056
2770.50,0.0056
2770.25,0.0057
2770.00,0.0057
2769.75,0.0058
2769.50,0.0057
2769.25,0.0056
2769.00,0.0056
2768.75,0.0055
2768.50,0.0055
2768.25,0.0056
2768.00,0.0056
2767.75,0.0055
2767.50,0.0055
2767.25,0.0055
2767.00,0.0054
2766.75,0.0054
2766.50,0.0054
2766.25,0.0055
2766.00,0.0056
2765.75,0.0057
2765.50,0.0057
2765.25,0.0058
2765.00,0.0058
2764.75,0.0058
2764.50,0.0057
2764.25,0.0056
2764.00,0.0056
2763.75,0.0056
2763.50,0.0056
2763.25,0.0056
2763.00,0.0055
2762.75,0.0055
2762.50,0.0053
2762.25,0.0052
2762.00,0.0051
2761.75,0.0051
2761.50,0.0051
2761.25,0.0052
2761.00,0.0053
2760.75,0.0054
2760.50,0.0055
2760.25,0.0056
2760.00,0.0057
2759.75,0.0057
2759.50,0.0057
2759.25,0.0056
2759.00,0.0055
2758.75,0.0054
2758.50,0.0054
2758.25,0.0053
2758.00,0.0054
2757.75,0.0054
2757.50,0.0055
2757.25,0.0056
2757.00,0.0056
2756.75,0.0055
2756.50,0.0055
2756.25,0.0055
2756.00,0.0054
2755.75,0.0055
2755.50,0.0055
2755.25,0.0056
2755.00,0.0057
2754.75,0.0058
2754.50,0.0058
2754.25,0.0057
2754.00,0.0056
2753.75,0.0055
2753.50,0.0054
2753.25,0.0054
2753.00,0.0054
2752.75,0.0055
2752.50,0.0055
2752.25,0.0055
2752.00,0.0055
2751.75,0.0055
2751.50,0.0055
2751.25,0.0056
2751.00,0.0056
2750.75,0.0055
2750.50,0.0054
2750.25,0.0053
2750.00,0.0052
2749.75,0.0051
2749.50,0.0051
2749.25,0.0050
2749.00,0.0049
2748.75,0.0049
2748.50,0.0051
2748.25,0.0053
2748.00,0.0055
2747.75,0.0056
2747.50,0.0056
2747.25,0.0055
2747.00,0.0055
2746.75,0.0054
2746.50,0.0054
2746.25,0.0054
2746.00,0.0054
2745.75,0.0055
2745.50,0.0056
2745.25,0.0056
2745.00,0.0056
2744.75,0.0056
2744.50,0.0055
2744.25,0.0053
2744.00,0.0052
2743.75,0.0052
2743.50,0.0051
2743.25,0.0051
2743.00,0.0051
2742.75,0.0052
2742.50,0.0053
2742.25,0.0053
2742.00,0.0053
2741.75,0.0053
2741.50,0.0053
2741.25,0.0053
2741.00,0.0053
2740.75,0.0053
2740.50,0.0054
2740.25,0.0055
2740.00,0.0056
2739.75,0.0056
2739.50,0.0057
2739.25,0.0057
2739.00,0.0056
2738.75,0.0055
2738.50,0.0054
2738.25,0.0053
2738.00,0.0053
2737.75,0.0053
2737.50,0.0054
2737.25,0.0054
2737.00,0.0054
2736.75,0.0053
2736.50,0.0053
2736.25,0.0053
2736.00,0.0053
2735.75,0.0054
2735.50,0.0054
2735.25,0.0054
2735.00,0.0054
2734.75,0.0055
2734.50,0.0056
2734.25,0.0056
2734.00,0.0057
2733.75,0.0057
2733.50,0.0056
2733.25,0.0055
2733.00,0.0053
2732.75,0.0052
2732.50,0.0051
2732.25,0.0050
2732.00,0.0050
2731.75,0.0050
2731.50,0.0051
2731.25,0.0053
2731.00,0.0054
2730.75,0.0054
2730.50,0.0055
2730.25,0.0055
2730.00,0.0056
2729.75,0.0056
2729.50,0.0056
2729.25,0.0055
2729.00,0.0054
2728.75,0.0054
2728.50,0.0054
2728.25,0.0054
2728.00,0.0054
2727.75,0.0053
2727.50,0.0053
2727.25,0.0053
2727.00,0.0054
2726.75,0.0055
2726.50,0.0056
2726.25,0.0056
2726.00,0.0056
2725.75,0.0055
2725.50,0.0054
2725.25,0.0053
2725.00,0.0052
2724.75,0.0052
2724.50,0.0052
2724.25,0.0052
2724.00,0.0052
2723.75,0.0052
2723.50,0.0052
2723.25,0.0053
2723.00,0.0054
2722.75,0.0054
2722.50,0.0054
2722.25,0.0054
2722.00,0.0054
2721.75,0.0053
2721.50,0.0053
2721.25,0.0053
2721.00,0.0054
2720.75,0.0054
2720.50,0.0056
2720.25,0.0057
2720.00,0.0057
2719.75,0.0056
2719.50,0.0056
2719.25,0.0055
2719.00,0.0054
2718.75,0.0054
2718.50,0.0054
2718.25,0.0054
2718.00,0.0054
2717.75,0.0054
2717.50,0.0053
2717.25,0.0053
2717.00,0.0053
2716.75,0.0054
2716.50,0.0055
2716.25,0.0056
2716.00,0.0057
2715.75,0.0057
2715.50,0.0057
2715.25,0.0056
2715.00,0.0055
2714.75,0.0054
2714.50,0.0054
2714.25,0.0054
2714.00,0.0055
2713.75,0.0055
2713.50,0.0055
2713.25,0.0055
2713.00,0.0055
2712.75,0.0055
2712.50,0.0054
2712.25,0.0053
2712.00,0.0052
2711.75,0.0051
2711.50,0.0051
2711.25,0.0052
2711.00,0.0053
2710.75,0.0054
2710.50,0.0055
2710.25,0.0055
2710.00,0.0055
2709.75,0.0055
2709.50,0.0055
2709.25,0.0056
2709.00,0.0057
2708.75,0.0057
2708.50,0.0058
2708.25,0.0057
2708.00,0.0056
2707.75,0.0055
2707.50,0.0055
2707.25,0.0054
2707.00,0.0054
2706.75,0.0054
2706.50,0.0054
2706.25,0.0054
2706.00,0.0054
2705.75,0.0054
2705.50,0.0054
2705.25,0.0054
2705.00,0.0054
2704.75,0.0054
2704.50,0.0054
2704.25,0.0053
2704.00,0.0053
2703.75,0.0053
2703.50,0.0053
2703.25,0.0054
2703.00,0.0054
2702.75,0.0054
2702.50,0.0054
2702.25,0.0053
2702.00,0.0053
2701.75,0.0053
2701.50,0.0053
2701.25,0.0054
2701.00,0.0055
2700.75,0.0055
2700.50,0.0054
2700.25,0.0053
2700.00,0.0052
2699.75,0.0051
2699.50,0.0051
2699.25,0.0050
2699.00,0.0051
2698.75,0.0052
2698.50,0.0053
2698.25,0.0054
2698.00,0.0055
2697.75,0.0055
2697.50,0.0054
2697.25,0.0053
2697.00,0.0052
2696.75,0.0052
2696.50,0.0052
2696.25,0.0053
2696.00,0.0054
2695.75,0.0055
2695.50,0.0055
2695.25,0.0055
2695.00,0.0055
2694.75,0.0055
2694.50,0.0055
2694.25,0.0055
2694.00,0.0054
2693.75,0.0054
2693.50,0.0055
2693.25,0.0055
2693.00,0.0055
2692.75,0.0056
2692.50,0.0056
2692.25,0.0057
2692.00,0.0058
2691.75,0.0058
2691.50,0.0057
2691.25,0.0056
2691.00,0.0055
2690.75,0.0054
2690.50,0.0054
2690.25,0.0054
2690.00,0.0055
2689.75,0.0057
2689.50,0.0057
2689.25,0.0058
2689.00,0.0058
2688.75,0.0058
2688.50,0.0057
2688.25,0.0057
2688.00,0.0056
2687.75,0.0056
2687.50,0.0055
2687.25,0.0054
2687.00,0.0054
2686.75,0.0054
2686.50,0.0054
2686.25,0.0055
2686.00,0.0055
2685.75,0.0055
2685.50,0.0055
2685.25,0.0055
2685.00,0.0054
2684.75,0.0053
2684.50,0.0053
2684.25,0.0052
2684.00,0.0053
2683.75,0.0053
2683.50,0.0054
2683.25,0.0054
2683.00,0.0054
2682.75,0.0054
2682.50,0.0055
2682.25,0.0056
2682.00,0.0056
2681.75,0.0056
2681.50,0.0056
2681.25,0.0056
2681.00,0.0056
2680.75,0.0055
2680.50,0.0055
2680.25,0.0054
2680.00,0.0053
2679.75,0.0052
2679.50,0.0052
2679.25,0.0053
2679.00,0.0053
2678.75,0.0053
2678.50,0.0053
2678.25,0.0053
2678.00,0.0053
2677.75,0.0053
2677.50,0.0053
2677.25,0.0054
2677.00,0.0054
2676.75,0.0055
2676.50,0.0056
2676.25,0.0057
2676.00,0.0056
2675.75,0.0056
2675.50,0.0055
2675.25,0.0055
2675.00,0.0054
2674.75,0.0054
2674.50,0.0054
2674.25,0.0053
2674.00,0.0053
2673.75,0.0052
2673.50,0.0053
2673.25,0.0053
2673.00,0.0054
2672.75,0.0054
2672.50,0.0054
2672.25,0.0054
2672.00,0.0054
2671.75,0.0055
2671.50,0.0055
2671.25,0.0056
2671.00,0.0056
2670.75,0.0056
2670.50,0.0057
2670.25,0.0057
2670.00,0.0057
2669.75,0.0056
2669.50,0.0055
2669.25,0.0055
2669.00,0.0054
2668.75,0.0054
2668.50,0.0054
2668.25,0.0054
2668.00,0.0054
2667.75,0.0054
2667.50,0.0053
2667.25,0.0054
2667.00,0.0054
2666.75,0.0054
2666.50,0.0055
2666.25,0.0055
2666.00,0.0055
2665.75,0.0055
2665.50,0.0056
2665.25,0.0056
2665.00,0.0056
2664.75,0.0056
2664.50,0.0056
2664.25,0.0056
2664.00,0.0056
2663.75,0.0056
2663.50,0.0056
2663.25,0.0056
2663.00,0.0056
2662.75,0.0055
2662.50,0.0055
2662.25,0.0054
2662.00,0.0054
2661.75,0.0053
2661.50,0.0053
2661.25,0.0053
2661.00,0.0054
2660.75,0.0054
2660.50,0.0055
2660.25,0.0055
2660.00,0.0055
2659.75,0.0055
2659.50,0.0055
2659.25,0.0054
2659.00,0.0054
2658.75,0.0054
2658.50,0.0054
2658.25,0.0055
2658.00,0.0055
2657.75,0.0055
2657.50,0.0055
2657.25,0.0055
2657.00,0.0056
2656.75,0.0056
2656.50,0.0056
2656.25,0.0056
2656.00,0.0055
2655.75,0.0054
2655.50,0.0054
2655.25,0.0053
2655.00,0.0053
2654.75,0.0053
2654.50,0.0053
2654.25,0.0054
2654.00,0.0054
2653.75,0.0054
2653.50,0.0054
2653.25,0.0054
2653.00,0.0054
2652.75,0.0054
2652.50,0.0054
2652.25,0.0054
2652.00,0.0054
2651.75,0.0053
2651.50,0.0053
2651.25,0.0053
2651.00,0.0052
2650.75,0.0052
2650.50,0.0052
2650.25,0.0052
2650.00,0.0053
2649.75,0.0054
2649.50,0.0054
2649.25,0.0055
2649.00,0.0056
2648.75,0.0057
2648.50,0.0056
2648.25,0.0056
2648.00,0.0055
2647.75,0.0054
2647.50,0.0054
2647.25,0.0054
2647.00,0.0054
2646.75,0.0054
2646.50,0.0055
2646.25,0.0055
2646.00,0.0056
2645.75,0.0056
2645.50,0.0056
2645.25,0.0055
2645.00,0.0055
2644.75,0.0055
2644.50,0.0054
2644.25,0.0054
2644.00,0.0053
2643.75,0.0052
2643.50,0.0051
2643.25,0.0051
2643.00,0.0052
2642.75,0.0054
2642.50,0.0054
2642.25,0.0055
2642.00,0.0055
2641.75,0.0055
2641.50,0.0055
2641.25,0.0055
2641.00,0.0055
2640.75,0.0054
2640.50,0.0054
2640.25,0.0053
2640.00,0.0052
2639.75,0.0051
2639.50,0.0051
2639.25,0.0051
2639.00,0.0051
2638.75,0.0051
2638.50,0.0051
2638.25,0.0051
2638.00,0.0051
2637.75,0.0051
2637.50,0.0052
2637.25,0.0052
2637.00,0.0052
2636.75,0.0051
2636.50,0.0051
2636.25,0.0051
2636.00,0.0051
2635.75,0.0051
2635.50,0.0052
2635.25,0.0053
2635.00,0.0054
2634.75,0.0054
2634.50,0.0054
2634.25,0.0053
2634.00,0.0052
2633.75,0.0051
2633.50,0.0052
2633.25,0.0052
2633.00,0.0053
2632.75,0.0054
2632.50,0.0055
2632.25,0.0056
2632.00,0.0056
2631.75,0.0056
2631.50,0.0054
2631.25,0.0053
2631.00,0.0052
2630.75,0.0052
2630.50,0.0052
2630.25,0.0053
2630.00,0.0053
2629.75,0.0052
2629.50,0.0051
2629.25,0.0050
2629.00,0.0050
2628.75,0.0050
2628.50,0.0050
2628.25,0.0049
2628.00,0.0048
2627.75,0.0047
2627.50,0.0047
2627.25,0.0047
2627.00,0.0049
2626.75,0.0051
2626.50,0.0053
2626.25,0.0055
2626.00,0.0056
2625.75,0.0057
2625.50,0.0057
2625.25,0.0057
2625.00,0.0056
2624.75,0.0054
2624.50,0.0053
2624.25,0.0053
2624.00,0.0053
2623.75,0.0052
2623.50,0.0050
2623.25,0.0049
2623.00,0.0047
2622.75,0.0047
2622.50,0.0047
2622.25,0.0048
2622.00,0.0049
2621.75,0.0049
2621.50,0.0050
2621.25,0.0051
2621.00,0.0052
2620.75,0.0053
2620.50,0.0054
2620.25,0.0054
2620.00,0.0054
2619.75,0.0054
2619.50,0.0054
2619.25,0.0054
2619.00,0.0053
2618.75,0.0052
2618.50,0.0052
2618.25,0.0051
2618.00,0.0051
2617.75,0.0051
2617.50,0.0051
2617.25,0.0051
2617.00,0.0051
2616.75,0.0052
2616.50,0.0052
2616.25,0.0052
2616.00,0.0051
2615.75,0.0051
2615.50,0.0051
2615.25,0.0051
2615.00,0.0052
2614.75,0.0053
2614.50,0.0054
2614.25,0.0054
2614.00,0.0054
2613.75,0.0054
2613.50,0.0053
2613.25,0.0053
2613.00,0.0052
2612.75,0.0051
2612.50,0.0050
2612.25,0.0049
2612.00,0.0048
2611.75,0.0047
2611.50,0.0048
2611.25,0.0049
2611.00,0.0050
2610.75,0.0050
2610.50,0.0051
2610.25,0.0051
2610.00,0.0053
2609.75,0.0055
2609.50,0.0056
2609.25,0.0056
2609.00,0.0055
2608.75,0.0054
2608.50,0.0053
2608.25,0.0052
2608.00,0.0052
2607.75,0.0052
2607.50,0.0053
2607.25,0.0053
2607.00,0.0053
2606.75,0.0052
2606.50,0.0051
2606.25,0.0050
2606.00,0.0051
2605.75,0.0053
2605.50,0.0056
2605.25,0.0057
2605.00,0.0057
2604.75,0.0056
2604.50,0.0054
2604.25,0.0052
2604.00,0.0050
2603.75,0.0048
2603.50,0.0047
2603.25,0.0046
2603.00,0.0047
2602.75,0.0049
2602.50,0.0051
2602.25,0.0052
2602.00,0.0052
2601.75,0.0052
2601.50,0.0051
2601.25,0.0049
2601.00,0.0049
2600.75,0.0048
2600.50,0.0048
2600.25,0.0049
2600.00,0.0050
2599.75,0.0050
2599.50,0.0050
2599.25,0.0049
2599.00,0.0048
2598.75,0.0047
2598.50,0.0048
2598.25,0.0050
2598.00,0.0052
2597.75,0.0053
2597.50,0.0054
2597.25,0.0053
2597.00,0.0052
2596.75,0.0050
2596.50,0.0049
2596.25,0.0048
2596.00,0.0048
2595.75,0.0048
2595.50,0.0047
2595.25,0.0047
2595.00,0.0047
2594.75,0.0048
2594.50,0.0049
2594.25,0.0049
2594.00,0.0049
2593.75,0.0049
2593.50,0.0048
2593.25,0.0047
2593.00,0.0047
2592.75,0.0049
2592.50,0.0050
2592.25,0.0051
2592.00,0.0050
2591.75,0.0049
2591.50,0.0048
2591.25,0.0047
2591.00,0.0048
2590.75,0.0049
2590.50,0.0050
2590.25,0.0051
2590.00,0.0052
2589.75,0.0053
2589.50,0.0053
2589.25,0.0053
2589.00,0.0053
2588.75,0.0052
2588.50,0.0051
2588.25,0.0050
2588.00,0.0050
2587.75,0.0051
2587.50,0.0051
2587.25,0.0050
2587.00,0.0050
2586.75,0.0048
2586.50,0.0047
2586.25,0.0047
2586.00,0.0047
2585.75,0.0049
2585.50,0.0050
2585.25,0.0052
2585.00,0.0053
2584.75,0.0053
2584.50,0.0052
2584.25,0.0050
2584.00,0.0047
2583.75,0.0045
2583.50,0.0044
2583.25,0.0046
2583.00,0.0048
2582.75,0.0051
2582.50,0.0052
2582.25,0.0051
2582.00,0.0050
2581.75,0.0048
2581.50,0.0046
2581.25,0.0045
2581.00,0.0046
2580.75,0.0048
2580.50,0.0051
2580.25,0.0052
2580.00,0.0053
2579.75,0.0052
2579.50,0.0052
2579.25,0.0051
2579.00,0.0050
2578.75,0.0051
2578.50,0.0051
2578.25,0.0051
2578.00,0.0051
2577.75,0.0050
2577.50,0.0048
2577.25,0.0047
2577.00,0.0047
2576.75,0.0048
2576.50,0.0050
2576.25,0.0051
2576.00,0.0053
2575.75,0.0054
2575.50,0.0054
2575.25,0.0055
2575.00,0.0056
2574.75,0.0057
2574.50,0.0057
2574.25,0.0056
2574.00,0.0055
2573.75,0.0054
2573.50,0.0052
2573.25,0.0051
2573.00,0.0048
2572.75,0.0046
2572.50,0.0045
2572.25,0.0045
2572.00,0.0048
2571.75,0.0050
2571.50,0.0052
2571.25,0.0052
2571.00,0.0050
2570.75,0.0047
2570.50,0.0045
2570.25,0.0045
2570.00,0.0045
2569.75,0.0047
2569.50,0.0049
2569.25,0.0051
2569.00,0.0052
2568.75,0.0052
2568.50,0.0050
2568.25,0.0048
2568.00,0.0045
2567.75,0.0043
2567.50,0.0044
2567.25,0.0044
2567.00,0.0046
2566.75,0.0047
2566.50,0.0048
2566.25,0.0049
2566.00,0.0051
2565.75,0.0051
2565.50,0.0051
2565.25,0.0051
2565.00,0.0051
2564.75,0.0052
2564.50,0.0053
2564.25,0.0053
2564.00,0.0054
2563.75,0.0054
2563.50,0.0054
2563.25,0.0053
2563.00,0.0051
2562.75,0.0049
2562.50,0.0048
2562.25,0.0048
2562.00,0.0048
2561.75,0.0048
2561.50,0.0048
2561.25,0.0048
2561.00,0.0049
2560.75,0.0050
2560.50,0.0050
2560.25,0.0049
2560.00,0.0048
2559.75,0.0046
2559.50,0.0044
2559.25,0.0044
2559.00,0.0045
2558.75,0.0047
2558.50,0.0048
2558.25,0.0050
2558.00,0.0051
2557.75,0.0051
2557.50,0.0050
2557.25,0.0049
2557.00,0.0049
2556.75,0.0049
2556.50,0.0051
2556.25,0.0051
2556.00,0.0051
2555.75,0.0050
2555.50,0.0050
2555.25,0.0050
2555.00,0.0050
2554.75,0.0049
2554.50,0.0047
2554.25,0.0045
2554.00,0.0045
2553.75,0.0045
2553.50,0.0047
2553.25,0.0049
2553.00,0.0049
2552.75,0.0047
2552.50,0.0045
2552.25,0.0043
2552.00,0.0042
2551.75,0.0043
2551.50,0.0045
2551.25,0.0046
2551.00,0.0046
2550.75,0.0047
2550.50,0.0048
2550.25,0.0049
2550.00,0.0050
2549.75,0.0049
2549.50,0.0048
2549.25,0.0046
2549.00,0.0045
2548.75,0.0044
2548.50,0.0044
2548.25,0.0045
2548.00,0.0045
2547.75,0.0045
2547.50,0.0045
2547.25,0.0044
2547.00,0.0043
2546.75,0.0043
2546.50,0.0045
2546.25,0.0049
2546.00,0.0052
2545.75,0.0054
2545.50,0.0054
2545.25,0.0052
2545.00,0.0050
2544.75,0.0047
2544.50,0.0046
2544.25,0.0046
2544.00,0.0047
2543.75,0.0047
2543.50,0.0046
2543.25,0.0046
2543.00,0.0045
2542.75,0.0046
2542.50,0.0047
2542.25,0.0049
2542.00,0.0051
2541.75,0.0053
2541.50,0.0054
2541.25,0.0053
2541.00,0.0051
2540.75,0.0048
2540.50,0.0045
2540.25,0.0043
2540.00,0.0042
2539.75,0.0043
2539.50,0.0043
2539.25,0.0043
2539.00,0.0042
2538.75,0.0041
2538.50,0.0040
2538.25,0.0040
2538.00,0.0041
2537.75,0.0042
2537.50,0.0044
2537.25,0.0046
2537.00,0.0048
2536.75,0.0049
2536.50,0.0049
2536.25,0.0049
2536.00,0.0049
2535.75,0.0050
2535.50,0.0050
2535.25,0.0050
2535.00,0.0049
2534.75,0.0049
2534.50,0.0050
2534.25,0.0051
2534.00,0.0050
2533.75,0.0048
2533.50,0.0046
2533.25,0.0045
2533.00,0.0045
2532.75,0.0045
2532.50,0.0045
2532.25,0.0045
2532.00,0.0044
2531.75,0.0043
2531.50,0.0042
2531.25,0.0041
2531.00,0.0040
2530.75,0.0040
2530.50,0.0039
2530.25,0.0038
2530.00,0.0038
2529.75,0.0039
2529.50,0.0041
2529.25,0.0042
2529.00,0.0043
2528.75,0.0043
2528.50,0.0042
2528.25,0.0041
2528.00,0.0041
2527.75,0.0040
2527.50,0.0039
2527.25,0.0038
2527.00,0.0036
2526.75,0.0035
2526.50,0.0035
2526.25,0.0036
2526.00,0.0038
2525.75,0.0039
2525.50,0.0039
2525.25,0.0038
2525.00,0.0038
2524.75,0.0038
2524.50,0.0040
2524.25,0.0041
2524.00,0.0042
2523.75,0.0041
2523.50,0.0040
2523.25,0.0039
2523.00,0.0038
2522.75,0.0037
2522.50,0.0037
2522.25,0.0037
2522.00,0.0037
2521.75,0.0039
2521.50,0.0040
2521.25,0.0040
2521.00,0.0039
2520.75,0.0037
2520.50,0.0035
2520.25,0.0035
2520.00,0.0035
2519.75,0.0036
2519.50,0.0037
2519.25,0.0038
2519.00,0.0039
2518.75,0.0039
2518.50,0.0040
2518.25,0.0042
2518.00,0.0043
2517.75,0.0044
2517.50,0.0044
2517.25,0.0043
2517.00,0.0041
2516.75,0.0038
2516.50,0.0036
2516.25,0.0035
2516.00,0.0034
2515.75,0.0034
2515.50,0.0035
2515.25,0.0035
2515.00,0.0036
2514.75,0.0036
2514.50,0.0036
2514.25,0.0036
2514.00,0.0036
2513.75,0.0037
2513.50,0.0038
2513.25,0.0039
2513.00,0.0039
2512.75,0.0038
2512.50,0.0037
2512.25,0.0036
2512.00,0.0036
2511.75,0.0037
2511.50,0.0038
2511.25,0.0038
2511.00,0.0038
2510.75,0.0039
2510.50,0.0039
2510.25,0.0039
2510.00,0.0038
2509.75,0.0037
2509.50,0.0036
2509.25,0.0036
2509.00,0.0037
2508.75,0.0038
2508.50,0.0040
2508.25,0.0041
2508.00,0.0041
2507.75,0.0040
2507.50,0.0040
2507.25,0.0040
2507.00,0.0039
2506.75,0.0039
2506.50,0.0039
2506.25,0.0039
2506.00,0.0038
2505.75,0.0038
2505.50,0.0038
2505.25,0.0038
2505.00,0.0038
2504.75,0.0038
2504.50,0.0037
2504.25,0.0037
2504.00,0.0038
2503.75,0.0040
2503.50,0.0043
2503.25,0.0046
2503.00,0.0049
2502.75,0.0049
2502.50,0.0048
2502.25,0.0045
2502.00,0.0043
2501.75,0.0042
2501.50,0.0043
2501.25,0.0043
2501.00,0.0044
2500.75,0.0045
2500.50,0.0045
2500.25,0.0045
2500.00,0.0045
2499.75,0.0045
2499.50,0.0045
2499.25,0.0045
2499.00,0.0045
2498.75,0.0044
2498.50,0.0043
2498.25,0.0041
2498.00,0.0040
2497.75,0.0041
2497.50,0.0043
2497.25,0.0045
2497.00,0.0047
2496.75,0.0046
2496.50,0.0045
2496.25,0.0044
2496.00,0.0044
2495.75,0.0046
2495.50,0.0049
2495.25,0.0050
2495.00,0.0051
2494.75,0.0050
2494.50,0.0050
2494.25,0.0048
2494.00,0.0047
2493.75,0.0046
2493.50,0.0045
2493.25,0.0045
2493.00,0.0045
2492.75,0.0045
2492.50,0.0046
2492.25,0.0047
2492.00,0.0048
2491.75,0.0048
2491.50,0.0048
2491.25,0.0047
2491.00,0.0046
2490.75,0.0046
2490.50,0.0047
2490.25,0.0049
2490.00,0.0051
2489.75,0.0051
2489.50,0.0048
2489.25,0.0045
2489.00,0.0042
2488.75,0.0042
2488.50,0.0043
2488.25,0.0044
2488.00,0.0045
2487.75,0.0045
2487.50,0.0045
2487.25,0.0046
2487.00,0.0047
2486.75,0.0047
2486.50,0.0046
2486.25,0.0045
2486.00,0.0044
2485.75,0.0045
2485.50,0.0047
2485.25,0.0049
2485.00,0.0051
2484.75,0.0052
2484.50,0.0052
2484.25,0.0051
2484.00,0.0050
2483.75,0.0048
2483.50,0.0047
2483.25,0.0048
2483.00,0.0049
2482.75,0.0051
2482.50,0.0053
2482.25,0.0055
2482.00,0.0056
2481.75,0.0056
2481.50,0.0054
2481.25,0.0052
2481.00,0.0050
2480.75,0.0050
2480.50,0.0051
2480.25,0.0052
2480.00,0.0053
2479.75,0.0053
2479.50,0.0052
2479.25,0.0051
2479.00,0.0049
2478.75,0.0047
2478.50,0.0045
2478.25,0.0044
2478.00,0.0043
2477.75,0.0044
2477.50,0.0045
2477.25,0.0046
2477.00,0.0046
2476.75,0.0045
2476.50,0.0044
2476.25,0.0044
2476.00,0.0046
2475.75,0.0048
2475.50,0.0050
2475.25,0.0051
2475.00,0.0051
2474.75,0.0051
2474.50,0.0049
2474.25,0.0048
2474.00,0.0046
2473.75,0.0044
2473.50,0.0043
2473.25,0.0043
2473.00,0.0045
2472.75,0.0048
2472.50,0.0050
2472.25,0.0052
2472.00,0.0053
2471.75,0.0054
2471.50,0.0053
2471.25,0.0052
2471.00,0.0051
2470.75,0.0051
2470.50,0.0050
2470.25,0.0050
2470.00,0.0050
2469.75,0.0050
2469.50,0.0050
2469.25,0.0049
2469.00,0.0047
2468.75,0.0046
2468.50,0.0045
2468.25,0.0046
2468.00,0.0047
2467.75,0.0049
2467.50,0.0049
2467.25,0.0049
2467.00,0.0048
2466.75,0.0047
2466.50,0.0047
2466.25,0.0049
2466.00,0.0052
2465.75,0.0055
2465.50,0.0056
2465.25,0.0055
2465.00,0.0054
2464.75,0.0052
2464.50,0.0051
2464.25,0.0051
2464.00,0.0051
2463.75,0.0051
2463.50,0.0050
2463.25,0.0048
2463.00,0.0046
2462.75,0.0045
2462.50,0.0046
2462.25,0.0048
2462.00,0.0050
2461.75,0.0052
2461.50,0.0053
2461.25,0.0052
2461.00,0.0051
2460.75,0.0049
2460.50,0.0047
2460.25,0.0045
2460.00,0.0044
2459.75,0.0044
2459.50,0.0045
2459.25,0.0046
2459.00,0.0047
2458.75,0.0048
2458.50,0.0048
2458.25,0.0048
2458.00,0.0048
2457.75,0.0049
2457.50,0.0050
2457.25,0.0051
2457.00,0.0051
2456.75,0.0050
2456.50,0.0048
2456.25,0.0047
2456.00,0.0046
2455.75,0.0045
2455.50,0.0045
2455.25,0.0045
2455.00,0.0045
2454.75,0.0045
2454.50,0.0044
2454.25,0.0043
2454.00,0.0043
2453.75,0.0044
2453.50,0.0046
2453.25,0.0047
2453.00,0.0047
2452.75,0.0046
2452.50,0.0046
2452.25,0.0046
2452.00,0.0048
2451.75,0.0050
2451.50,0.0053
2451.25,0.0055
2451.00,0.0056
2450.75,0.0056
2450.50,0.0056
2450.25,0.0054
2450.00,0.0052
2449.75,0.0049
2449.50,0.0047
2449.25,0.0045
2449.00,0.0044
2448.75,0.0044
2448.50,0.0046
2448.25,0.0047
2448.00,0.0047
2447.75,0.0047
2447.50,0.0046
2447.25,0.0047
2447.00,0.0049
2446.75,0.0053
2446.50,0.0056
2446.25,0.0056
2446.00,0.0053
2445.75,0.0049
2445.50,0.0046
2445.25,0.0045
2445.00,0.0045
2444.75,0.0046
2444.50,0.0046
2444.25,0.0046
2444.00,0.0044
2443.75,0.0044
2443.50,0.0044
2443.25,0.0044
2443.00,0.0045
2442.75,0.0046
2442.50,0.0047
2442.25,0.0048
2442.00,0.0051
2441.75,0.0053
2441.50,0.0056
2441.25,0.0057
2441.00,0.0057
2440.75,0.0056
2440.50,0.0054
2440.25,0.0053
2440.00,0.0053
2439.75,0.0053
2439.50,0.0053
2439.25,0.0052
2439.00,0.0051
2438.75,0.0050
2438.50,0.0049
2438.25,0.0049
2438.00,0.0049
2437.75,0.0049
2437.50,0.0048
2437.25,0.0048
2437.00,0.0048
2436.75,0.0048
2436.50,0.0047
2436.25,0.0046
2436.00,0.0044
2435.75,0.0043
2435.50,0.0041
2435.25,0.0041
2435.00,0.0041
2434.75,0.0041
2434.50,0.0042
2434.25,0.0043
2434.00,0.0046
2433.75,0.0048
2433.50,0.0050
2433.25,0.0051
2433.00,0.0051
2432.75,0.0051
2432.50,0.0051
2432.25,0.0052
2432.00,0.0052
2431.75,0.0052
2431.50,0.0051
2431.25,0.0050
2431.00,0.0049
2430.75,0.0048
2430.50,0.0048
2430.25,0.0048
2430.00,0.0049
2429.75,0.0050
2429.50,0.0050
2429.25,0.0051
2429.00,0.0051
2428.75,0.0052
2428.50,0.0054
2428.25,0.0054
2428.00,0.0054
2427.75,0.0052
2427.50,0.0051
2427.25,0.0050
2427.00,0.0049
2426.75,0.0049
2426.50,0.0049
2426.25,0.0048
2426.00,0.0047
2425.75,0.0047
2425.50,0.0047
2425.25,0.0047
2425.00,0.0048
2424.75,0.0048
2424.50,0.0048
2424.25,0.0048
2424.00,0.0047
2423.75,0.0045
2423.50,0.0044
2423.25,0.0044
2423.00,0.0045
2422.75,0.0046
2422.50,0.0047
2422.25,0.0048
2422.00,0.0049
2421.75,0.0048
2421.50,0.0048
2421.25,0.0049
2421.00,0.0049
2420.75,0.0049
2420.50,0.0049
2420.25,0.0049
2420.00,0.0049
2419.75,0.0049
2419.50,0.0048
2419.25,0.0047
2419.00,0.0045
2418.75,0.0044
2418.50,0.0044
2418.25,0.0045
2418.00,0.0047
2417.75,0.0050
2417.50,0.0052
2417.25,0.0054
2417.00,0.0054
2416.75,0.0052
2416.50,0.0051
2416.25,0.0050
2416.00,0.0049
2415.75,0.0048
2415.50,0.0048
2415.25,0.0049
2415.00,0.0049
2414.75,0.0050
2414.50,0.0051
2414.25,0.0051
2414.00,0.0051
2413.75,0.0051
2413.50,0.0051
2413.25,0.0051
2413.00,0.0052
2412.75,0.0053
2412.50,0.0054
2412.25,0.0055
2412.00,0.0056
2411.75,0.0058
2411.50,0.0057
2411.25,0.0055
2411.00,0.0052
2410.75,0.0048
2410.50,0.0046
2410.25,0.0046
2410.00,0.0046
2409.75,0.0048
2409.50,0.0049
2409.25,0.0049
2409.00,0.0049
2408.75,0.0048
2408.50,0.0046
2408.25,0.0044
2408.00,0.0044
2407.75,0.0044
2407.50,0.0045
2407.25,0.0048
2407.00,0.0050
2406.75,0.0052
2406.50,0.0054
2406.25,0.0055
2406.00,0.0055
2405.75,0.0053
2405.50,0.0051
2405.25,0.0049
2405.00,0.0047
2404.75,0.0047
2404.50,0.0047
2404.25,0.0048
2404.00,0.0048
2403.75,0.0048
2403.50,0.0048
2403.25,0.0048
2403.00,0.0047
2402.75,0.0046
2402.50,0.0046
2402.25,0.0047
2402.00,0.0048
2401.75,0.0049
2401.50,0.0049
2401.25,0.0048
2401.00,0.0048
2400.75,0.0047
2400.50,0.0046
2400.25,0.0045
2400.00,0.0044
2399.75,0.0044
2399.50,0.0044
2399.25,0.0046
2399.00,0.0047
2398.75,0.0048
2398.50,0.0049
2398.25,0.0049
2398.00,0.0048
2397.75,0.0047
2397.50,0.0045
2397.25,0.0045
2397.00,0.0045
2396.75,0.0046
2396.50,0.0047
2396.25,0.0049
2396.00,0.0050
2395.75,0.0050
2395.50,0.0049
2395.25,0.0048
2395.00,0.0048
2394.75,0.0048
2394.50,0.0050
2394.25,0.0050
2394.00,0.0050
2393.75,0.0049
2393.50,0.0048
2393.25,0.0047
2393.00,0.0046
2392.75,0.0044
2392.50,0.0043
2392.25,0.0043
2392.00,0.0043
2391.75,0.0044
2391.50,0.0044
2391.25,0.0045
2391.00,0.0045
2390.75,0.0045
2390.50,0.0046
2390.25,0.0048
2390.00,0.0049
2389.75,0.0049
2389.50,0.0050
2389.25,0.0050
2389.00,0.0050
2388.75,0.0050
2388.50,0.0049
2388.25,0.0047
2388.00,0.0045
2387.75,0.0043
2387.50,0.0042
2387.25,0.0043
2387.00,0.0045
2386.75,0.0046
2386.50,0.0046
2386.25,0.0045
2386.00,0.0045
2385.75,0.0045
2385.50,0.0046
2385.25,0.0047
2385.00,0.0048
2384.75,0.0048
2384.50,0.0048
2384.25,0.0048
2384.00,0.0048
2383.75,0.0048
2383.50,0.0049
2383.25,0.0049
2383.00,0.0049
2382.75,0.0049
2382.50,0.0048
2382.25,0.0046
2382.00,0.0045
2381.75,0.0043
2381.50,0.0043
2381.25,0.0042
2381.00,0.0041
2380.75,0.0039
2380.50,0.0037
2380.25,0.0036
2380.00,0.0035
2379.75,0.0034
2379.50,0.0034
2379.25,0.0035
2379.00,0.0035
2378.75,0.0036
2378.50,0.0036
2378.25,0.0037
2378.00,0.0038
2377.75,0.0039
2377.50,0.0039
2377.25,0.0039
2377.00,0.0040
2376.75,0.0040
2376.50,0.0039
2376.25,0.0039
2376.00,0.0038
2375.75,0.0038
2375.50,0.0038
2375.25,0.0039
2375.00,0.0039
2374.75,0.0037
2374.50,0.0036
2374.25,0.0037
2374.00,0.0038
2373.75,0.0039
2373.50,0.0040
2373.25,0.0039
2373.00,0.0037
2372.75,0.0033
2372.50,0.0029
2372.25,0.0027
2372.00,0.0027
2371.75,0.0029
2371.50,0.0029
2371.25,0.0028
2371.00,0.0026
2370.75,0.0024
2370.50,0.0023
2370.25,0.0022
2370.00,0.0023
2369.75,0.0026
2369.50,0.0030
2369.25,0.0032
2369.00,0.0033
2368.75,0.0034
2368.50,0.0036
2368.25,0.0038
2368.00,0.0037
2367.75,0.0033
2367.50,0.0029
2367.25,0.0029
2367.00,0.0030
2366.75,0.0032
2366.50,0.0034
2366.25,0.0036
2366.00,0.0039
2365.75,0.0040
2365.50,0.0040
2365.25,0.0037
2365.00,0.0035
2364.75,0.0036
2364.50,0.0037
2364.25,0.0037
2364.00,0.0034
2363.75,0.0032
2363.50,0.0031
2363.25,0.0030
2363.00,0.0027
2362.75,0.0023
2362.50,0.0020
2362.25,0.0022
2362.00,0.0025
2361.75,0.0026
2361.50,0.0024
2361.25,0.0023
2361.00,0.0026
2360.75,0.0033
2360.50,0.0037
2360.25,0.0035
2360.00,0.0027
2359.75,0.0019
2359.50,0.0018
2359.25,0.0020
2359.00,0.0023
2358.75,0.0024
2358.50,0.0026
2358.25,0.0029
2358.00,0.0032
2357.75,0.0033
2357.50,0.0032
2357.25,0.0032
2357.00,0.0034
2356.75,0.0040
2356.50,0.0045
2356.25,0.0046
2356.00,0.0042
2355.75,0.0036
2355.50,0.0032
2355.25,0.0032
2355.00,0.0033
2354.75,0.0033
2354.50,0.0032
2354.25,0.0031
2354.00,0.0032
2353.75,0.0034
2353.50,0.0036
2353.25,0.0037
2353.00,0.0035
2352.75,0.0033
2352.50,0.0033
2352.25,0.0035
2352.00,0.0037
2351.75,0.0038
2351.50,0.0035
2351.25,0.0031
2351.00,0.0030
2350.75,0.0031
2350.50,0.0034
2350.25,0.0035
2350.00,0.0036
2349.75,0.0035
2349.50,0.0034
2349.25,0.0034
2349.00,0.0034
2348.75,0.0035
2348.50,0.0036
2348.25,0.0036
2348.00,0.0036
2347.75,0.0034
2347.50,0.0030
2347.25,0.0027
2347.00,0.0027
2346.75,0.0030
2346.50,0.0033
2346.25,0.0035
2346.00,0.0034
2345.75,0.0034
2345.50,0.0035
2345.25,0.0038
2345.00,0.0041
2344.75,0.0042
2344.50,0.0039
2344.25,0.0031
2344.00,0.0024
2343.75,0.0023
2343.50,0.0026
2343.25,0.0032
2343.00,0.0036
2342.75,0.0037
2342.50,0.0035
2342.25,0.0034
2342.00,0.0035
2341.75,0.0039
2341.50,0.0042
2341.25,0.0041
2341.00,0.0036
2340.75,0.0031
2340.50,0.0029
2340.25,0.0032
2340.00,0.0038
2339.75,0.0042
2339.50,0.0043
2339.25,0.0038
2339.00,0.0033
2338.75,0.0032
2338.50,0.0035
2338.25,0.0040
2338.00,0.0045
2337.75,0.0046
2337.50,0.0044
2337.25,0.0041
2337.00,0.0040
2336.75,0.0039
2336.50,0.0039
2336.25,0.0036
2336.00,0.0031
2335.75,0.0027
2335.50,0.0029
2335.25,0.0034
2335.00,0.0039
2334.75,0.0043
2334.50,0.0042
2334.25,0.0034
2334.00,0.0021
2333.75,0.0015
2333.50,0.0018
2333.25,0.0028
2333.00,0.0038
2332.75,0.0046
2332.50,0.0049
2332.25,0.0045
2332.00,0.0039
2331.75,0.0037
2331.50,0.0039
2331.25,0.0044
2331.00,0.0048
2330.75,0.0047
2330.50,0.0040
2330.25,0.0032
2330.00,0.0030
2329.75,0.0032
2329.50,0.0035
2329.25,0.0039
2329.00,0.0041
2328.75,0.0042
2328.50,0.0042
2328.25,0.0042
2328.00,0.0041
2327.75,0.0040
2327.50,0.0039
2327.25,0.0037
2327.00,0.0032
2326.75,0.0027
2326.50,0.0024
2326.25,0.0026
2326.00,0.0030
2325.75,0.0037
2325.50,0.0045
2325.25,0.0050
2325.00,0.0050
2324.75,0.0044
2324.50,0.0037
2324.25,0.0034
2324.00,0.0034
2323.75,0.0036
2323.50,0.0037
2323.25,0.0035
2323.00,0.0030
2322.75,0.0028
2322.50,0.0031
2322.25,0.0036
2322.00,0.0041
2321.75,0.0044
2321.50,0.0043
2321.25,0.0035
2321.00,0.0026
2320.75,0.0023
2320.50,0.0027
2320.25,0.0034
2320.00,0.0042
2319.75,0.0048
2319.50,0.0049
2319.25,0.0045
2319.00,0.0037
2318.75,0.0031
2318.50,0.0028
2318.25,0.0028
2318.00,0.0028
2317.75,0.0030
2317.50,0.0032
2317.25,0.0034
2317.00,0.0038
2316.75,0.0040
2316.50,0.0041
2316.25,0.0042
2316.00,0.0042
2315.75,0.0042
2315.50,0.0040
2315.25,0.0037
2315.00,0.0034
2314.75,0.0031
2314.50,0.0031
2314.25,0.0032
2314.00,0.0033
2313.75,0.0033
2313.50,0.0030
2313.25,0.0025
2313.00,0.0021
2312.75,0.0022
2312.50,0.0026
2312.25,0.0031
2312.00,0.0035
2311.75,0.0038
2311.50,0.0037
2311.25,0.0035
2311.00,0.0033
2310.75,0.0033
2310.50,0.0035
2310.25,0.0036
2310.00,0.0038
2309.75,0.0038
2309.50,0.0037
2309.25,0.0036
2309.00,0.0034
2308.75,0.0032
2308.50,0.0032
2308.25,0.0033
2308.00,0.0035
2307.75,0.0037
2307.50,0.0036
2307.25,0.0033
2307.00,0.0030
2306.75,0.0028
2306.50,0.0029
2306.25,0.0033
2306.00,0.0037
2305.75,0.0040
2305.50,0.0042
2305.25,0.0042
2305.00,0.0040
2304.75,0.0038
2304.50,0.0037
2304.25,0.0038
2304.00,0.0041
2303.75,0.0043
2303.50,0.0045
2303.25,0.0046
2303.00,0.0047
2302.75,0.0046
2302.50,0.0045
2302.25,0.0042
2302.00,0.0040
2301.75,0.0038
2301.50,0.0037
2301.25,0.0037
2301.00,0.0037
2300.75,0.0037
2300.50,0.0038
2300.25,0.0039
2300.00,0.0041
2299.75,0.0043
2299.50,0.0043
2299.25,0.0043
2299.00,0.0042
2298.75,0.0041
2298.50,0.0041
2298.25,0.0040
2298.00,0.0041
2297.75,0.0042
2297.50,0.0043
2297.25,0.0043
2297.00,0.0042
2296.75,0.0038
2296.50,0.0035
2296.25,0.0033
2296.00,0.0033
2295.75,0.0035
2295.50,0.0037
2295.25,0.0039
2295.00,0.0041
2294.75,0.0044
2294.50,0.0047
2294.25,0.0048
2294.00,0.0048
2293.75,0.0047
2293.50,0.0045
2293.25,0.0043
2293.00,0.0042
2292.75,0.0042
2292.50,0.0043
2292.25,0.0044
2292.00,0.0046
2291.75,0.0047
2291.50,0.0048
2291.25,0.0049
2291.00,0.0050
2290.75,0.0050
2290.50,0.0050
2290.25,0.0050
2290.00,0.0049
2289.75,0.0048
2289.50,0.0047
2289.25,0.0046
2289.00,0.0045
2288.75,0.0044
2288.50,0.0044
2288.25,0.0045
2288.00,0.0046
2287.75,0.0046
2287.50,0.0045
2287.25,0.0043
2287.00,0.0042
2286.75,0.0042
2286.50,0.0042
2286.25,0.0042
2286.00,0.0042
2285.75,0.0043
2285.50,0.0044
2285.25,0.0045
2285.00,0.0044
2284.75,0.0041
2284.50,0.0038
2284.25,0.0035
2284.00,0.0035
2283.75,0.0037
2283.50,0.0041
2283.25,0.0044
2283.00,0.0047
2282.75,0.0049
2282.50,0.0049
2282.25,0.0050
2282.00,0.0050
2281.75,0.0049
2281.50,0.0046
2281.25,0.0044
2281.00,0.0042
2280.75,0.0042
2280.50,0.0044
2280.25,0.0046
2280.00,0.0046
2279.75,0.0045
2279.50,0.0044
2279.25,0.0043
2279.00,0.0044
2278.75,0.0045
2278.50,0.0046
2278.25,0.0045
2278.00,0.0044
2277.75,0.0041
2277.50,0.0040
2277.25,0.0040
2277.00,0.0042
2276.75,0.0044
2276.50,0.0045
2276.25,0.0044
2276.00,0.0041
2275.75,0.0038
2275.50,0.0036
2275.25,0.0036
2275.00,0.0039
2274.75,0.0042
2274.50,0.0046
2274.25,0.0048
2274.00,0.0049
2273.75,0.0048
2273.50,0.0047
2273.25,0.0045
2273.00,0.0043
2272.75,0.0041
2272.50,0.0040
2272.25,0.0042
2272.00,0.0046
2271.75,0.0050
2271.50,0.0053
2271.25,0.0052
2271.00,0.0049
2270.75,0.0045
2270.50,0.0041
2270.25,0.0039
2270.00,0.0037
2269.75,0.0037
2269.50,0.0036
2269.25,0.0036
2269.00,0.0036
2268.75,0.0038
2268.50,0.0040
2268.25,0.0042
2268.00,0.0043
2267.75,0.0043
2267.50,0.0042
2267.25,0.0041
2267.00,0.0039
2266.75,0.0037
2266.50,0.0035
2266.25,0.0034
2266.00,0.0034
2265.75,0.0035
2265.50,0.0035
2265.25,0.0035
2265.00,0.0035
2264.75,0.0036
2264.50,0.0036
2264.25,0.0037
2264.00,0.0036
2263.75,0.0034
2263.50,0.0032
2263.25,0.0031
2263.00,0.0032
2262.75,0.0034
2262.50,0.0037
2262.25,0.0040
2262.00,0.0041
2261.75,0.0042
2261.50,0.0043
2261.25,0.0043
2261.00,0.0043
2260.75,0.0042
2260.50,0.0040
2260.25,0.0038
2260.00,0.0035
2259.75,0.0034
2259.50,0.0034
2259.25,0.0034
2259.00,0.0035
2258.75,0.0036
2258.50,0.0037
2258.25,0.0037
2258.00,0.0038
2257.75,0.0039
2257.50,0.0039
2257.25,0.0039
2257.00,0.0040
2256.75,0.0040
2256.50,0.0041
2256.25,0.0042
2256.00,0.0041
2255.75,0.0041
2255.50,0.0041
2255.25,0.0042
2255.00,0.0044
2254.75,0.0044
2254.50,0.0044
2254.25,0.0041
2254.00,0.0037
2253.75,0.0033
2253.50,0.0032
2253.25,0.0035
2253.00,0.0039
2252.75,0.0044
2252.50,0.0046
2252.25,0.0045
2252.00,0.0042
2251.75,0.0040
2251.50,0.0038
2251.25,0.0037
2251.00,0.0036
2250.75,0.0035
2250.50,0.0035
2250.25,0.0036
2250.00,0.0038
2249.75,0.0038
2249.50,0.0037
2249.25,0.0035
2249.00,0.0034
2248.75,0.0034
2248.50,0.0035
2248.25,0.0036
2248.00,0.0037
2247.75,0.0037
2247.50,0.0038
2247.25,0.0038
2247.00,0.0039
2246.75,0.0038
2246.50,0.0035
2246.25,0.0031
2246.00,0.0028
2245.75,0.0026
2245.50,0.0028
2245.25,0.0031
2245.00,0.0034
2244.75,0.0035
2244.50,0.0035
2244.25,0.0034
2244.00,0.0032
2243.75,0.0029
2243.50,0.0026
2243.25,0.0025
2243.00,0.0027
2242.75,0.0030
2242.50,0.0033
2242.25,0.0033
2242.00,0.0032
2241.75,0.0031
2241.50,0.0032
2241.25,0.0033
2241.00,0.0035
2240.75,0.0037
2240.50,0.0038
2240.25,0.0037
2240.00,0.0035
2239.75,0.0031
2239.50,0.0028
2239.25,0.0027
2239.00,0.0028
2238.75,0.0031
2238.50,0.0034
2238.25,0.0036
2238.00,0.0038
2237.75,0.0038
2237.50,0.0038
2237.25,0.0038
2237.00,0.0038
2236.75,0.0038
2236.50,0.0038
2236.25,0.0037
2236.00,0.0036
2235.75,0.0034
2235.50,0.0031
2235.25,0.0027
2235.00,0.0022
2234.75,0.0019
2234.50,0.0018
2234.25,0.0021
2234.00,0.0024
2233.75,0.0029
2233.50,0.0034
2233.25,0.0039
2233.00,0.0042
2232.75,0.0043
2232.50,0.0041
2232.25,0.0038
2232.00,0.0035
2231.75,0.0036
2231.50,0.0037
2231.25,0.0038
2231.00,0.0037
2230.75,0.0033
2230.50,0.0031
2230.25,0.0031
2230.00,0.0034
2229.75,0.0036
2229.50,0.0036
2229.25,0.0033
2229.00,0.0029
2228.75,0.0024
2228.50,0.0021
2228.25,0.0020
2228.00,0.0021
2227.75,0.0023
2227.50,0.0025
2227.25,0.0027
2227.00,0.0030
2226.75,0.0032
2226.50,0.0033
2226.25,0.0032
2226.00,0.0029
2225.75,0.0025
2225.50,0.0021
2225.25,0.0019
2225.00,0.0021
2224.75,0.0026
2224.50,0.0033
2224.25,0.0038
2224.00,0.0040
2223.75,0.0040
2223.50,0.0038
2223.25,0.0036
2223.00,0.0035
2222.75,0.0035
2222.50,0.0035
2222.25,0.0034
2222.00,0.0032
2221.75,0.0030
2221.50,0.0027
2221.25,0.0025
2221.00,0.0025
2220.75,0.0024
2220.50,0.0022
2220.25,0.0020
2220.00,0.0020
2219.75,0.0023
2219.50,0.0029
2219.25,0.0035
2219.00,0.0039
2218.75,0.0040
2218.50,0.0036
2218.25,0.0031
2218.00,0.0026
2217.75,0.0022
2217.50,0.0022
2217.25,0.0023
2217.00,0.0026
2216.75,0.0028
2216.50,0.0030
2216.25,0.0030
2216.00,0.0029
2215.75,0.0028
2215.50,0.0029
2215.25,0.0033
2215.00,0.0039
2214.75,0.0045
2214.50,0.0048
2214.25,0.0048
2214.00,0.0044
2213.75,0.0038
2213.50,0.0033
2213.25,0.0027
2213.00,0.0023
2212.75,0.0020
2212.50,0.0020
2212.25,0.0022
2212.00,0.0026
2211.75,0.0030
2211.50,0.0032
2211.25,0.0032
2211.00,0.0029
2210.75,0.0027
2210.50,0.0026
2210.25,0.0026
2210.00,0.0026
2209.75,0.0026
2209.50,0.0026
2209.25,0.0027
2209.00,0.0028
2208.75,0.0029
2208.50,0.0030
2208.25,0.0028
2208.00,0.0025
2207.75,0.0022
2207.50,0.0020
2207.25,0.0020
2207.00,0.0021
2206.75,0.0023
2206.50,0.0025
2206.25,0.0026
2206.00,0.0025
2205.75,0.0022
2205.50,0.0018
2205.25,0.0015
2205.00,0.0015
2204.75,0.0019
2204.50,0.0024
2204.25,0.0028
2204.00,0.0029
2203.75,0.0027
2203.50,0.0026
2203.25,0.0025
2203.00,0.0027
2202.75,0.0030
2202.50,0.0033
2202.25,0.0033
2202.00,0.0030
2201.75,0.0027
2201.50,0.0025
2201.25,0.0024
2201.00,0.0024
2200.75,0.0024
2200.50,0.0025
2200.25,0.0026
2200.00,0.0027
2199.75,0.0028
2199.50,0.0028
2199.25,0.0025
2199.00,0.0023
2198.75,0.0021
2198.50,0.0021
2198.25,0.0020
2198.00,0.0020
2197.75,0.0022
2197.50,0.0024
2197.25,0.0027
2197.00,0.0030
2196.75,0.0032
2196.50,0.0032
2196.25,0.0031
2196.00,0.0028
2195.75,0.0026
2195.50,0.0025
2195.25,0.0027
2195.00,0.0030
2194.75,0.0032
2194.50,0.0032
2194.25,0.0028
2194.00,0.0021
2193.75,0.0015
2193.50,0.0011
2193.25,0.0010
2193.00,0.0012
2192.75,0.0013
2192.50,0.0013
2192.25,0.0012
2192.00,0.0013
2191.75,0.0016
2191.50,0.0019
2191.25,0.0021
2191.00,0.0022
2190.75,0.0024
2190.50,0.0026
2190.25,0.0029
2190.00,0.0030
2189.75,0.0029
2189.50,0.0028
2189.25,0.0026
2189.00,0.0026
2188.75,0.0027
2188.50,0.0029
2188.25,0.0031
2188.00,0.0032
2187.75,0.0033
2187.50,0.0032
2187.25,0.0031
2187.00,0.0030
2186.75,0.0030
2186.50,0.0028
2186.25,0.0025
2186.00,0.0019
2185.75,0.0014
2185.50,0.0009
2185.25,0.0006
2185.00,0.0003
2184.75,0.0002
2184.50,0.0003
2184.25,0.0007
2184.00,0.0012
2183.75,0.0018
2183.50,0.0022
2183.25,0.0023
2183.00,0.0022
2182.75,0.0021
2182.50,0.0021
2182.25,0.0020
2182.00,0.0019
2181.75,0.0017
2181.50,0.0015
2181.25,0.0014
2181.00,0.0014
2180.75,0.0017
2180.50,0.0020
2180.25,0.0020
2180.00,0.0018
2179.75,0.0014
2179.50,0.0012
2179.25,0.0012
2179.00,0.0014
2178.75,0.0017
2178.50,0.0020
2178.25,0.0021
2178.00,0.0023
2177.75,0.0025
2177.50,0.0028
2177.25,0.0030
2177.00,0.0031
2176.75,0.0032
2176.50,0.0034
2176.25,0.0035
2176.00,0.0036
2175.75,0.0035
2175.50,0.0033
2175.25,0.0031
2175.00,0.0029
2174.75,0.0028
2174.50,0.0027
2174.25,0.0026
2174.00,0.0023
2173.75,0.0020
2173.50,0.0017
2173.25,0.0016
2173.00,0.0016
2172.75,0.0018
2172.50,0.0019
2172.25,0.0020
2172.00,0.0021
2171.75,0.0023
2171.50,0.0025
2171.25,0.0026
2171.00,0.0026
2170.75,0.0027
2170.50,0.0028
2170.25,0.0029
2170.00,0.0031
2169.75,0.0032
2169.50,0.0033
2169.25,0.0034
2169.00,0.0034
2168.75,0.0032
2168.50,0.0028
2168.25,0.0024
2168.00,0.0022
2167.75,0.0022
2167.50,0.0022
2167.25,0.0023
2167.00,0.0022
2166.75,0.0019
2166.50,0.0017
2166.25,0.0014
2166.00,0.0013
2165.75,0.0012
2165.50,0.0012
2165.25,0.0014
2165.00,0.0019
2164.75,0.0026
2164.50,0.0034
2164.25,0.0040
2164.00,0.0040
2163.75,0.0035
2163.50,0.0027
2163.25,0.0020
2163.00,0.0016
2162.75,0.0015
2162.50,0.0016
2162.25,0.0019
2162.00,0.0021
2161.75,0.0022
2161.50,0.0020
2161.25,0.0014
2161.00,0.0007
2160.75,0.0001
2160.50,-0.0001
2160.25,-0.0001
2160.00,-0.0001
2159.75,-0.0002
2159.50,-0.0005
2159.25,-0.0006
2159.00,-0.0004
2158.75,0.0004
2158.50,0.0015
2158.25,0.0026
2158.00,0.0030
2157.75,0.0027
2157.50,0.0019
2157.25,0.0009
2157.00,0.0004
2156.75,0.0004
2156.50,0.0009
2156.25,0.0014
2156.00,0.0017
2155.75,0.0018
2155.50,0.0018
2155.25,0.0017
2155.00,0.0017
2154.75,0.0016
2154.50,0.0015
2154.25,0.0015
2154.00,0.0017
2153.75,0.0020
2153.50,0.0023
2153.25,0.0024
2153.00,0.0023
2152.75,0.0021
2152.50,0.0019
2152.25,0.0016
2152.00,0.0013
2151.75,0.0012
2151.50,0.0014
2151.25,0.0019
2151.00,0.0025
2150.75,0.0028
2150.50,0.0028
2150.25,0.0025
2150.00,0.0022
2149.75,0.0021
2149.50,0.0022
2149.25,0.0025
2149.00,0.0028
2148.75,0.0031
2148.50,0.0030
2148.25,0.0028
2148.00,0.0023
2147.75,0.0018
2147.50,0.0013
2147.25,0.0010
2147.00,0.0008
2146.75,0.0008
2146.50,0.0009
2146.25,0.0010
2146.00,0.0013
2145.75,0.0018
2145.50,0.0024
2145.25,0.0028
2145.00,0.0030
2144.75,0.0027
2144.50,0.0022
2144.25,0.0017
2144.00,0.0014
2143.75,0.0015
2143.50,0.0018
2143.25,0.0022
2143.00,0.0026
2142.75,0.0028
2142.50,0.0027
2142.25,0.0025
2142.00,0.0021
2141.75,0.0018
2141.50,0.0018
2141.25,0.0018
2141.00,0.0020
2140.75,0.0021
2140.50,0.0023
2140.25,0.0025
2140.00,0.0027
2139.75,0.0026
2139.50,0.0025
2139.25,0.0024
2139.00,0.0025
2138.75,0.0027
2138.50,0.0028
2138.25,0.0028
2138.00,0.0027
2137.75,0.0027
2137.50,0.0027
2137.25,0.0026
2137.00,0.0024
2136.75,0.0024
2136.50,0.0026
2136.25,0.0030
2136.00,0.0034
2135.75,0.0034
2135.50,0.0031
2135.25,0.0026
2135.00,0.0021
2134.75,0.0020
2134.50,0.0022
2134.25,0.0026
2134.00,0.0030
2133.75,0.0033
2133.50,0.0035
2133.25,0.0035
2133.00,0.0034
2132.75,0.0032
2132.50,0.0029
2132.25,0.0025
2132.00,0.0022
2131.75,0.0020
2131.50,0.0020
2131.25,0.0022
2131.00,0.0024
2130.75,0.0024
2130.50,0.0024
2130.25,0.0021
2130.00,0.0019
2129.75,0.0020
2129.50,0.0023
2129.25,0.0028
2129.00,0.0034
2128.75,0.0039
2128.50,0.0040
2128.25,0.0039
2128.00,0.0035
2127.75,0.0031
2127.50,0.0027
2127.25,0.0024
2127.00,0.0023
2126.75,0.0024
2126.50,0.0027
2126.25,0.0030
2126.00,0.0034
2125.75,0.0036
2125.50,0.0037
2125.25,0.0037
2125.00,0.0035
2124.75,0.0032
2124.50,0.0029
2124.25,0.0026
2124.00,0.0023
2123.75,0.0021
2123.50,0.0020
2123.25,0.0021
2123.00,0.0023
2122.75,0.0027
2122.50,0.0031
2122.25,0.0034
2122.00,0.0036
2121.75,0.0037
2121.50,0.0037
2121.25,0.0037
2121.00,0.0035
2120.75,0.0033
2120.50,0.0029
2120.25,0.0026
2120.00,0.0024
2119.75,0.0024
2119.50,0.0026
2119.25,0.0029
2119.00,0.0030
2118.75,0.0030
2118.50,0.0029
2118.25,0.0027
2118.00,0.0027
2117.75,0.0027
2117.50,0.0028
2117.25,0.0029
2117.00,0.0029
2116.75,0.0028
2116.50,0.0029
2116.25,0.0030
2116.00,0.0033
2115.75,0.0036
2115.50,0.0036
2115.25,0.0034
2115.00,0.0031
2114.75,0.0029
2114.50,0.0029
2114.25,0.0031
2114.00,0.0034
2113.75,0.0034
2113.50,0.0033
2113.25,0.0030
2113.00,0.0028
2112.75,0.0025
2112.50,0.0023
2112.25,0.0021
2112.00,0.0020
2111.75,0.0020
2111.50,0.0022
2111.25,0.0025
2111.00,0.0027
2110.75,0.0027
2110.50,0.0025
2110.25,0.0023
2110.00,0.0020
2109.75,0.0018
2109.50,0.0017
2109.25,0.0017
2109.00,0.0018
2108.75,0.0021
2108.50,0.0025
2108.25,0.0029
2108.00,0.0033
2107.75,0.0036
2107.50,0.0036
2107.25,0.0035
2107.00,0.0034
2106.75,0.0034
2106.50,0.0035
2106.25,0.0037
2106.00,0.0039
2105.75,0.0041
2105.50,0.0042
2105.25,0.0044
2105.00,0.0046
2104.75,0.0046
2104.50,0.0044
2104.25,0.0040
2104.00,0.0034
2103.75,0.0030
2103.50,0.0028
2103.25,0.0028
2103.00,0.0031
2102.75,0.0033
2102.50,0.0035
2102.25,0.0036
2102.00,0.0036
2101.75,0.0036
2101.50,0.0037
2101.25,0.0037
2101.00,0.0037
2100.75,0.0035
2100.50,0.0032
2100.25,0.0030
2100.00,0.0030
2099.75,0.0033
2099.50,0.0036
2099.25,0.0037
2099.00,0.0037
2098.75,0.0035
2098.50,0.0033
2098.25,0.0032
2098.00,0.0031
2097.75,0.0031
2097.50,0.0029
2097.25,0.0028
2097.00,0.0028
2096.75,0.0028
2096.50,0.0030
2096.25,0.0032
2096.00,0.0034
2095.75,0.0036
2095.50,0.0038
2095.25,0.0040
2095.00,0.0041
2094.75,0.0040
2094.50,0.0039
2094.25,0.0038
2094.00,0.0039
2093.75,0.0040
2093.50,0.0041
2093.25,0.0039
2093.00,0.0035
2092.75,0.0031
2092.50,0.0028
2092.25,0.0026
2092.00,0.0027
2091.75,0.0027
2091.50,0.0028
2091.25,0.0027
2091.00,0.0028
2090.75,0.0030
2090.50,0.0033
2090.25,0.0037
2090.00,0.0040
2089.75,0.0041
2089.50,0.0040
2089.25,0.0037
2089.00,0.0035
2088.75,0.0034
2088.50,0.0034
2088.25,0.0036
2088.00,0.0037
2087.75,0.0036
2087.50,0.0035
2087.25,0.0034
2087.00,0.0034
2086.75,0.0034
2086.50,0.0034
2086.25,0.0032
2086.00,0.0029
2085.75,0.0026
2085.50,0.0025
2085.25,0.0027
2085.00,0.0029
2084.75,0.0031
2084.50,0.0031
2084.25,0.0029
2084.00,0.0025
2083.75,0.0022
2083.50,0.0021
2083.25,0.0023
2083.00,0.0026
2082.75,0.0028
2082.50,0.0029
2082.25,0.0029
2082.00,0.0028
2081.75,0.0029
2081.50,0.0030
2081.25,0.0032
2081.00,0.0033
2080.75,0.0033
2080.50,0.0032
2080.25,0.0031
2080.00,0.0030
2079.75,0.0031
2079.50,0.0031
2079.25,0.0031
2079.00,0.0031
2078.75,0.0032
2078.50,0.0034
2078.25,0.0038
2078.00,0.0041
2077.75,0.0041
2077.50,0.0039
2077.25,0.0036
2077.00,0.0033
2076.75,0.0031
2076.50,0.0028
2076.25,0.0026
2076.00,0.0024
2075.75,0.0023
2075.50,0.0021
2075.25,0.0017
2075.00,0.0013
2074.75,0.0011
2074.50,0.0010
2074.25,0.0013
2074.00,0.0019
2073.75,0.0025
2073.50,0.0031
2073.25,0.0036
2073.00,0.0040
2072.75,0.0041
2072.50,0.0042
2072.25,0.0040
2072.00,0.0038
2071.75,0.0035
2071.50,0.0034
2071.25,0.0034
2071.00,0.0035
2070.75,0.0034
2070.50,0.0032
2070.25,0.0028
2070.00,0.0026
2069.75,0.0025
2069.50,0.0026
2069.25,0.0028
2069.00,0.0029
2068.75,0.0029
2068.50,0.0028
2068.25,0.0027
2068.00,0.0026
2067.75,0.0025
2067.50,0.0024
2067.25,0.0025
2067.00,0.0025
2066.75,0.0027
2066.50,0.0028
2066.25,0.0029
2066.00,0.0029
2065.75,0.0029
2065.50,0.0029
2065.25,0.0028
2065.00,0.0027
2064.75,0.0027
2064.50,0.0028
2064.25,0.0031
2064.00,0.0036
2063.75,0.0039
2063.50,0.0039
2063.25,0.0035
2063.00,0.0030
2062.75,0.0026
2062.50,0.0023
2062.25,0.0021
2062.00,0.0021
2061.75,0.0022
2061.50,0.0023
2061.25,0.0025
2061.00,0.0027
2060.75,0.0027
2060.50,0.0027
2060.25,0.0026
2060.00,0.0024
2059.75,0.0022
2059.50,0.0020
2059.25,0.0020
2059.00,0.0021
2058.75,0.0025
2058.50,0.0029
2058.25,0.0032
2058.00,0.0033
2057.75,0.0031
2057.50,0.0027
2057.25,0.0022
2057.00,0.0017
2056.75,0.0015
2056.50,0.0015
2056.25,0.0018
2056.00,0.0023
2055.75,0.0028
2055.50,0.0029
2055.25,0.0027
2055.00,0.0024
2054.75,0.0021
2054.50,0.0020
2054.25,0.0020
2054.00,0.0019
2053.75,0.0017
2053.50,0.0016
2053.25,0.0017
2053.00,0.0020
2052.75,0.0024
2052.50,0.0026
2052.25,0.0025
2052.00,0.0023
2051.75,0.0023
2051.50,0.0025
2051.25,0.0027
2051.00,0.0030
2050.75,0.0033
2050.50,0.0036
2050.25,0.0037
2050.00,0.0036
2049.75,0.0033
2049.50,0.0027
2049.25,0.0022
2049.00,0.0017
2048.75,0.0015
2048.50,0.0015
2048.25,0.0016
2048.00,0.0020
2047.75,0.0024
2047.50,0.0027
2047.25,0.0028
2047.00,0.0027
2046.75,0.0027
2046.50,0.0028
2046.25,0.0033
2046.00,0.0037
2045.75,0.0038
2045.50,0.0035
2045.25,0.0028
2045.00,0.0022
2044.75,0.0020
2044.50,0.0020
2044.25,0.0023
2044.00,0.0025
2043.75,0.0024
2043.50,0.0020
2043.25,0.0016
2043.00,0.0013
2042.75,0.0012
2042.50,0.0013
2042.25,0.0016
2042.00,0.0017
2041.75,0.0018
2041.50,0.0019
2041.25,0.0019
2041.00,0.0018
2040.75,0.0017
2040.50,0.0015
2040.25,0.0015
2040.00,0.0018
2039.75,0.0022
2039.50,0.0025
2039.25,0.0027
2039.00,0.0024
2038.75,0.0019
2038.50,0.0014
2038.25,0.0012
2038.00,0.0013
2037.75,0.0017
2037.50,0.0022
2037.25,0.0025
2037.00,0.0027
2036.75,0.0026
2036.50,0.0023
2036.25,0.0019
2036.00,0.0015
2035.75,0.0013
2035.50,0.0014
2035.25,0.0017
2035.00,0.0019
2034.75,0.0020
2034.50,0.0018
2034.25,0.0016
2034.00,0.0015
2033.75,0.0015
2033.50,0.0014
2033.25,0.0011
2033.00,0.0009
2032.75,0.0008
2032.50,0.0010
2032.25,0.0012
2032.00,0.0014
2031.75,0.0013
2031.50,0.0011
2031.25,0.0009
2031.00,0.0009
2030.75,0.0009
2030.50,0.0009
2030.25,0.0009
2030.00,0.0010
2029.75,0.0011
2029.50,0.0012
2029.25,0.0013
2029.00,0.0013
2028.75,0.0012
2028.50,0.0012
2028.25,0.0012
2028.00,0.0013
2027.75,0.0015
2027.50,0.0019
2027.25,0.0023
2027.00,0.0026
2026.75,0.0025
2026.50,0.0019
2026.25,0.0012
2026.00,0.0004
2025.75,0.0000
2025.50,0.0000
2025.25,0.0002
2025.00,0.0005
2024.75,0.0007
2024.50,0.0009
2024.25,0.0011
2024.00,0.0015
2023.75,0.0018
2023.50,0.0019
2023.25,0.0016
2023.00,0.0012
2022.75,0.0007
2022.50,0.0003
2022.25,0.0000
2022.00,0.0000
2021.75,0.0001
2021.50,0.0004
2021.25,0.0008
2021.00,0.0012
2020.75,0.0017
2020.50,0.0020
2020.25,0.0020
2020.00,0.0017
2019.75,0.0014
2019.50,0.0012
2019.25,0.0012
2019.00,0.0015
2018.75,0.0017
2018.50,0.0018
2018.25,0.0018
2018.00,0.0018
2017.75,0.0020
2017.50,0.0023
2017.25,0.0024
2017.00,0.0022
2016.75,0.0017
2016.50,0.0009
2016.25,0.0004
2016.00,0.0002
2015.75,0.0003
2015.50,0.0005
2015.25,0.0009
2015.00,0.0013
2014.75,0.0016
2014.50,0.0018
2014.25,0.0018
2014.00,0.0018
2013.75,0.0018
2013.50,0.0017
2013.25,0.0016
2013.00,0.0016
2012.75,0.0018
2012.50,0.0021
2012.25,0.0024
2012.00,0.0025
2011.75,0.0023
2011.50,0.0020
2011.25,0.0018
2011.00,0.0017
2010.75,0.0019
2010.50,0.0022
2010.25,0.0026
2010.00,0.0029
2009.75,0.0030
2009.50,0.0029
2009.25,0.0026
2009.00,0.0022
2008.75,0.0018
2008.50,0.0016
2008.25,0.0017
2008.00,0.0020
2007.75,0.0024
2007.50,0.0030
2007.25,0.0034
2007.00,0.0035
2006.75,0.0033
2006.50,0.0030
2006.25,0.0026
2006.00,0.0023
2005.75,0.0022
2005.50,0.0021
2005.25,0.0021
2005.00,0.0021
2004.75,0.0022
2004.50,0.0023
2004.25,0.0024
2004.00,0.0024
2003.75,0.0025
2003.50,0.0027
2003.25,0.0032
2003.00,0.0037
2002.75,0.0039
2002.50,0.0037
2002.25,0.0030
2002.00,0.0022
2001.75,0.0015
2001.50,0.0012
2001.25,0.0014
2001.00,0.0018
2000.75,0.0022
2000.50,0.0025
2000.25,0.0026
2000.00,0.0027
1999.75,0.0030
1999.50,0.0037
1999.25,0.0045
1999.00,0.0051
1998.75,0.0053
1998.50,0.0049
1998.25,0.0041
1998.00,0.0033
1997.75,0.0027
1997.50,0.0023
1997.25,0.0022
1997.00,0.0024
1996.75,0.0027
1996.50,0.0031
1996.25,0.0036
1996.00,0.0038
1995.75,0.0038
1995.50,0.0036
1995.25,0.0033
1995.00,0.0032
1994.75,0.0035
1994.50,0.0039
1994.25,0.0041
1994.00,0.0040
1993.75,0.0036
1993.50,0.0031
1993.25,0.0029
1993.00,0.0030
1992.75,0.0033
1992.50,0.0036
1992.25,0.0035
1992.00,0.0030
1991.75,0.0026
1991.50,0.0024
1991.25,0.0027
1991.00,0.0034
1990.75,0.0042
1990.50,0.0047
1990.25,0.0047
1990.00,0.0042
1989.75,0.0035
1989.50,0.0029
1989.25,0.0027
1989.00,0.0027
1988.75,0.0028
1988.50,0.0029
1988.25,0.0030
1988.00,0.0031
1987.75,0.0032
1987.50,0.0034
1987.25,0.0036
1987.00,0.0038
1986.75,0.0042
1986.50,0.0045
1986.25,0.0047
1986.00,0.0047
1985.75,0.0047
1985.50,0.0046
1985.25,0.0043
1985.00,0.0039
1984.75,0.0034
1984.50,0.0030
1984.25,0.0028
1984.00,0.0030
1983.75,0.0033
1983.50,0.0036
1983.25,0.0035
1983.00,0.0032
1982.75,0.0028
1982.50,0.0027
1982.25,0.0026
1982.00,0.0026
1981.75,0.0024
1981.50,0.0023
1981.25,0.0024
1981.00,0.0027
1980.75,0.0031
1980.50,0.0034
1980.25,0.0036
1980.00,0.0038
1979.75,0.0042
1979.50,0.0047
1979.25,0.0052
1979.00,0.0054
1978.75,0.0052
1978.50,0.0048
1978.25,0.0041
1978.00,0.0035
1977.75,0.0032
1977.50,0.0031
1977.25,0.0033
1977.00,0.0036
1976.75,0.0041
1976.50,0.0045
1976.25,0.0047
1976.00,0.0046
1975.75,0.0041
1975.50,0.0036
1975.25,0.0034
1975.00,0.0037
1974.75,0.0044
1974.50,0.0049
1974.25,0.0050
1974.00,0.0046
1973.75,0.0038
1973.50,0.0032
1973.25,0.0029
1973.00,0.0030
1972.75,0.0031
1972.50,0.0033
1972.25,0.0033
1972.00,0.0034
1971.75,0.0035
1971.50,0.0037
1971.25,0.0040
1971.00,0.0042
1970.75,0.0043
1970.50,0.0042
1970.25,0.0041
1970.00,0.0041
1969.75,0.0040
1969.50,0.0038
1969.25,0.0032
1969.00,0.0025
1968.75,0.0021
1968.50,0.0021
1968.25,0.0025
1968.00,0.0030
1967.75,0.0033
1967.50,0.0035
1967.25,0.0037
1967.00,0.0039
1966.75,0.0041
1966.50,0.0043
1966.25,0.0044
1966.00,0.0042
1965.75,0.0038
1965.50,0.0035
1965.25,0.0034
1965.00,0.0035
1964.75,0.0038
1964.50,0.0040
1964.25,0.0042
1964.00,0.0042
1963.75,0.0042
1963.50,0.0042
1963.25,0.0040
1963.00,0.0040
1962.75,0.0040
1962.50,0.0043
1962.25,0.0046
1962.00,0.0047
1961.75,0.0046
1961.50,0.0043
1961.25,0.0039
1961.00,0.0038
1960.75,0.0038
1960.50,0.0041
1960.25,0.0045
1960.00,0.0048
1959.75,0.0049
1959.50,0.0046
1959.25,0.0042
1959.00,0.0040
1958.75,0.0040
1958.50,0.0042
1958.25,0.0043
1958.00,0.0040
1957.75,0.0035
1957.50,0.0030
1957.25,0.0030
1957.00,0.0033
1956.75,0.0036
1956.50,0.0039
1956.25,0.0042
1956.00,0.0044
1955.75,0.0047
1955.50,0.0050
1955.25,0.0051
1955.00,0.0052
1954.75,0.0050
1954.50,0.0048
1954.25,0.0045
1954.00,0.0041
1953.75,0.0039
1953.50,0.0040
1953.25,0.0044
1953.00,0.0049
1952.75,0.0052
1952.50,0.0051
1952.25,0.0047
1952.00,0.0042
1951.75,0.0038
1951.50,0.0037
1951.25,0.0039
1951.00,0.0042
1950.75,0.0045
1950.50,0.0046
1950.25,0.0046
1950.00,0.0044
1949.75,0.0043
1949.50,0.0043
1949.25,0.0043
1949.00,0.0043
1948.75,0.0043
1948.50,0.0042
1948.25,0.0040
1948.00,0.0040
1947.75,0.0041
1947.50,0.0043
1947.25,0.0047
1947.00,0.0051
1946.75,0.0053
1946.50,0.0054
1946.25,0.0053
1946.00,0.0054
1945.75,0.0056
1945.50,0.0058
1945.25,0.0059
1945.00,0.0058
1944.75,0.0055
1944.50,0.0051
1944.25,0.0047
1944.00,0.0043
1943.75,0.0041
1943.50,0.0040
1943.25,0.0042
1943.00,0.0046
1942.75,0.0052
1942.50,0.0055
1942.25,0.0054
1942.00,0.0051
1941.75,0.0047
1941.50,0.0044
1941.25,0.0043
1941.00,0.0046
1940.75,0.0051
1940.50,0.0056
1940.25,0.0060
1940.00,0.0060
1939.75,0.0056
1939.50,0.0051
1939.25,0.0047
1939.00,0.0044
1938.75,0.0042
1938.50,0.0043
1938.25,0.0044
1938.00,0.0045
1937.75,0.0047
1937.50,0.0047
1937.25,0.0046
1937.00,0.0045
1936.75,0.0046
1936.50,0.0047
1936.25,0.0048
1936.00,0.0047
1935.75,0.0043
1935.50,0.0039
1935.25,0.0036
1935.00,0.0036
1934.75,0.0039
1934.50,0.0044
1934.25,0.0050
1934.00,0.0052
1933.75,0.0051
1933.50,0.0047
1933.25,0.0042
1933.00,0.0040
1932.75,0.0041
1932.50,0.0043
1932.25,0.0045
1932.00,0.0046
1931.75,0.0046
1931.50,0.0045
1931.25,0.0042
1931.00,0.0038
1930.75,0.0035
1930.50,0.0034
1930.25,0.0034
1930.00,0.0037
1929.75,0.0041
1929.50,0.0046
1929.25,0.0051
1929.00,0.0055
1928.75,0.0058
1928.50,0.0059
1928.25,0.0059
1928.00,0.0057
1927.75,0.0055
1927.50,0.0054
1927.25,0.0054
1927.00,0.0055
1926.75,0.0055
1926.50,0.0055
1926.25,0.0053
1926.00,0.0052
1925.75,0.0050
1925.50,0.0049
1925.25,0.0049
1925.00,0.0049
1924.75,0.0049
1924.50,0.0050
1924.25,0.0050
1924.00,0.0051
1923.75,0.0053
1923.50,0.0054
1923.25,0.0055
1923.00,0.0053
1922.75,0.0051
1922.50,0.0049
1922.25,0.0049
1922.00,0.0049
1921.75,0.0050
1921.50,0.0051
1921.25,0.0053
1921.00,0.0055
1920.75,0.0056
1920.50,0.0057
1920.25,0.0056
1920.00,0.0056
1919.75,0.0055
1919.50,0.0054
1919.25,0.0052
1919.00,0.0049
1918.75,0.0045
1918.50,0.0042
1918.25,0.0042
1918.00,0.0043
1917.75,0.0047
1917.50,0.0049
1917.25,0.0050
1917.00,0.0051
1916.75,0.0051
1916.50,0.0051
1916.25,0.0051
1916.00,0.0050
1915.75,0.0048
1915.50,0.0048
1915.25,0.0049
1915.00,0.0051
1914.75,0.0052
1914.50,0.0051
1914.25,0.0049
1914.00,0.0047
1913.75,0.0048
1913.50,0.0051
1913.25,0.0055
1913.00,0.0058
1912.75,0.0060
1912.50,0.0059
1912.25,0.0058
1912.00,0.0056
1911.75,0.0054
1911.50,0.0053
1911.25,0.0052
1911.00,0.0053
1910.75,0.0053
1910.50,0.0053
1910.25,0.0053
1910.00,0.0053
1909.75,0.0052
1909.50,0.0052
1909.25,0.0051
1909.00,0.0050
1908.75,0.0048
1908.50,0.0047
1908.25,0.0047
1908.00,0.0048
1907.75,0.0050
1907.50,0.0053
1907.25,0.0055
1907.00,0.0056
1906.75,0.0055
1906.50,0.0053
1906.25,0.0051
1906.00,0.0049
1905.75,0.0049
1905.50,0.0051
1905.25,0.0054
1905.00,0.0056
1904.75,0.0056
1904.50,0.0055
1904.25,0.0053
1904.00,0.0051
1903.75,0.0051
1903.50,0.0052
1903.25,0.0054
1903.00,0.0054
1902.75,0.0053
1902.50,0.0052
1902.25,0.0051
1902.00,0.0049
1901.75,0.0048
1901.50,0.0046
1901.25,0.0046
1901.00,0.0046
1900.75,0.0049
1900.50,0.0052
1900.25,0.0055
1900.00,0.0058
1899.75,0.0058
1899.50,0.0058
1899.25,0.0056
1899.00,0.0053
1898.75,0.0051
1898.50,0.0050
1898.25,0.0049
1898.00,0.0050
1897.75,0.0050
1897.50,0.0051
1897.25,0.0050
1897.00,0.0049
1896.75,0.0047
1896.50,0.0046
1896.25,0.0045
1896.00,0.0046
1895.75,0.0045
1895.50,0.0045
1895.25,0.0044
1895.00,0.0044
1894.75,0.0045
1894.50,0.0046
1894.25,0.0049
1894.00,0.0051
1893.75,0.0054
1893.50,0.0055
1893.25,0.0054
1893.00,0.0051
1892.75,0.0049
1892.50,0.0049
1892.25,0.0051
1892.00,0.0054
1891.75,0.0056
1891.50,0.0055
1891.25,0.0053
1891.00,0.0050
1890.75,0.0048
1890.50,0.0047
1890.25,0.0047
1890.00,0.0048
1889.75,0.0050
1889.50,0.0051
1889.25,0.0051
1889.00,0.0050
1888.75,0.0051
1888.50,0.0051
1888.25,0.0053
1888.00,0.0054
1887.75,0.0053
1887.50,0.0052
1887.25,0.0050
1887.00,0.0048
1886.75,0.0047
1886.50,0.0048
1886.25,0.0049
1886.00,0.0050
1885.75,0.0048
1885.50,0.0047
1885.25,0.0046
1885.00,0.0046
1884.75,0.0047
1884.50,0.0048
1884.25,0.0047
1884.00,0.0046
1883.75,0.0045
1883.50,0.0046
1883.25,0.0047
1883.00,0.0048
1882.75,0.0049
1882.50,0.0050
1882.25,0.0051
1882.00,0.0052
1881.75,0.0054
1881.50,0.0055
1881.25,0.0055
1881.00,0.0055
1880.75,0.0053
1880.50,0.0052
1880.25,0.0052
1880.00,0.0052
1879.75,0.0053
1879.50,0.0054
1879.25,0.0054
1879.00,0.0053
1878.75,0.0053
1878.50,0.0053
1878.25,0.0054
1878.00,0.0055
1877.75,0.0057
1877.50,0.0057
1877.25,0.0056
1877.00,0.0052
1876.75,0.0047
1876.50,0.0044
1876.25,0.0044
1876.00,0.0045
1875.75,0.0047
1875.50,0.0048
1875.25,0.0049
1875.00,0.0049
1874.75,0.0048
1874.50,0.0047
1874.25,0.0046
1874.00,0.0046
1873.75,0.0047
1873.50,0.0050
1873.25,0.0052
1873.00,0.0054
1872.75,0.0053
1872.50,0.0052
1872.25,0.0050
1872.00,0.0048
1871.75,0.0047
1871.50,0.0046
1871.25,0.0047
1871.00,0.0047
1870.75,0.0049
1870.50,0.0050
1870.25,0.0051
1870.00,0.0052
1869.75,0.0052
1869.50,0.0051
1869.25,0.0052
1869.00,0.0052
1868.75,0.0052
1868.50,0.0052
1868.25,0.0050
1868.00,0.0049
1867.75,0.0048
1867.50,0.0048
1867.25,0.0049
1867.00,0.0051
1866.75,0.0053
1866.50,0.0054
1866.25,0.0054
1866.00,0.0053
1865.75,0.0052
1865.50,0.0051
1865.25,0.0052
1865.00,0.0053
1864.75,0.0054
1864.50,0.0054
1864.25,0.0054
1864.00,0.0054
1863.75,0.0054
1863.50,0.0055
1863.25,0.0056
1863.00,0.0058
1862.75,0.0059
1862.50,0.0058
1862.25,0.0057
1862.00,0.0054
1861.75,0.0051
1861.50,0.0049
1861.25,0.0049
1861.00,0.0051
1860.75,0.0054
1860.50,0.0056
1860.25,0.0058
1860.00,0.0058
1859.75,0.0057
1859.50,0.0057
1859.25,0.0057
1859.00,0.0058
1858.75,0.0058
1858.50,0.0057
1858.25,0.0054
1858.00,0.0050
1857.75,0.0045
1857.50,0.0042
1857.25,0.0042
1857.00,0.0043
1856.75,0.0047
1856.50,0.0051
1856.25,0.0054
1856.00,0.0056
1855.75,0.0057
1855.50,0.0057
1855.25,0.0057
1855.00,0.0057
1854.75,0.0057
1854.50,0.0057
1854.25,0.0056
1854.00,0.0056
1853.75,0.0055
1853.50,0.0054
1853.25,0.0053
1853.00,0.0052
1852.75,0.0052
1852.50,0.0051
1852.25,0.0049
1852.00,0.0049
1851.75,0.0048
1851.50,0.0049
1851.25,0.0050
1851.00,0.0051
1850.75,0.0052
1850.50,0.0052
1850.25,0.0053
1850.00,0.0054
1849.75,0.0054
1849.50,0.0055
1849.25,0.0055
1849.00,0.0054
1848.75,0.0054
1848.50,0.0053
1848.25,0.0054
1848.00,0.0054
1847.75,0.0055
1847.50,0.0055
1847.25,0.0054
1847.00,0.0053
1846.75,0.0052
1846.50,0.0052
1846.25,0.0053
1846.00,0.0054
1845.75,0.0055
1845.50,0.0055
1845.25,0.0055
1845.00,0.0055
1844.75,0.0055
1844.50,0.0055
1844.25,0.0057
1844.00,0.0059
1843.75,0.0059
1843.50,0.0059
1843.25,0.0059
1843.00,0.0058
1842.75,0.0057
1842.50,0.0055
1842.25,0.0054
1842.00,0.0053
1841.75,0.0054
1841.50,0.0056
1841.25,0.0058
1841.00,0.0059
1840.75,0.0060
1840.50,0.0061
1840.25,0.0061
1840.00,0.0060
1839.75,0.0060
1839.50,0.0058
1839.25,0.0056
1839.00,0.0055
1838.75,0.0054
1838.50,0.0055
1838.25,0.0055
1838.00,0.0055
1837.75,0.0054
1837.50,0.0052
1837.25,0.0051
1837.00,0.0051
1836.75,0.0052
1836.50,0.0052
1836.25,0.0052
1836.00,0.0052
1835.75,0.0053
1835.50,0.0054
1835.25,0.0054
1835.00,0.0055
1834.75,0.0055
1834.50,0.0054
1834.25,0.0053
1834.00,0.0053
1833.75,0.0054
1833.50,0.0056
1833.25,0.0059
1833.00,0.0061
1832.75,0.0062
1832.50,0.0062
1832.25,0.0061
1832.00,0.0061
1831.75,0.0061
1831.50,0.0061
1831.25,0.0061
1831.00,0.0061
1830.75,0.0061
1830.50,0.0059
1830.25,0.0056
1830.00,0.0055
1829.75,0.0055
1829.50,0.0055
1829.25,0.0056
1829.00,0.0055
1828.75,0.0054
1828.50,0.0053
1828.25,0.0053
1828.00,0.0053
1827.75,0.0054
1827.50,0.0056
1827.25,0.0057
1827.00,0.0058
1826.75,0.0059
1826.50,0.0059
1826.25,0.0059
1826.00,0.0058
1825.75,0.0056
1825.50,0.0054
1825.25,0.0053
1825.00,0.0053
1824.75,0.0054
1824.50,0.0055
1824.25,0.0055
1824.00,0.0055
1823.75,0.0054
1823.50,0.0053
1823.25,0.0053
1823.00,0.0054
1822.75,0.0055
1822.50,0.0056
1822.25,0.0056
1822.00,0.0056
1821.75,0.0056
1821.50,0.0057
1821.25,0.0058
1821.00,0.0059
1820.75,0.0060
1820.50,0.0060
1820.25,0.0059
1820.00,0.0057
1819.75,0.0055
1819.50,0.0054
1819.25,0.0055
1819.00,0.0056
1818.75,0.0058
1818.50,0.0059
1818.25,0.0060
1818.00,0.0059
1817.75,0.0058
1817.50,0.0056
1817.25,0.0054
1817.00,0.0053
1816.75,0.0054
1816.50,0.0055
1816.25,0.0057
1816.00,0.0059
1815.75,0.0059
1815.50,0.0058
1815.25,0.0057
1815.00,0.0057
1814.75,0.0057
1814.50,0.0058
1814.25,0.0058
1814.00,0.0059
1813.75,0.0058
1813.50,0.0058
1813.25,0.0059
1813.00,0.0059
1812.75,0.0058
1812.50,0.0058
1812.25,0.0057
1812.00,0.0058
1811.75,0.0059
1811.50,0.0060
1811.25,0.0060
1811.00,0.0060
1810.75,0.0061
1810.50,0.0061
1810.25,0.0061
1810.00,0.0061
1809.75,0.0060
1809.50,0.0061
1809.25,0.0062
1809.00,0.0063
1808.75,0.0062
1808.50,0.0061
1808.25,0.0059
1808.00,0.0057
1807.75,0.0056
1807.50,0.0056
1807.25,0.0057
1807.00,0.0057
1806.75,0.0057
1806.50,0.0058
1806.25,0.0060
1806.00,0.0061
1805.75,0.0062
1805.50,0.0062
1805.25,0.0062
1805.00,0.0060
1804.75,0.0059
1804.50,0.0057
1804.25,0.0057
1804.00,0.0058
1803.75,0.0059
1803.50,0.0060
1803.25,0.0059
1803.00,0.0058
1802.75,0.0056
1802.50,0.0055
1802.25,0.0055
1802.00,0.0057
1801.75,0.0060
1801.50,0.0062
1801.25,0.0063
1801.00,0.0063
1800.75,0.0062
1800.50,0.0062
1800.25,0.0063
1800.00,0.0064
1799.75,0.0065
1799.50,0.0065
1799.25,0.0063
1799.00,0.0060
1798.75,0.0058
1798.50,0.0058
1798.25,0.0058
1798.00,0.0058
1797.75,0.0058
1797.50,0.0058
1797.25,0.0057
1797.00,0.0058
1796.75,0.0059
1796.50,0.0060
1796.25,0.0061
1796.00,0.0061
1795.75,0.0062
1795.50,0.0062
1795.25,0.0062
1795.00,0.0062
1794.75,0.0061
1794.50,0.0061
1794.25,0.0060
1794.00,0.0060
1793.75,0.0059
1793.50,0.0059
1793.25,0.0059
1793.00,0.0058
1792.75,0.0058
1792.50,0.0060
1792.25,0.0062
1792.00,0.0064
1791.75,0.0064
1791.50,0.0063
1791.25,0.0061
1791.00,0.0059
1790.75,0.0058
1790.50,0.0059
1790.25,0.0061
1790.00,0.0062
1789.75,0.0063
1789.50,0.0064
1789.25,0.0065
1789.00,0.0065
1788.75,0.0064
1788.50,0.0063
1788.25,0.0061
1788.00,0.0060
1787.75,0.0060
1787.50,0.0061
1787.25,0.0062
1787.00,0.0062
1786.75,0.0062
1786.50,0.0063
1786.25,0.0063
1786.00,0.0063
1785.75,0.0063
1785.50,0.0061
1785.25,0.0060
1785.00,0.0059
1784.75,0.0059
1784.50,0.0059
1784.25,0.0060
1784.00,0.0061
1783.75,0.0062
1783.50,0.0062
1783.25,0.0062
1783.00,0.0062
1782.75,0.0061
1782.50,0.0061
1782.25,0.0062
1782.00,0.0062
1781.75,0.0063
1781.50,0.0063
1781.25,0.0063
1781.00,0.0063
1780.75,0.0065
1780.50,0.0065
1780.25,0.0064
1780.00,0.0062
1779.75,0.0059
1779.50,0.0058
1779.25,0.0058
1779.00,0.0059
1778.75,0.0061
1778.50,0.0063
1778.25,0.0064
1778.00,0.0064
1777.75,0.0063
1777.50,0.0062
1777.25,0.0061
1777.00,0.0061
1776.75,0.0062
1776.50,0.0062
1776.25,0.0062
1776.00,0.0062
1775.75,0.0063
1775.50,0.0063
1775.25,0.0062
1775.00,0.0060
1774.75,0.0058
1774.50,0.0058
1774.25,0.0058
1774.00,0.0059
1773.75,0.0060
1773.50,0.0061
1773.25,0.0061
1773.00,0.0061
1772.75,0.0061
1772.50,0.0061
1772.25,0.0062
1772.00,0.0062
1771.75,0.0062
1771.50,0.0062
1771.25,0.0063
1771.00,0.0064
1770.75,0.0065
1770.50,0.0065
1770.25,0.0064
1770.00,0.0064
1769.75,0.0064
1769.50,0.0063
1769.25,0.0063
1769.00,0.0062
1768.75,0.0061
1768.50,0.0059
1768.25,0.0058
1768.00,0.0059
1767.75,0.0060
1767.50,0.0062
1767.25,0.0063
1767.00,0.0063
1766.75,0.0064
1766.50,0.0064
1766.25,0.0064
1766.00,0.0063
1765.75,0.0062
1765.50,0.0061
1765.25,0.0060
1765.00,0.0060
1764.75,0.0061
1764.50,0.0062
1764.25,0.0062
1764.00,0.0062
1763.75,0.0061
1763.50,0.0060
1763.25,0.0061
1763.00,0.0062
1762.75,0.0063
1762.50,0.0063
1762.25,0.0061
1762.00,0.0059
1761.75,0.0058
1761.50,0.0059
1761.25,0.0062
1761.00,0.0064
1760.75,0.0065
1760.50,0.0065
1760.25,0.0064
1760.00,0.0063
1759.75,0.0063
1759.50,0.0063
1759.25,0.0063
1759.00,0.0063
1758.75,0.0064
1758.50,0.0064
1758.25,0.0065
1758.00,0.0065
1757.75,0.0065
1757.50,0.0066
1757.25,0.0068
1757.00,0.0069
1756.75,0.0070
1756.50,0.0068
1756.25,0.0066
1756.00,0.0064
1755.75,0.0063
1755.50,0.0062
1755.25,0.0062
1755.00,0.0063
1754.75,0.0063
1754.50,0.0064
1754.25,0.0064
1754.00,0.0065
1753.75,0.0065
1753.50,0.0065
1753.25,0.0065
1753.00,0.0064
1752.75,0.0063
1752.50,0.0063
1752.25,0.0063
1752.00,0.0063
1751.75,0.0063
1751.50,0.0064
1751.25,0.0067
1751.00,0.0067
1750.75,0.0065
1750.50,0.0063
1750.25,0.0062
1750.00,0.0062
1749.75,0.0061
1749.50,0.0062
1749.25,0.0063
1749.00,0.0066
1748.75,0.0068
1748.50,0.0069
1748.25,0.0068
1748.00,0.0066
1747.75,0.0065
1747.50,0.0065
1747.25,0.0066
1747.00,0.0066
1746.75,0.0066
1746.50,0.0066
1746.25,0.0065
1746.00,0.0065
1745.75,0.0066
1745.50,0.0067
1745.25,0.0067
1745.00,0.0067
1744.75,0.0067
1744.50,0.0067
1744.25,0.0067
1744.00,0.0067
1743.75,0.0068
1743.50,0.0069
1743.25,0.0070
1743.00,0.0069
1742.75,0.0067
1742.50,0.0065
1742.25,0.0064
1742.00,0.0064
1741.75,0.0064
1741.50,0.0064
1741.25,0.0064
1741.00,0.0064
1740.75,0.0064
1740.50,0.0063
1740.25,0.0063
1740.00,0.0062
1739.75,0.0062
1739.50,0.0062
1739.25,0.0062
1739.00,0.0062
1738.75,0.0062
1738.50,0.0062
1738.25,0.0062
1738.00,0.0063
1737.75,0.0064
1737.50,0.0064
1737.25,0.0064
1737.00,0.0063
1736.75,0.0063
1736.50,0.0064
1736.25,0.0065
1736.00,0.0066
1735.75,0.0067
1735.50,0.0069
1735.25,0.0069
1735.00,0.0070
1734.75,0.0070
1734.50,0.0068
1734.25,0.0067
1734.00,0.0067
1733.75,0.0066
1733.50,0.0063
1733.25,0.0059
1733.00,0.0056
1732.75,0.0055
1732.50,0.0056
1732.25,0.0058
1732.00,0.0061
1731.75,0.0064
1731.50,0.0067
1731.25,0.0069
1731.00,0.0070
1730.75,0.0071
1730.50,0.0072
1730.25,0.0073
1730.00,0.0072
1729.75,0.0071
1729.50,0.0069
1729.25,0.0068
1729.00,0.0067
1728.75,0.0068
1728.50,0.0068
1728.25,0.0068
1728.00,0.0068
1727.75,0.0067
1727.50,0.0067
1727.25,0.0068
1727.00,0.0068
1726.75,0.0069
1726.50,0.0068
1726.25,0.0067
1726.00,0.0066
1725.75,0.0065
1725.50,0.0065
1725.25,0.0066
1725.00,0.0066
1724.75,0.0066
1724.50,0.0067
1724.25,0.0067
1724.00,0.0067
1723.75,0.0067
1723.50,0.0067
1723.25,0.0067
1723.00,0.0067
1722.75,0.0067
1722.50,0.0068
1722.25,0.0068
1722.00,0.0069
1721.75,0.0068
1721.50,0.0068
1721.25,0.0067
1721.00,0.0067
1720.75,0.0068
1720.50,0.0068
1720.25,0.0068
1720.00,0.0068
1719.75,0.0067
1719.50,0.0068
1719.25,0.0069
1719.00,0.0071
1718.75,0.0072
1718.50,0.0072
1718.25,0.0071
1718.00,0.0066
1717.75,0.0059
1717.50,0.0051
1717.25,0.0047
1717.00,0.0049
1716.75,0.0055
1716.50,0.0062
1716.25,0.0067
1716.00,0.0070
1715.75,0.0072
1715.50,0.0073
1715.25,0.0073
1715.00,0.0071
1714.75,0.0068
1714.50,0.0067
1714.25,0.0068
1714.00,0.0070
1713.75,0.0071
1713.50,0.0070
1713.25,0.0069
1713.00,0.0068
1712.75,0.0068
1712.50,0.0067
1712.25,0.0066
1712.00,0.0066
1711.75,0.0067
1711.50,0.0068
1711.25,0.0069
1711.00,0.0070
1710.75,0.0070
1710.50,0.0069
1710.25,0.0068
1710.00,0.0067
1709.75,0.0067
1709.50,0.0067
1709.25,0.0067
1709.00,0.0066
1708.75,0.0066
1708.50,0.0065
1708.25,0.0065
1708.00,0.0065
1707.75,0.0065
1707.50,0.0066
1707.25,0.0066
1707.00,0.0065
1706.75,0.0065
1706.50,0.0064
1706.25,0.0065
1706.00,0.0066
1705.75,0.0067
1705.50,0.0067
1705.25,0.0066
1705.00,0.0065
1704.75,0.0064
1704.50,0.0064
1704.25,0.0064
1704.00,0.0065
1703.75,0.0066
1703.50,0.0067
1703.25,0.0067
1703.00,0.0068
1702.75,0.0068
1702.50,0.0067
1702.25,0.0066
1702.00,0.0065
1701.75,0.0065
1701.50,0.0067
1701.25,0.0071
1701.00,0.0074
1700.75,0.0072
1700.50,0.0059
1700.25,0.0046
1700.00,0.0044
1699.75,0.0054
1699.50,0.0060
1699.25,0.0063
1699.00,0.0064
1698.75,0.0065
1698.50,0.0065
1698.25,0.0066
1698.00,0.0066
1697.75,0.0066
1697.50,0.0065
1697.25,0.0064
1697.00,0.0063
1696.75,0.0061
1696.50,0.0059
1696.25,0.0059
1696.00,0.0062
1695.75,0.0069
1695.50,0.0073
1695.25,0.0073
1695.00,0.0071
1694.75,0.0070
1694.50,0.0069
1694.25,0.0069
1694.00,0.0069
1693.75,0.0068
1693.50,0.0068
1693.25,0.0068
1693.00,0.0068
1692.75,0.0068
1692.50,0.0068
1692.25,0.0069
1692.00,0.0070
1691.75,0.0071
1691.50,0.0072
1691.25,0.0071
1691.00,0.0070
1690.75,0.0069
1690.50,0.0069
1690.25,0.0071
1690.00,0.0073
1689.75,0.0074
1689.50,0.0073
1689.25,0.0071
1689.00,0.0069
1688.75,0.0067
1688.50,0.0067
1688.25,0.0068
1688.00,0.0069
1687.75,0.0071
1687.50,0.0071
1687.25,0.0072
1687.00,0.0071
1686.75,0.0069
1686.50,0.0067
1686.25,0.0065
1686.00,0.0063
1685.75,0.0061
1685.50,0.0060
1685.25,0.0060
1685.00,0.0064
1684.75,0.0074
1684.50,0.0087
1684.25,0.0088
1684.00,0.0081
1683.75,0.0075
1683.50,0.0070
1683.25,0.0067
1683.00,0.0066
1682.75,0.0065
1682.50,0.0065
1682.25,0.0064
1682.00,0.0065
1681.75,0.0067
1681.50,0.0069
1681.25,0.0071
1681.00,0.0072
1680.75,0.0072
1680.50,0.0072
1680.25,0.0072
1680.00,0.0071
1679.75,0.0071
1679.50,0.0070
1679.25,0.0069
1679.00,0.0068
1678.75,0.0068
1678.50,0.0067
1678.25,0.0067
1678.00,0.0067
1677.75,0.0068
1677.50,0.0069
1677.25,0.0069
1677.00,0.0069
1676.75,0.0069
1676.50,0.0068
1676.25,0.0068
1676.00,0.0068
1675.75,0.0068
1675.50,0.0068
1675.25,0.0069
1675.00,0.0069
1674.75,0.0068
1674.50,0.0066
1674.25,0.0065
1674.00,0.0065
1673.75,0.0066
1673.50,0.0067
1673.25,0.0069
1673.00,0.0070
1672.75,0.0071
1672.50,0.0072
1672.25,0.0072
1672.00,0.0071
1671.75,0.0070
1671.50,0.0070
1671.25,0.0070
1671.00,0.0070
1670.75,0.0070
1670.50,0.0069
1670.25,0.0069
1670.00,0.0069
1669.75,0.0068
1669.50,0.0068
1669.25,0.0069
1669.00,0.0072
1668.75,0.0074
1668.50,0.0074
1668.25,0.0073
1668.00,0.0073
1667.75,0.0073
1667.50,0.0073
1667.25,0.0072
1667.00,0.0072
1666.75,0.0071
1666.50,0.0070
1666.25,0.0069
1666.00,0.0068
1665.75,0.0068
1665.50,0.0069
1665.25,0.0070
1665.00,0.0070
1664.75,0.0070
1664.50,0.0069
1664.25,0.0069
1664.00,0.0068
1663.75,0.0068
1663.50,0.0068
1663.25,0.0067
1663.00,0.0065
1662.75,0.0066
1662.50,0.0067
1662.25,0.0069
1662.00,0.0070
1661.75,0.0071
1661.50,0.0070
1661.25,0.0069
1661.00,0.0068
1660.75,0.0067
1660.50,0.0067
1660.25,0.0068
1660.00,0.0069
1659.75,0.0070
1659.50,0.0070
1659.25,0.0070
1659.00,0.0070
1658.75,0.0070
1658.50,0.0070
1658.25,0.0071
1658.00,0.0071
1657.75,0.0071
1657.50,0.0071
1657.25,0.0071
1657.00,0.0071
1656.75,0.0071
1656.50,0.0070
1656.25,0.0070
1656.00,0.0069
1655.75,0.0069
1655.50,0.0068
1655.25,0.0068
1655.00,0.0067
1654.75,0.0066
1654.50,0.0065
1654.25,0.0063
1654.00,0.0061
1653.75,0.0059
1653.50,0.0058
1653.25,0.0058
1653.00,0.0061
1652.75,0.0066
1652.50,0.0060
1652.25,0.0059
1652.00,0.0061
1651.75,0.0064
1651.50,0.0066
1651.25,0.0068
1651.00,0.0070
1650.75,0.0071
1650.50,0.0072
1650.25,0.0073
1650.00,0.0073
1649.75,0.0073
1649.50,0.0073
1649.25,0.0073
1649.00,0.0072
1648.75,0.0071
1648.50,0.0070
1648.25,0.0069
1648.00,0.0069
1647.75,0.0070
1647.50,0.0071
1647.25,0.0072
1647.00,0.0072
1646.75,0.0073
1646.50,0.0074
1646.25,0.0076
1646.00,0.0077
1645.75,0.0075
1645.50,0.0071
1645.25,0.0069
1645.00,0.0069
1644.75,0.0070
1644.50,0.0071
1644.25,0.0071
1644.00,0.0072
1643.75,0.0073
1643.50,0.0074
1643.25,0.0074
1643.00,0.0075
1642.75,0.0076
1642.50,0.0076
1642.25,0.0076
1642.00,0.0076
1641.75,0.0075
1641.50,0.0075
1641.25,0.0075
1641.00,0.0075
1640.75,0.0075
1640.50,0.0076
1640.25,0.0076
1640.00,0.0076
1639.75,0.0075
1639.50,0.0075
1639.25,0.0074
1639.00,0.0074
1638.75,0.0073
1638.50,0.0073
1638.25,0.0073
1638.00,0.0073
1637.75,0.0073
1637.50,0.0073
1637.25,0.0073
1637.00,0.0073
1636.75,0.0073
1636.50,0.0074
1636.25,0.0076
1636.00,0.0080
1635.75,0.0085
1635.50,0.0089
1635.25,0.0087
1635.00,0.0078
1634.75,0.0073
1634.50,0.0072
1634.25,0.0072
1634.00,0.0072
1633.75,0.0072
1633.50,0.0072
1633.25,0.0072
1633.00,0.0072
1632.75,0.0073
1632.50,0.0074
1632.25,0.0075
1632.00,0.0075
1631.75,0.0076
1631.50,0.0075
1631.25,0.0075
1631.00,0.0075
1630.75,0.0074
1630.50,0.0074
1630.25,0.0074
1630.00,0.0074
1629.75,0.0075
1629.50,0.0075
1629.25,0.0076
1629.00,0.0077
1628.75,0.0078
1628.50,0.0078
1628.25,0.0077
1628.00,0.0074
1627.75,0.0070
1627.50,0.0067
1627.25,0.0068
1627.00,0.0070
1626.75,0.0072
1626.50,0.0074
1626.25,0.0074
1626.00,0.0074
1625.75,0.0074
1625.50,0.0074
1625.25,0.0074
1625.00,0.0074
1624.75,0.0074
1624.50,0.0075
1624.25,0.0075
1624.00,0.0075
1623.75,0.0074
1623.50,0.0074
1623.25,0.0073
1623.00,0.0072
1622.75,0.0072
1622.50,0.0072
1622.25,0.0073
1622.00,0.0073
1621.75,0.0073
1621.50,0.0072
1621.25,0.0071
1621.00,0.0071
1620.75,0.0070
1620.50,0.0071
1620.25,0.0071
1620.00,0.0071
1619.75,0.0071
1619.50,0.0071
1619.25,0.0071
1619.00,0.0072
1618.75,0.0073
1618.50,0.0074
1618.25,0.0075
1618.00,0.0076
1617.75,0.0076
1617.50,0.0075
1617.25,0.0074
1617.00,0.0072
1616.75,0.0069
1616.50,0.0066
1616.25,0.0064
1616.00,0.0065
1615.75,0.0067
1615.50,0.0068
1615.25,0.0071
1615.00,0.0073
1614.75,0.0075
1614.50,0.0075
1614.25,0.0075
1614.00,0.0074
1613.75,0.0074
1613.50,0.0075
1613.25,0.0077
1613.00,0.0078
1612.75,0.0078
1612.50,0.0078
1612.25,0.0077
1612.00,0.0076
1611.75,0.0076
1611.50,0.0076
1611.25,0.0076
1611.00,0.0076
1610.75,0.0076
1610.50,0.0076
1610.25,0.0077
1610.00,0.0079
1609.75,0.0079
1609.50,0.0079
1609.25,0.0078
1609.00,0.0077
1608.75,0.0076
1608.50,0.0076
1608.25,0.0076
1608.00,0.0075
1607.75,0.0075
1607.50,0.0076
1607.25,0.0077
1607.00,0.0079
1606.75,0.0080
1606.50,0.0080
1606.25,0.0079
1606.00,0.0078
1605.75,0.0077
1605.50,0.0076
1605.25,0.0075
1605.00,0.0074
1604.75,0.0074
1604.50,0.0074
1604.25,0.0074
1604.00,0.0074
1603.75,0.0074
1603.50,0.0075
1603.25,0.0076
1603.00,0.0077
1602.75,0.0078
1602.50,0.0078
1602.25,0.0078
1602.00,0.0078
1601.75,0.0077
1601.50,0.0076
1601.25,0.0075
1601.00,0.0074
1600.75,0.0073
1600.50,0.0074
1600.25,0.0075
1600.00,0.0076
1599.75,0.0077
1599.50,0.0078
1599.25,0.0079
1599.00,0.0079
1598.75,0.0080
1598.50,0.0080
1598.25,0.0079
1598.00,0.0079
1597.75,0.0080
1597.50,0.0080
1597.25,0.0081
1597.00,0.0082
1596.75,0.0083
1596.50,0.0083
1596.25,0.0082
1596.00,0.0081
1595.75,0.0081
1595.50,0.0081
1595.25,0.0081
1595.00,0.0082
1594.75,0.0082
1594.50,0.0082
1594.25,0.0081
1594.00,0.0079
1593.75,0.0078
1593.50,0.0077
1593.25,0.0077
1593.00,0.0077
1592.75,0.0077
1592.50,0.0077
1592.25,0.0077
1592.00,0.0077
1591.75,0.0077
1591.50,0.0077
1591.25,0.0077
1591.00,0.0078
1590.75,0.0079
1590.50,0.0080
1590.25,0.0080
1590.00,0.0079
1589.75,0.0078
1589.50,0.0077
1589.25,0.0077
1589.00,0.0077
1588.75,0.0078
1588.50,0.0078
1588.25,0.0078
1588.00,0.0079
1587.75,0.0079
1587.50,0.0078
1587.25,0.0078
1587.00,0.0077
1586.75,0.0077
1586.50,0.0076
1586.25,0.0077
1586.00,0.0077
1585.75,0.0078
1585.50,0.0079
1585.25,0.0079
1585.00,0.0078
1584.75,0.0077
1584.50,0.0077
1584.25,0.0076
1584.00,0.0076
1583.75,0.0076
1583.50,0.0076
1583.25,0.0076
1583.00,0.0076
1582.75,0.0077
1582.50,0.0078
1582.25,0.0079
1582.00,0.0080
1581.75,0.0080
1581.50,0.0079
1581.25,0.0079
1581.00,0.0078
1580.75,0.0077
1580.50,0.0076
1580.25,0.0076
1580.00,0.0076
1579.75,0.0078
1579.50,0.0079
1579.25,0.0080
1579.00,0.0080
1578.75,0.0080
1578.50,0.0078
1578.25,0.0076
1578.00,0.0075
1577.75,0.0074
1577.50,0.0074
1577.25,0.0073
1577.00,0.0072
1576.75,0.0070
1576.50,0.0066
1576.25,0.0063
1576.00,0.0060
1575.75,0.0059
1575.50,0.0062
1575.25,0.0066
1575.00,0.0069
1574.75,0.0071
1574.50,0.0073
1574.25,0.0074
1574.00,0.0075
1573.75,0.0075
1573.50,0.0075
1573.25,0.0076
1573.00,0.0076
1572.75,0.0076
1572.50,0.0076
1572.25,0.0076
1572.00,0.0075
1571.75,0.0075
1571.50,0.0076
1571.25,0.0076
1571.00,0.0076
1570.75,0.0076
1570.50,0.0075
1570.25,0.0074
1570.00,0.0072
1569.75,0.0069
1569.50,0.0069
1569.25,0.0069
1569.00,0.0069
1568.75,0.0068
1568.50,0.0069
1568.25,0.0069
1568.00,0.0071
1567.75,0.0072
1567.50,0.0073
1567.25,0.0074
1567.00,0.0074
1566.75,0.0074
1566.50,0.0075
1566.25,0.0075
1566.00,0.0076
1565.75,0.0077
1565.50,0.0078
1565.25,0.0078
1565.00,0.0078
1564.75,0.0077
1564.50,0.0076
1564.25,0.0075
1564.00,0.0074
1563.75,0.0073
1563.50,0.0073
1563.25,0.0073
1563.00,0.0072
1562.75,0.0071
1562.50,0.0070
1562.25,0.0069
1562.00,0.0069
1561.75,0.0070
1561.50,0.0071
1561.25,0.0072
1561.00,0.0072
1560.75,0.0073
1560.50,0.0073
1560.25,0.0071
1560.00,0.0071
1559.75,0.0075
1559.50,0.0076
1559.25,0.0077
1559.00,0.0080
1558.75,0.0084
1558.50,0.0088
1558.25,0.0089
1558.00,0.0085
1557.75,0.0079
1557.50,0.0074
1557.25,0.0071
1557.00,0.0069
1556.75,0.0068
1556.50,0.0068
1556.25,0.0069
1556.00,0.0070
1555.75,0.0071
1555.50,0.0073
1555.25,0.0074
1555.00,0.0076
1554.75,0.0077
1554.50,0.0078
1554.25,0.0079
1554.00,0.0078
1553.75,0.0077
1553.50,0.0075
1553.25,0.0073
1553.00,0.0071
1552.75,0.0070
1552.50,0.0069
1552.25,0.0069
1552.00,0.0071
1551.75,0.0072
1551.50,0.0074
1551.25,0.0075
1551.00,0.0075
1550.75,0.0074
1550.50,0.0072
1550.25,0.0070
1550.00,0.0070
1549.75,0.0071
1549.50,0.0072
1549.25,0.0073
1549.00,0.0074
1548.75,0.0074
1548.50,0.0074
1548.25,0.0073
1548.00,0.0073
1547.75,0.0073
1547.50,0.0073
1547.25,0.0073
1547.00,0.0072
1546.75,0.0072
1546.50,0.0072
1546.25,0.0072
1546.00,0.0073
1545.75,0.0075
1545.50,0.0077
1545.25,0.0078
1545.00,0.0078
1544.75,0.0076
1544.50,0.0074
1544.25,0.0073
1544.00,0.0072
1543.75,0.0071
1543.50,0.0070
1543.25,0.0070
1543.00,0.0071
1542.75,0.0073
1542.50,0.0077
1542.25,0.0081
1542.00,0.0082
1541.75,0.0079
1541.50,0.0075
1541.25,0.0072
1541.00,0.0070
1540.75,0.0070
1540.50,0.0071
1540.25,0.0074
1540.00,0.0077
1539.75,0.0077
1539.50,0.0074
1539.25,0.0070
1539.00,0.0067
1538.75,0.0065
1538.50,0.0065
1538.25,0.0066
1538.00,0.0067
1537.75,0.0068
1537.50,0.0069
1537.25,0.0070
1537.00,0.0071
1536.75,0.0072
1536.50,0.0073
1536.25,0.0073
1536.00,0.0073
1535.75,0.0073
1535.50,0.0072
1535.25,0.0072
1535.00,0.0071
1534.75,0.0072
1534.50,0.0072
1534.25,0.0073
1534.00,0.0073
1533.75,0.0072
1533.50,0.0072
1533.25,0.0070
1533.00,0.0069
1532.75,0.0069
1532.50,0.0070
1532.25,0.0070
1532.00,0.0070
1531.75,0.0071
1531.50,0.0070
1531.25,0.0070
1531.00,0.0070
1530.75,0.0071
1530.50,0.0072
1530.25,0.0073
1530.00,0.0074
1529.75,0.0075
1529.50,0.0075
1529.25,0.0075
1529.00,0.0074
1528.75,0.0073
1528.50,0.0072
1528.25,0.0071
1528.00,0.0070
1527.75,0.0069
1527.50,0.0068
1527.25,0.0067
1527.00,0.0067
1526.75,0.0068
1526.50,0.0069
1526.25,0.0071
1526.00,0.0072
1525.75,0.0072
1525.50,0.0072
1525.25,0.0072
1525.00,0.0072
1524.75,0.0072
1524.50,0.0072
1524.25,0.0071
1524.00,0.0071
1523.75,0.0071
1523.50,0.0072
1523.25,0.0073
1523.00,0.0075
1522.75,0.0077
1522.50,0.0078
1522.25,0.0077
1522.00,0.0076
1521.75,0.0074
1521.50,0.0073
1521.25,0.0073
1521.00,0.0074
1520.75,0.0075
1520.50,0.0074
1520.25,0.0072
1520.00,0.0069
1519.75,0.0068
1519.50,0.0068
1519.25,0.0069
1519.00,0.0070
1518.75,0.0070
1518.50,0.0071
1518.25,0.0071
1518.00,0.0071
1517.75,0.0071
1517.50,0.0071
1517.25,0.0073
1517.00,0.0074
1516.75,0.0074
1516.50,0.0073
1516.25,0.0072
1516.00,0.0072
1515.75,0.0073
1515.50,0.0074
1515.25,0.0075
1515.00,0.0077
1514.75,0.0077
1514.50,0.0076
1514.25,0.0075
1514.00,0.0073
1513.75,0.0072
1513.50,0.0072
1513.25,0.0072
1513.00,0.0072
1512.75,0.0071
1512.50,0.0070
1512.25,0.0069
1512.00,0.0068
1511.75,0.0068
1511.50,0.0068
1511.25,0.0068
1511.00,0.0068
1510.75,0.0069
1510.50,0.0069
1510.25,0.0069
1510.00,0.0069
1509.75,0.0069
1509.50,0.0070
1509.25,0.0070
1509.00,0.0070
1508.75,0.0068
1508.50,0.0067
1508.25,0.0067
1508.00,0.0067
1507.75,0.0066
1507.50,0.0066
1507.25,0.0065
1507.00,0.0067
1506.75,0.0068
1506.50,0.0069
1506.25,0.0069
1506.00,0.0069
1505.75,0.0069
1505.50,0.0068
1505.25,0.0066
1505.00,0.0065
1504.75,0.0065
1504.50,0.0065
1504.25,0.0065
1504.00,0.0066
1503.75,0.0068
1503.50,0.0069
1503.25,0.0070
1503.00,0.0071
1502.75,0.0071
1502.50,0.0071
1502.25,0.0070
1502.00,0.0070
1501.75,0.0070
1501.50,0.0070
1501.25,0.0071
1501.00,0.0071
1500.75,0.0071
1500.50,0.0070
1500.25,0.0069
1500.00,0.0069
1499.75,0.0068
1499.50,0.0068
1499.25,0.0068
1499.00,0.0069
1498.75,0.0070
1498.50,0.0071
1498.25,0.0070
1498.00,0.0069
1497.75,0.0068
1497.50,0.0068
1497.25,0.0068
1497.00,0.0069
1496.75,0.0070
1496.50,0.0073
1496.25,0.0075
1496.00,0.0075
1495.75,0.0073
1495.50,0.0072
1495.25,0.0072
1495.00,0.0072
1494.75,0.0071
1494.50,0.0070
1494.25,0.0069
1494.00,0.0069
1493.75,0.0069
1493.50,0.0071
1493.25,0.0072
1493.00,0.0073
1492.75,0.0074
1492.50,0.0074
1492.25,0.0074
1492.00,0.0073
1491.75,0.0073
1491.50,0.0071
1491.25,0.0070
1491.00,0.0070
1490.75,0.0070
1490.50,0.0070
1490.25,0.0071
1490.00,0.0071
1489.75,0.0071
1489.50,0.0072
1489.25,0.0071
1489.00,0.0069
1488.75,0.0068
1488.50,0.0068
1488.25,0.0070
1488.00,0.0072
1487.75,0.0074
1487.50,0.0075
1487.25,0.0075
1487.00,0.0074
1486.75,0.0073
1486.50,0.0072
1486.25,0.0071
1486.00,0.0070
1485.75,0.0070
1485.50,0.0070
1485.25,0.0071
1485.00,0.0072
1484.75,0.0073
1484.50,0.0074
1484.25,0.0075
1484.00,0.0075
1483.75,0.0076
1483.50,0.0076
1483.25,0.0076
1483.00,0.0075
1482.75,0.0075
1482.50,0.0075
1482.25,0.0075
1482.00,0.0075
1481.75,0.0074
1481.50,0.0075
1481.25,0.0075
1481.00,0.0075
1480.75,0.0075
1480.50,0.0074
1480.25,0.0074
1480.00,0.0074
1479.75,0.0074
1479.50,0.0075
1479.25,0.0075
1479.00,0.0076
1478.75,0.0076
1478.50,0.0077
1478.25,0.0078
1478.00,0.0077
1477.75,0.0077
1477.50,0.0076
1477.25,0.0075
1477.00,0.0074
1476.75,0.0074
1476.50,0.0073
1476.25,0.0073
1476.00,0.0073
1475.75,0.0073
1475.50,0.0074
1475.25,0.0074
1475.00,0.0074
1474.75,0.0075
1474.50,0.0076
1474.25,0.0077
1474.00,0.0078
1473.75,0.0079
1473.50,0.0079
1473.25,0.0078
1473.00,0.0077
1472.75,0.0076
1472.50,0.0076
1472.25,0.0077
1472.00,0.0078
1471.75,0.0078
1471.50,0.0078
1471.25,0.0076
1471.00,0.0075
1470.75,0.0075
1470.50,0.0074
1470.25,0.0074
1470.00,0.0074
1469.75,0.0076
1469.50,0.0077
1469.25,0.0078
1469.00,0.0078
1468.75,0.0079
1468.50,0.0079
1468.25,0.0080
1468.00,0.0080
1467.75,0.0080
1467.50,0.0080
1467.25,0.0079
1467.00,0.0079
1466.75,0.0078
1466.50,0.0078
1466.25,0.0077
1466.00,0.0078
1465.75,0.0079
1465.50,0.0081
1465.25,0.0083
1465.00,0.0086
1464.75,0.0087
1464.50,0.0086
1464.25,0.0084
1464.00,0.0083
1463.75,0.0082
1463.50,0.0081
1463.25,0.0081
1463.00,0.0082
1462.75,0.0082
1462.50,0.0084
1462.25,0.0085
1462.00,0.0086
1461.75,0.0086
1461.50,0.0086
1461.25,0.0086
1461.00,0.0086
1460.75,0.0085
1460.50,0.0085
1460.25,0.0084
1460.00,0.0083
1459.75,0.0081
1459.50,0.0079
1459.25,0.0079
1459.00,0.0081
1458.75,0.0083
1458.50,0.0085
1458.25,0.0087
1458.00,0.0087
1457.75,0.0088
1457.50,0.0089
1457.25,0.0092
1457.00,0.0094
1456.75,0.0094
1456.50,0.0090
1456.25,0.0086
1456.00,0.0084
1455.75,0.0085
1455.50,0.0086
1455.25,0.0088
1455.00,0.0089
1454.75,0.0091
1454.50,0.0092
1454.25,0.0094
1454.00,0.0095
1453.75,0.0095
1453.50,0.0095
1453.25,0.0095
1453.00,0.0095
1452.75,0.0095
1452.50,0.0095
1452.25,0.0094
1452.00,0.0093
1451.75,0.0094
1451.50,0.0095
1451.25,0.0097
1451.00,0.0098
1450.75,0.0099
1450.50,0.0098
1450.25,0.0097
1450.00,0.0096
1449.75,0.0095
1449.50,0.0095
1449.25,0.0095
1449.00,0.0096
1448.75,0.0097
1448.50,0.0098
1448.25,0.0098
1448.00,0.0099
1447.75,0.0099
1447.50,0.0099
1447.25,0.0100
1447.00,0.0101
1446.75,0.0102
1446.50,0.0103
1446.25,0.0104
1446.00,0.0104
1445.75,0.0104
1445.50,0.0104
1445.25,0.0104
1445.00,0.0105
1444.75,0.0105
1444.50,0.0106
1444.25,0.0106
1444.00,0.0106
1443.75,0.0106
1443.50,0.0106
1443.25,0.0105
1443.00,0.0105
1442.75,0.0105
1442.50,0.0105
1442.25,0.0105
1442.00,0.0104
1441.75,0.0103
1441.50,0.0102
1441.25,0.0101
1441.00,0.0099
1440.75,0.0099
1440.50,0.0099
1440.25,0.0100
1440.00,0.0100
1439.75,0.0101
1439.50,0.0101
1439.25,0.0101
1439.00,0.0100
1438.75,0.0100
1438.50,0.0099
1438.25,0.0098
1438.00,0.0098
1437.75,0.0097
1437.50,0.0098
1437.25,0.0099
1437.00,0.0098
1436.75,0.0097
1436.50,0.0095
1436.25,0.0094
1436.00,0.0094
1435.75,0.0094
1435.50,0.0094
1435.25,0.0093
1435.00,0.0093
1434.75,0.0092
1434.50,0.0093
1434.25,0.0094
1434.00,0.0095
1433.75,0.0095
1433.50,0.0096
1433.25,0.0096
1433.00,0.0095
1432.75,0.0094
1432.50,0.0094
1432.25,0.0093
1432.00,0.0093
1431.75,0.0093
1431.50,0.0094
1431.25,0.0095
1431.00,0.0095
1430.75,0.0094
1430.50,0.0093
1430.25,0.0091
1430.00,0.0091
1429.75,0.0092
1429.50,0.0094
1429.25,0.0096
1429.00,0.0097
1428.75,0.0098
1428.50,0.0099
1428.25,0.0101
1428.00,0.0102
1427.75,0.0103
1427.50,0.0103
1427.25,0.0104
1427.00,0.0104
1426.75,0.0103
1426.50,0.0103
1426.25,0.0104
1426.00,0.0105
1425.75,0.0107
1425.50,0.0107
1425.25,0.0107
1425.00,0.0106
1424.75,0.0104
1424.50,0.0104
1424.25,0.0105
1424.00,0.0107
1423.75,0.0109
1423.50,0.0111
1423.25,0.0112
1423.00,0.0113
1422.75,0.0113
1422.50,0.0114
1422.25,0.0116
1422.00,0.0117
1421.75,0.0119
1421.50,0.0120
1421.25,0.0122
1421.00,0.0124
1420.75,0.0126
1420.50,0.0127
1420.25,0.0129
1420.00,0.0130
1419.75,0.0130
1419.50,0.0129
1419.25,0.0129
1419.00,0.0131
1418.75,0.0134
1418.50,0.0136
1418.25,0.0138
1418.00,0.0140
1417.75,0.0141
1417.50,0.0142
1417.25,0.0143
1417.00,0.0145
1416.75,0.0148
1416.50,0.0149
1416.25,0.0150
1416.00,0.0151
1415.75,0.0152
1415.50,0.0154
1415.25,0.0155
1415.00,0.0157
1414.75,0.0158
1414.50,0.0158
1414.25,0.0159
1414.00,0.0159
1413.75,0.0160
1413.50,0.0161
1413.25,0.0162
1413.00,0.0163
1412.75,0.0162
1412.50,0.0161
1412.25,0.0160
1412.00,0.0159
1411.75,0.0160
1411.50,0.0162
1411.25,0.0164
1411.00,0.0165
1410.75,0.0164
1410.50,0.0163
1410.25,0.0161
1410.00,0.0159
1409.75,0.0158
1409.50,0.0158
1409.25,0.0158
1409.00,0.0157
1408.75,0.0157
1408.50,0.0156
1408.25,0.0156
1408.00,0.0157
1407.75,0.0157
1407.50,0.0158
1407.25,0.0158
1407.00,0.0157
1406.75,0.0156
1406.50,0.0155
1406.25,0.0153
1406.00,0.0152
1405.75,0.0151
1405.50,0.0149
1405.25,0.0148
1405.00,0.0146
1404.75,0.0145
1404.50,0.0146
1404.25,0.0147
1404.00,0.0149
1403.75,0.0150
1403.50,0.0150
1403.25,0.0150
1403.00,0.0149
1402.75,0.0149
1402.50,0.0148
1402.25,0.0147
1402.00,0.0146
1401.75,0.0145
1401.50,0.0144
1401.25,0.0143
1401.00,0.0143
1400.75,0.0143
1400.50,0.0142
1400.25,0.0141
1400.00,0.0141
1399.75,0.0140
1399.50,0.0140
1399.25,0.0140
1399.00,0.0141
1398.75,0.0141
1398.50,0.0140
1398.25,0.0139
1398.00,0.0138
1397.75,0.0136
1397.50,0.0134
1397.25,0.0132
1397.00,0.0129
1396.75,0.0127
1396.50,0.0125
1396.25,0.0124
1396.00,0.0123
1395.75,0.0122
1395.50,0.0121
1395.25,0.0120
1395.00,0.0120
1394.75,0.0119
1394.50,0.0118
1394.25,0.0116
1394.00,0.0114
1393.75,0.0113
1393.50,0.0113
1393.25,0.0112
1393.00,0.0111
1392.75,0.0110
1392.50,0.0109
1392.25,0.0108
1392.00,0.0107
1391.75,0.0106
1391.50,0.0106
1391.25,0.0106
1391.00,0.0106
1390.75,0.0106
1390.50,0.0105
1390.25,0.0104
1390.00,0.0103
1389.75,0.0102
1389.50,0.0102
1389.25,0.0101
1389.00,0.0100
1388.75,0.0099
1388.50,0.0098
1388.25,0.0097
1388.00,0.0097
1387.75,0.0096
1387.50,0.0097
1387.25,0.0098
1387.00,0.0098
1386.75,0.0098
1386.50,0.0098
1386.25,0.0098
1386.00,0.0097
1385.75,0.0097
1385.50,0.0098
1385.25,0.0098
1385.00,0.0098
1384.75,0.0097
1384.50,0.0095
1384.25,0.0093
1384.00,0.0091
1383.75,0.0091
1383.50,0.0091
1383.25,0.0092
1383.00,0.0094
1382.75,0.0095
1382.50,0.0096
1382.25,0.0096
1382.00,0.0095
1381.75,0.0093
1381.50,0.0091
1381.25,0.0090
1381.00,0.0089
1380.75,0.0089
1380.50,0.0089
1380.25,0.0090
1380.00,0.0091
1379.75,0.0092
1379.50,0.0092
1379.25,0.0092
1379.00,0.0091
1378.75,0.0090
1378.50,0.0088
1378.25,0.0088
1378.00,0.0088
1377.75,0.0089
1377.50,0.0090
1377.25,0.0091
1377.00,0.0092
1376.75,0.0091
1376.50,0.0091
1376.25,0.0090
1376.00,0.0089
1375.75,0.0088
1375.50,0.0087
1375.25,0.0087
1375.00,0.0087
1374.75,0.0088
1374.50,0.0088
1374.25,0.0087
1374.00,0.0086
1373.75,0.0086
1373.50,0.0085
1373.25,0.0086
1373.00,0.0087
1372.75,0.0088
1372.50,0.0090
1372.25,0.0091
1372.00,0.0091
1371.75,0.0090
1371.50,0.0089
1371.25,0.0089
1371.00,0.0089
1370.75,0.0089
1370.50,0.0089
1370.25,0.0088
1370.00,0.0088
1369.75,0.0088
1369.50,0.0088
1369.25,0.0088
1369.00,0.0087
1368.75,0.0087
1368.50,0.0088
1368.25,0.0088
1368.00,0.0089
1367.75,0.0090
1367.50,0.0090
1367.25,0.0090
1367.00,0.0090
1366.75,0.0088
1366.50,0.0087
1366.25,0.0085
1366.00,0.0084
1365.75,0.0084
1365.50,0.0084
1365.25,0.0085
1365.00,0.0085
1364.75,0.0086
1364.50,0.0086
1364.25,0.0085
1364.00,0.0083
1363.75,0.0081
1363.50,0.0080
1363.25,0.0080
1363.00,0.0082
1362.75,0.0084
1362.50,0.0085
1362.25,0.0085
1362.00,0.0085
1361.75,0.0084
1361.50,0.0083
1361.25,0.0082
1361.00,0.0082
1360.75,0.0083
1360.50,0.0085
1360.25,0.0086
1360.00,0.0086
1359.75,0.0086
1359.50,0.0086
1359.25,0.0087
1359.00,0.0087
1358.75,0.0088
1358.50,0.0089
1358.25,0.0089
1358.00,0.0088
1357.75,0.0087
1357.50,0.0085
1357.25,0.0083
1357.00,0.0082
1356.75,0.0082
1356.50,0.0082
1356.25,0.0083
1356.00,0.0084
1355.75,0.0085
1355.50,0.0085
1355.25,0.0084
1355.00,0.0084
1354.75,0.0083
1354.50,0.0084
1354.25,0.0085
1354.00,0.0086
1353.75,0.0087
1353.50,0.0087
1353.25,0.0086
1353.00,0.0086
1352.75,0.0086
1352.50,0.0086
1352.25,0.0087
1352.00,0.0087
1351.75,0.0086
1351.50,0.0085
1351.25,0.0083
1351.00,0.0083
1350.75,0.0083
1350.50,0.0083
1350.25,0.0083
1350.00,0.0083
1349.75,0.0083
1349.50,0.0083
1349.25,0.0084
1349.00,0.0084
1348.75,0.0085
1348.50,0.0085
1348.25,0.0084
1348.00,0.0084
1347.75,0.0084
1347.50,0.0084
1347.25,0.0085
1347.00,0.0085
1346.75,0.0086
1346.50,0.0086
1346.25,0.0086
1346.00,0.0086
1345.75,0.0086
1345.50,0.0086
1345.25,0.0086
1345.00,0.0086
1344.75,0.0086
1344.50,0.0085
1344.25,0.0085
1344.00,0.0084
1343.75,0.0083
1343.50,0.0083
1343.25,0.0083
1343.00,0.0083
1342.75,0.0085
1342.50,0.0086
1342.25,0.0086
1342.00,0.0086
1341.75,0.0085
1341.50,0.0084
1341.25,0.0083
1341.00,0.0083
1340.75,0.0083
1340.50,0.0085
1340.25,0.0085
1340.00,0.0085
1339.75,0.0084
1339.50,0.0082
1339.25,0.0082
1339.00,0.0083
1338.75,0.0083
1338.50,0.0083
1338.25,0.0083
1338.00,0.0082
1337.75,0.0081
1337.50,0.0081
1337.25,0.0082
1337.00,0.0084
1336.75,0.0085
1336.50,0.0086
1336.25,0.0086
1336.00,0.0085
1335.75,0.0084
1335.50,0.0083
1335.25,0.0083
1335.00,0.0083
1334.75,0.0085
1334.50,0.0086
1334.25,0.0088
1334.00,0.0088
1333.75,0.0088
1333.50,0.0088
1333.25,0.0088
1333.00,0.0088
1332.75,0.0088
1332.50,0.0087
1332.25,0.0086
1332.00,0.0085
1331.75,0.0084
1331.50,0.0083
1331.25,0.0083
1331.00,0.0083
1330.75,0.0084
1330.50,0.0085
1330.25,0.0085
1330.00,0.0086
1329.75,0.0085
1329.50,0.0085
1329.25,0.0085
1329.00,0.0085
1328.75,0.0085
1328.50,0.0085
1328.25,0.0085
1328.00,0.0085
1327.75,0.0086
1327.50,0.0086
1327.25,0.0086
1327.00,0.0086
1326.75,0.0086
1326.50,0.0087
1326.25,0.0087
1326.00,0.0088
1325.75,0.0088
1325.50,0.0088
1325.25,0.0088
1325.00,0.0088
1324.75,0.0088
1324.50,0.0087
1324.25,0.0087
1324.00,0.0086
1323.75,0.0086
1323.50,0.0087
1323.25,0.0087
1323.00,0.0088
1322.75,0.0089
1322.50,0.0089
1322.25,0.0090
1322.00,0.0090
1321.75,0.0090
1321.50,0.0089
1321.25,0.0089
1321.00,0.0090
1320.75,0.0091
1320.50,0.0092
1320.25,0.0093
1320.00,0.0093
1319.75,0.0093
1319.50,0.0093
1319.25,0.0094
1319.00,0.0094
1318.75,0.0095
1318.50,0.0094
1318.25,0.0094
1318.00,0.0093
1317.75,0.0093
1317.50,0.0093
1317.25,0.0093
1317.00,0.0093
1316.75,0.0093
1316.50,0.0092
1316.25,0.0092
1316.00,0.0092
1315.75,0.0093
1315.50,0.0093
1315.25,0.0094
1315.00,0.0094
1314.75,0.0094
1314.50,0.0093
1314.25,0.0093
1314.00,0.0093
1313.75,0.0093
1313.50,0.0093
1313.25,0.0094
1313.00,0.0094
1312.75,0.0095
1312.50,0.0096
1312.25,0.0096
1312.00,0.0095
1311.75,0.0094
1311.50,0.0093
1311.25,0.0092
1311.00,0.0092
1310.75,0.0093
1310.50,0.0094
1310.25,0.0095
1310.00,0.0097
1309.75,0.0098
1309.50,0.0099
1309.25,0.0100
1309.00,0.0100
1308.75,0.0099
1308.50,0.0099
1308.25,0.0099
1308.00,0.0100
1307.75,0.0100
1307.50,0.0100
1307.25,0.0100
1307.00,0.0100
1306.75,0.0100
1306.50,0.0101
1306.25,0.0102
1306.00,0.0102
1305.75,0.0102
1305.50,0.0102
1305.25,0.0101
1305.00,0.0101
1304.75,0.0101
1304.50,0.0101
1304.25,0.0102
1304.00,0.0102
1303.75,0.0103
1303.50,0.0103
1303.25,0.0104
1303.00,0.0104
1302.75,0.0104
1302.50,0.0104
1302.25,0.0104
1302.00,0.0104
1301.75,0.0104
1301.50,0.0105
1301.25,0.0105
1301.00,0.0106
1300.75,0.0106
1300.50,0.0105
1300.25,0.0105
1300.00,0.0105
1299.75,0.0105
1299.50,0.0105
1299.25,0.0106
1299.00,0.0107
1298.75,0.0107
1298.50,0.0108
1298.25,0.0108
1298.00,0.0110
1297.75,0.0111
1297.50,0.0113
1297.25,0.0114
1297.00,0.0114
1296.75,0.0114
1296.50,0.0113
1296.25,0.0112
1296.00,0.0112
1295.75,0.0111
1295.50,0.0111
1295.25,0.0110
1295.00,0.0111
1294.75,0.0112
1294.50,0.0113
1294.25,0.0115
1294.00,0.0116
1293.75,0.0117
1293.50,0.0117
1293.25,0.0117
1293.00,0.0118
1292.75,0.0119
1292.50,0.0119
1292.25,0.0120
1292.00,0.0120
1291.75,0.0120
1291.50,0.0121
1291.25,0.0122
1291.00,0.0124
1290.75,0.0126
1290.50,0.0126
1290.25,0.0126
1290.00,0.0125
1289.75,0.0124
1289.50,0.0123
1289.25,0.0124
1289.00,0.0125
1288.75,0.0126
1288.50,0.0128
1288.25,0.0129
1288.00,0.0129
1287.75,0.0130
1287.50,0.0130
1287.25,0.0130
1287.00,0.0130
1286.75,0.0129
1286.50,0.0130
1286.25,0.0131
1286.00,0.0132
1285.75,0.0134
1285.50,0.0137
1285.25,0.0139
1285.00,0.0141
1284.75,0.0142
1284.50,0.0142
1284.25,0.0142
1284.00,0.0142
1283.75,0.0141
1283.50,0.0140
1283.25,0.0140
1283.00,0.0140
1282.75,0.0141
1282.50,0.0142
1282.25,0.0144
1282.00,0.0146
1281.75,0.0149
1281.50,0.0151
1281.25,0.0153
1281.00,0.0154
1280.75,0.0155
1280.50,0.0156
1280.25,0.0158
1280.00,0.0159
1279.75,0.0160
1279.50,0.0161
1279.25,0.0163
1279.00,0.0165
1278.75,0.0168
1278.50,0.0172
1278.25,0.0175
1278.00,0.0177
1277.75,0.0179
1277.50,0.0180
1277.25,0.0182
1277.00,0.0184
1276.75,0.0187
1276.50,0.0190
1276.25,0.0193
1276.00,0.0196
1275.75,0.0199
1275.50,0.0203
1275.25,0.0207
1275.00,0.0211
1274.75,0.0215
1274.50,0.0220
1274.25,0.0224
1274.00,0.0228
1273.75,0.0234
1273.50,0.0239
1273.25,0.0245
1273.00,0.0251
1272.75,0.0257
1272.50,0.0263
1272.25,0.0270
1272.00,0.0277
1271.75,0.0284
1271.50,0.0292
1271.25,0.0301
1271.00,0.0311
1270.75,0.0321
1270.50,0.0332
1270.25,0.0344
1270.00,0.0357
1269.75,0.0371
1269.50,0.0385
1269.25,0.0400
1269.00,0.0416
1268.75,0.0432
1268.50,0.0451
1268.25,0.0471
1268.00,0.0493
1267.75,0.0516
1267.50,0.0541
1267.25,0.0568
1267.00,0.0597
1266.75,0.0628
1266.50,0.0661
1266.25,0.0695
1266.00,0.0730
1265.75,0.0766
1265.50,0.0803
1265.25,0.0840
1265.00,0.0879
1264.75,0.0920
1264.50,0.0962
1264.25,0.1005
1264.00,0.1049
1263.75,0.1093
1263.50,0.1138
1263.25,0.1183
1263.00,0.1228
1262.75,0.1272
1262.50,0.1316
1262.25,0.1359
1262.00,0.1400
1261.75,0.1439
1261.50,0.1476
1261.25,0.1510
1261.00,0.1541
1260.75,0.1571
1260.50,0.1599
1260.25,0.1626
1260.00,0.1648
1259.75,0.1666
1259.50,0.1679
1259.25,0.1690
1259.00,0.1698
1258.75,0.1704
1258.50,0.1708
1258.25,0.1708
1258.00,0.1704
1257.75,0.1696
1257.50,0.1684
1257.25,0.1669
1257.00,0.1650
1256.75,0.1628
1256.50,0.1606
1256.25,0.1582
1256.00,0.1558
1255.75,0.1533
1255.50,0.1508
1255.25,0.1481
1255.00,0.1455
1254.75,0.1428
1254.50,0.1403
1254.25,0.1377
1254.00,0.1350
1253.75,0.1323
1253.50,0.1293
1253.25,0.1263
1253.00,0.1233
1252.75,0.1202
1252.50,0.1170
1252.25,0.1137
1252.00,0.1102
1251.75,0.1067
1251.50,0.1030
1251.25,0.0993
1251.00,0.0956
1250.75,0.0919
1250.50,0.0883
1250.25,0.0848
1250.00,0.0813
1249.75,0.0778
1249.50,0.0743
1249.25,0.0709
1249.00,0.0676
1248.75,0.0645
1248.50,0.0616
1248.25,0.0588
1248.00,0.0562
1247.75,0.0538
1247.50,0.0515
1247.25,0.0494
1247.00,0.0474
1246.75,0.0456
1246.50,0.0438
1246.25,0.0422
1246.00,0.0407
1245.75,0.0392
1245.50,0.0379
1245.25,0.0367
1245.00,0.0356
1244.75,0.0346
1244.50,0.0336
1244.25,0.0327
1244.00,0.0318
1243.75,0.0309
1243.50,0.0302
1243.25,0.0295
1243.00,0.0290
1242.75,0.0285
1242.50,0.0280
1242.25,0.0273
1242.00,0.0267
1241.75,0.0262
1241.50,0.0258
1241.25,0.0255
1241.00,0.0253
1240.75,0.0251
1240.50,0.0248
1240.25,0.0244
1240.00,0.0239
1239.75,0.0234
1239.50,0.0229
1239.25,0.0226
1239.00,0.0224
1238.75,0.0223
1238.50,0.0221
1238.25,0.0219
1238.00,0.0217
1237.75,0.0215
1237.50,0.0213
1237.25,0.0211
1237.00,0.0210
1236.75,0.0208
1236.50,0.0206
1236.25,0.0204
1236.00,0.0202
1235.75,0.0201
1235.50,0.0200
1235.25,0.0199
1235.00,0.0199
1234.75,0.0198
1234.50,0.0197
1234.25,0.0195
1234.00,0.0193
1233.75,0.0191
1233.50,0.0189
1233.25,0.0189
1233.00,0.0189
1232.75,0.0189
1232.50,0.0190
1232.25,0.0191
1232.00,0.0192
1231.75,0.0192
1231.50,0.0193
1231.25,0.0193
1231.00,0.0192
1230.75,0.0190
1230.50,0.0188
1230.25,0.0187
1230.00,0.0186
1229.75,0.0185
1229.50,0.0186
1229.25,0.0187
1229.00,0.0187
1228.75,0.0187
1228.50,0.0187
1228.25,0.0187
1228.00,0.0187
1227.75,0.0188
1227.50,0.0189
1227.25,0.0189
1227.00,0.0188
1226.75,0.0186
1226.50,0.0185
1226.25,0.0184
1226.00,0.0184
1225.75,0.0185
1225.50,0.0186
1225.25,0.0188
1225.00,0.0190
1224.75,0.0192
1224.50,0.0194
1224.25,0.0194
1224.00,0.0194
1223.75,0.0194
1223.50,0.0195
1223.25,0.0196
1223.00,0.0197
1222.75,0.0198
1222.50,0.0198
1222.25,0.0199
1222.00,0.0199
1221.75,0.0199
1221.50,0.0200
1221.25,0.0201
1221.00,0.0201
1220.75,0.0202
1220.50,0.0201
1220.25,0.0201
1220.00,0.0200
1219.75,0.0201
1219.50,0.0202
1219.25,0.0204
1219.00,0.0206
1218.75,0.0208
1218.50,0.0210
1218.25,0.0213
1218.00,0.0215
1217.75,0.0216
1217.50,0.0217
1217.25,0.0217
1217.00,0.0217
1216.75,0.0217
1216.50,0.0217
1216.25,0.0219
1216.00,0.0221
1215.75,0.0222
1215.50,0.0223
1215.25,0.0224
1215.00,0.0225
1214.75,0.0226
1214.50,0.0226
1214.25,0.0227
1214.00,0.0228
1213.75,0.0229
1213.50,0.0230
1213.25,0.0232
1213.00,0.0234
1212.75,0.0235
1212.50,0.0236
1212.25,0.0237
1212.00,0.0239
1211.75,0.0242
1211.50,0.0245
1211.25,0.0248
1211.00,0.0250
1210.75,0.0251
1210.50,0.0251
1210.25,0.0251
1210.00,0.0250
1209.75,0.0250
1209.50,0.0251
1209.25,0.0252
1209.00,0.0253
1208.75,0.0255
1208.50,0.0256
1208.25,0.0256
1208.00,0.0256
1207.75,0.0256
1207.50,0.0258
1207.25,0.0260
1207.00,0.0262
1206.75,0.0265
1206.50,0.0268
1206.25,0.0269
1206.00,0.0270
1205.75,0.0269
1205.50,0.0269
1205.25,0.0270
1205.00,0.0272
1204.75,0.0274
1204.50,0.0275
1204.25,0.0275
1204.00,0.0276
1203.75,0.0278
1203.50,0.0281
1203.25,0.0283
1203.00,0.0285
1202.75,0.0286
1202.50,0.0287
1202.25,0.0287
1202.00,0.0288
1201.75,0.0288
1201.50,0.0289
1201.25,0.0290
1201.00,0.0291
1200.75,0.0293
1200.50,0.0294
1200.25,0.0295
1200.00,0.0295
1199.75,0.0295
1199.50,0.0295
1199.25,0.0296
1199.00,0.0297
1198.75,0.0298
1198.50,0.0300
1198.25,0.0302
1198.00,0.0303
1197.75,0.0302
1197.50,0.0302
1197.25,0.0301
1197.00,0.0301
1196.75,0.0302
1196.50,0.0303
1196.25,0.0305
1196.00,0.0306
1195.75,0.0307
1195.50,0.0308
1195.25,0.0309
1195.00,0.0310
1194.75,0.0311
1194.50,0.0312
1194.25,0.0312
1194.00,0.0312
1193.75,0.0312
1193.50,0.0311
1193.25,0.0311
1193.00,0.0312
1192.75,0.0313
1192.50,0.0315
1192.25,0.0316
1192.00,0.0317
1191.75,0.0317
1191.50,0.0318
1191.25,0.0320
1191.00,0.0321
1190.75,0.0322
1190.50,0.0322
1190.25,0.0322
1190.00,0.0322
1189.75,0.0322
1189.50,0.0322
1189.25,0.0321
1189.00,0.0320
1188.75,0.0321
1188.50,0.0322
1188.25,0.0323
1188.00,0.0324
1187.75,0.0325
1187.50,0.0327
1187.25,0.0329
1187.00,0.0331
1186.75,0.0332
1186.50,0.0333
1186.25,0.0332
1186.00,0.0331
1185.75,0.0330
1185.50,0.0327
1185.25,0.0326
1185.00,0.0325
1184.75,0.0326
1184.50,0.0328
1184.25,0.0331
1184.00,0.0332
1183.75,0.0333
1183.50,0.0334
1183.25,0.0334
1183.00,0.0333
1182.75,0.0332
1182.50,0.0330
1182.25,0.0328
1182.00,0.0328
1181.75,0.0328
1181.50,0.0330
1181.25,0.0331
1181.00,0.0332
1180.75,0.0333
1180.50,0.0333
1180.25,0.0332
1180.00,0.0333
1179.75,0.0335
1179.50,0.0337
1179.25,0.0340
1179.00,0.0341
1178.75,0.0340
1178.50,0.0338
1178.25,0.0336
1178.00,0.0335
1177.75,0.0335
1177.50,0.0335
1177.25,0.0335
1177.00,0.0337
1176.75,0.0338
1176.50,0.0340
1176.25,0.0341
1176.00,0.0341
1175.75,0.0340
1175.50,0.0338
1175.25,0.0337
1175.00,0.0336
1174.75,0.0336
1174.50,0.0338
1174.25,0.0339
1174.00,0.0341
1173.75,0.0342
1173.50,0.0341
1173.25,0.0341
1173.00,0.0341
1172.75,0.0342
1172.50,0.0343
1172.25,0.0344
1172.00,0.0345
1171.75,0.0345
1171.50,0.0344
1171.25,0.0343
1171.00,0.0342
1170.75,0.0343
1170.50,0.0344
1170.25,0.0346
1170.00,0.0347
1169.75,0.0348
1169.50,0.0347
1169.25,0.0346
1169.00,0.0346
1168.75,0.0346
1168.50,0.0346
1168.25,0.0347
1168.00,0.0348
1167.75,0.0348
1167.50,0.0349
1167.25,0.0350
1167.00,0.0351
1166.75,0.0352
1166.50,0.0352
1166.25,0.0353
1166.00,0.0353
1165.75,0.0354
1165.50,0.0355
1165.25,0.0355
1165.00,0.0354
1164.75,0.0353
1164.50,0.0351
1164.25,0.0350
1164.00,0.0349
1163.75,0.0349
1163.50,0.0349
1163.25,0.0350
1163.00,0.0350
1162.75,0.0351
1162.50,0.0351
1162.25,0.0352
1162.00,0.0353
1161.75,0.0355
1161.50,0.0356
1161.25,0.0356
1161.00,0.0356
1160.75,0.0356
1160.50,0.0356
1160.25,0.0357
1160.00,0.0357
1159.75,0.0357
1159.50,0.0356
1159.25,0.0355
1159.00,0.0354
1158.75,0.0354
1158.50,0.0356
1158.25,0.0359
1158.00,0.0361
1157.75,0.0363
1157.50,0.0364
1157.25,0.0364
1157.00,0.0364
1156.75,0.0365
1156.50,0.0365
1156.25,0.0365
1156.00,0.0366
1155.75,0.0366
1155.50,0.0367
1155.25,0.0369
1155.00,0.0371
1154.75,0.0373
1154.50,0.0374
1154.25,0.0375
1154.00,0.0375
1153.75,0.0374
1153.50,0.0373
1153.25,0.0372
1153.00,0.0370
1152.75,0.0370
1152.50,0.0370
1152.25,0.0371
1152.00,0.0373
1151.75,0.0375
1151.50,0.0377
1151.25,0.0380
1151.00,0.0382
1150.75,0.0385
1150.50,0.0387
1150.25,0.0388
1150.00,0.0388
1149.75,0.0389
1149.50,0.0390
1149.25,0.0392
1149.00,0.0393
1148.75,0.0395
1148.50,0.0395
1148.25,0.0395
1148.00,0.0395
1147.75,0.0395
1147.50,0.0395
1147.25,0.0396
1147.00,0.0397
1146.75,0.0398
1146.50,0.0399
1146.25,0.0401
1146.00,0.0403
1145.75,0.0404
1145.50,0.0405
1145.25,0.0406
1145.00,0.0408
1144.75,0.0410
1144.50,0.0412
1144.25,0.0414
1144.00,0.0417
1143.75,0.0420
1143.50,0.0424
1143.25,0.0427
1143.00,0.0430
1142.75,0.0431
1142.50,0.0431
1142.25,0.0431
1142.00,0.0432
1141.75,0.0434
1141.50,0.0436
1141.25,0.0438
1141.00,0.0440
1140.75,0.0441
1140.50,0.0442
1140.25,0.0444
1140.00,0.0446
1139.75,0.0448
1139.50,0.0451
1139.25,0.0453
1139.00,0.0455
1138.75,0.0457
1138.50,0.0458
1138.25,0.0460
1138.00,0.0462
1137.75,0.0466
1137.50,0.0469
1137.25,0.0472
1137.00,0.0474
1136.75,0.0474
1136.50,0.0475
1136.25,0.0476
1136.00,0.0477
1135.75,0.0478
1135.50,0.0479
1135.25,0.0482
1135.00,0.0485
1134.75,0.0488
1134.50,0.0490
1134.25,0.0492
1134.00,0.0493
1133.75,0.0494
1133.50,0.0497
1133.25,0.0500
1133.00,0.0502
1132.75,0.0504
1132.50,0.0506
1132.25,0.0508
1132.00,0.0512
1131.75,0.0517
1131.50,0.0522
1131.25,0.0527
1131.00,0.0532
1130.75,0.0536
1130.50,0.0540
1130.25,0.0543
1130.00,0.0544
1129.75,0.0545
1129.50,0.0544
1129.25,0.0544
1129.00,0.0545
1128.75,0.0548
1128.50,0.0552
1128.25,0.0556
1128.00,0.0561
1127.75,0.0566
1127.50,0.0570
1127.25,0.0573
1127.00,0.0577
1126.75,0.0581
1126.50,0.0584
1126.25,0.0588
1126.00,0.0593
1125.75,0.0597
1125.50,0.0601
1125.25,0.0606
1125.00,0.0610
1124.75,0.0614
1124.50,0.0619
1124.25,0.0625
1124.00,0.0630
1123.75,0.0635
1123.50,0.0641
1123.25,0.0648
1123.00,0.0655
1122.75,0.0661
1122.50,0.0666
1122.25,0.0670
1122.00,0.0674
1121.75,0.0678
1121.50,0.0683
1121.25,0.0687
1121.00,0.0692
1120.75,0.0697
1120.50,0.0704
1120.25,0.0711
1120.00,0.0719
1119.75,0.0725
1119.50,0.0731
1119.25,0.0736
1119.00,0.0742
1118.75,0.0748
1118.50,0.0754
1118.25,0.0763
1118.00,0.0771
1117.75,0.0781
1117.50,0.0790
1117.25,0.0798
1117.00,0.0805
1116.75,0.0811
1116.50,0.0817
1116.25,0.0823
1116.00,0.0831
1115.75,0.0840
1115.50,0.0850
1115.25,0.0859
1115.00,0.0868
1114.75,0.0876
1114.50,0.0883
1114.25,0.0890
1114.00,0.0898
1113.75,0.0908
1113.50,0.0918
1113.25,0.0929
1113.00,0.0939
1112.75,0.0950
1112.50,0.0960
1112.25,0.0969
1112.00,0.0977
1111.75,0.0985
1111.50,0.0994
1111.25,0.1004
1111.00,0.1016
1110.75,0.1029
1110.50,0.1042
1110.25,0.1053
1110.00,0.1063
1109.75,0.1072
1109.50,0.1081
1109.25,0.1090
1109.00,0.1099
1108.75,0.1109
1108.50,0.1121
1108.25,0.1133
1108.00,0.1146
1107.75,0.1158
1107.50,0.1169
1107.25,0.1180
1107.00,0.1191
1106.75,0.1204
1106.50,0.1219
1106.25,0.1233
1106.00,0.1248
1105.75,0.1261
1105.50,0.1274
1105.25,0.1284
1105.00,0.1295
1104.75,0.1305
1104.50,0.1316
1104.25,0.1328
1104.00,0.1341
1103.75,0.1355
1103.50,0.1369
1103.25,0.1384
1103.00,0.1398
1102.75,0.1412
1102.50,0.1425
1102.25,0.1437
1102.00,0.1448
1101.75,0.1461
1101.50,0.1474
1101.25,0.1489
1101.00,0.1504
1100.75,0.1520
1100.50,0.1536
1100.25,0.1552
1100.00,0.1567
1099.75,0.1582
1099.50,0.1596
1099.25,0.1610
1099.00,0.1624
1098.75,0.1638
1098.50,0.1652
1098.25,0.1666
1098.00,0.1680
1097.75,0.1694
1097.50,0.1707
1097.25,0.1721
1097.00,0.1734
1096.75,0.1749
1096.50,0.1763
1096.25,0.1777
1096.00,0.1792
1095.75,0.1806
1095.50,0.1821
1095.25,0.1837
1095.00,0.1854
1094.75,0.1871
1094.50,0.1888
1094.25,0.1905
1094.00,0.1920
1093.75,0.1934
1093.50,0.1948
1093.25,0.1962
1093.00,0.1976
1092.75,0.1990
1092.50,0.2004
1092.25,0.2018
1092.00,0.2031
1091.75,0.2045
1091.50,0.2059
1091.25,0.2072
1091.00,0.2084
1090.75,0.2097
1090.50,0.2111
1090.25,0.2127
1090.00,0.2142
1089.75,0.2156
1089.50,0.2170
1089.25,0.2182
1089.00,0.2195
1088.75,0.2207
1088.50,0.2221
1088.25,0.2235
1088.00,0.2249
1087.75,0.2262
1087.50,0.2275
1087.25,0.2287
1087.00,0.2300
1086.75,0.2313
1086.50,0.2326
1086.25,0.2339
1086.00,0.2352
1085.75,0.2366
1085.50,0.2379
1085.25,0.2391
1085.00,0.2401
1084.75,0.2410
1084.50,0.2418
1084.25,0.2427
1084.00,0.2437
1083.75,0.2447
1083.50,0.2457
1083.25,0.2466
1083.00,0.2476
1082.75,0.2486
1082.50,0.2497
1082.25,0.2508
1082.00,0.2518
1081.75,0.2527
1081.50,0.2536
1081.25,0.2546
1081.00,0.2555
1080.75,0.2564
1080.50,0.2572
1080.25,0.2579
1080.00,0.2587
1079.75,0.2594
1079.50,0.2601
1079.25,0.2607
1079.00,0.2611
1078.75,0.2614
1078.50,0.2617
1078.25,0.2621
1078.00,0.2627
1077.75,0.2634
1077.50,0.2643
1077.25,0.2651
1077.00,0.2658
1076.75,0.2664
1076.50,0.2670
1076.25,0.2677
1076.00,0.2685
1075.75,0.2693
1075.50,0.2700
1075.25,0.2708
1075.00,0.2715
1074.75,0.2721
1074.50,0.2725
1074.25,0.2726
1074.00,0.2724
1073.75,0.2724
1073.50,0.2726
1073.25,0.2730
1073.00,0.2734
1072.75,0.2738
1072.50,0.2740
1072.25,0.2742
1072.00,0.2746
1071.75,0.2751
1071.50,0.2757
1071.25,0.2762
1071.00,0.2766
1070.75,0.2770
1070.50,0.2774
1070.25,0.2779
1070.00,0.2784
1069.75,0.2788
1069.50,0.2791
1069.25,0.2793
1069.00,0.2795
1068.75,0.2798
1068.50,0.2802
1068.25,0.2807
1068.00,0.2809
1067.75,0.2808
1067.50,0.2805
1067.25,0.2802
1067.00,0.2801
1066.75,0.2802
1066.50,0.2804
1066.25,0.2806
1066.00,0.2810
1065.75,0.2813
1065.50,0.2817
1065.25,0.2821
1065.00,0.2823
1064.75,0.2824
1064.50,0.2823
1064.25,0.2821
1064.00,0.2820
1063.75,0.2820
1063.50,0.2822
1063.25,0.2825
1063.00,0.2828
1062.75,0.2830
1062.50,0.2832
1062.25,0.2833
1062.00,0.2834
1061.75,0.2832
1061.50,0.2830
1061.25,0.2827
1061.00,0.2825
1060.75,0.2824
1060.50,0.2824
1060.25,0.2825
1060.00,0.2825
1059.75,0.2823
1059.50,0.2821
1059.25,0.2820
1059.00,0.2819
1058.75,0.2820
1058.50,0.2821
1058.25,0.2823
1058.00,0.2825
1057.75,0.2826
1057.50,0.2827
1057.25,0.2826
1057.00,0.2823
1056.75,0.2820
1056.50,0.2815
1056.25,0.2812
1056.00,0.2810
1055.75,0.2809
1055.50,0.2808
1055.25,0.2808
1055.00,0.2807
1054.75,0.2806
1054.50,0.2806
1054.25,0.2805
1054.00,0.2805
1053.75,0.2803
1053.50,0.2799
1053.25,0.2794
1053.00,0.2788
1052.75,0.2783
1052.50,0.2778
1052.25,0.2773
1052.00,0.2768
1051.75,0.2763
1051.50,0.2760
1051.25,0.2760
1051.00,0.2761
1050.75,0.2762
1050.50,0.2763
1050.25,0.2764
1050.00,0.2766
1049.75,0.2768
1049.50,0.2768
1049.25,0.2766
1049.00,0.2760
1048.75,0.2752
1048.50,0.2745
1048.25,0.2739
1048.00,0.2737
1047.75,0.2738
1047.50,0.2739
1047.25,0.2739
1047.00,0.2736
1046.75,0.2733
1046.50,0.2731
1046.25,0.2729
1046.00,0.2728
1045.75,0.2725
1045.50,0.2723
1045.25,0.2721
1045.00,0.2719
1044.75,0.2720
1044.50,0.2720
1044.25,0.2721
1044.00,0.2720
1043.75,0.2718
1043.50,0.2716
1043.25,0.2717
1043.00,0.2718
1042.75,0.2720
1042.50,0.2720
1042.25,0.2718
1042.00,0.2714
1041.75,0.2711
1041.50,0.2711
1041.25,0.2716
1041.00,0.2722
1040.75,0.2727
1040.50,0.2729
1040.25,0.2729
1040.00,0.2728
1039.75,0.2728
1039.50,0.2730
1039.25,0.2733
1039.00,0.2734
1038.75,0.2733
1038.50,0.2730
1038.25,0.2727
1038.00,0.2727
1037.75,0.2730
1037.50,0.2735
1037.25,0.2741
1037.00,0.2746
1036.75,0.2751
1036.50,0.2756
1036.25,0.2761
1036.00,0.2766
1035.75,0.2770
1035.50,0.2775
1035.25,0.2779
1035.00,0.2784
1034.75,0.2790
1034.50,0.2795
1034.25,0.2801
1034.00,0.2807
1033.75,0.2812
1033.50,0.2816
1033.25,0.2819
1033.00,0.2821
1032.75,0.2825
1032.50,0.2830
1032.25,0.2837
1032.00,0.2844
1031.75,0.2852
1031.50,0.2859
1031.25,0.2866
1031.00,0.2873
1030.75,0.2880
1030.50,0.2888
1030.25,0.2896
1030.00,0.2907
1029.75,0.2919
1029.50,0.2930
1029.25,0.2941
1029.00,0.2951
1028.75,0.2961
1028.50,0.2970
1028.25,0.2978
1028.00,0.2987
1027.75,0.2995
1027.50,0.3002
1027.25,0.3011
1027.00,0.3020
1026.75,0.3030
1026.50,0.3041
1026.25,0.3052
1026.00,0.3063
1025.75,0.3076
1025.50,0.3090
1025.25,0.3104
1025.00,0.3117
1024.75,0.3130
1024.50,0.3143
1024.25,0.3155
1024.00,0.3168
1023.75,0.3183
1023.50,0.3199
1023.25,0.3216
1023.00,0.3234
1022.75,0.3252
1022.50,0.3267
1022.25,0.3280
1022.00,0.3292
1021.75,0.3305
1021.50,0.3320
1021.25,0.3337
1021.00,0.3355
1020.75,0.3371
1020.50,0.3384
1020.25,0.3398
1020.00,0.3414
1019.75,0.3433
1019.50,0.3454
1019.25,0.3476
1019.00,0.3497
1018.75,0.3517
1018.50,0.3537
1018.25,0.3556
1018.00,0.3574
1017.75,0.3592
1017.50,0.3608
1017.25,0.3623
1017.00,0.3637
1016.75,0.3651
1016.50,0.3666
1016.25,0.3680
1016.00,0.3694
1015.75,0.3708
1015.50,0.3720
1015.25,0.3733
1015.00,0.3744
1014.75,0.3753
1014.50,0.3761
1014.25,0.3769
1014.00,0.3776
1013.75,0.3783
1013.50,0.3788
1013.25,0.3791
1013.00,0.3792
1012.75,0.3791
1012.50,0.3789
1012.25,0.3784
1012.00,0.3777
1011.75,0.3767
1011.50,0.3755
1011.25,0.3741
1011.00,0.3727
1010.75,0.3711
1010.50,0.3691
1010.25,0.3668
1010.00,0.3642
1009.75,0.3613
1009.50,0.3582
1009.25,0.3550
1009.00,0.3517
1008.75,0.3485
1008.50,0.3452
1008.25,0.3417
1008.00,0.3379
1007.75,0.3338
1007.50,0.3294
1007.25,0.3247
1007.00,0.3200
1006.75,0.3152
1006.50,0.3104
1006.25,0.3056
1006.00,0.3008
1005.75,0.2959
1005.50,0.2909
1005.25,0.2858
1005.00,0.2807
1004.75,0.2757
1004.50,0.2707
1004.25,0.2658
1004.00,0.2608
1003.75,0.2557
1003.50,0.2507
1003.25,0.2456
1003.00,0.2404
1002.75,0.2351
1002.50,0.2298
1002.25,0.2245
1002.00,0.2195
1001.75,0.2147
1001.50,0.2101
1001.25,0.2057
1001.00,0.2015
1000.75,0.1975
1000.50,0.1936
1000.25,0.1895
1000.00,0.1855
999.75,0.1813
999.50,0.1771
999.25,0.1730
999.00,0.1691
998.75,0.1653
998.50,0.1616
998.25,0.1580
998.00,0.1544
997.75,0.1510
997.50,0.1478
997.25,0.1448
997.00,0.1421
996.75,0.1394
996.50,0.1368
996.25,0.1342
996.00,0.1314
995.75,0.1285
995.50,0.1255
995.25,0.1226
995.00,0.1200
994.75,0.1178
994.50,0.1157
994.25,0.1137
994.00,0.1116
993.75,0.1095
993.50,0.1074
993.25,0.1054
993.00,0.1035
992.75,0.1015
992.50,0.0995
992.25,0.0975
992.00,0.0955
991.75,0.0937
991.50,0.0920
991.25,0.0905
991.00,0.0891
990.75,0.0878
990.50,0.0864
990.25,0.0849
990.00,0.0834
989.75,0.0819
989.50,0.0805
989.25,0.0792
989.00,0.0779
988.75,0.0766
988.50,0.0754
988.25,0.0742
988.00,0.0731
987.75,0.0720
987.50,0.0708
987.25,0.0695
987.00,0.0683
986.75,0.0672
986.50,0.0662
986.25,0.0652
986.00,0.0643
985.75,0.0634
985.50,0.0624
985.25,0.0614
985.00,0.0606
984.75,0.0600
984.50,0.0595
984.25,0.0590
984.00,0.0584
983.75,0.0575
983.50,0.0564
983.25,0.0554
983.00,0.0544
982.75,0.0535
982.50,0.0527
982.25,0.0519
982.00,0.0513
981.75,0.0508
981.50,0.0505
981.25,0.0502
981.00,0.0500
980.75,0.0496
980.50,0.0490
980.25,0.0483
980.00,0.0474
979.75,0.0465
979.50,0.0457
979.25,0.0450
979.00,0.0446
978.75,0.0444
978.50,0.0442
978.25,0.0440
978.00,0.0437
977.75,0.0432
977.50,0.0426
977.25,0.0418
977.00,0.0411
976.75,0.0405
976.50,0.0400
976.25,0.0398
976.00,0.0397
975.75,0.0395
975.50,0.0391
975.25,0.0386
975.00,0.0381
974.75,0.0378
974.50,0.0375
974.25,0.0373
974.00,0.0372
973.75,0.0370
973.50,0.0367
973.25,0.0364
973.00,0.0361
972.75,0.0357
972.50,0.0353
972.25,0.0349
972.00,0.0345
971.75,0.0342
971.50,0.0339
971.25,0.0338
971.00,0.0336
970.75,0.0334
970.50,0.0331
970.25,0.0328
970.00,0.0326
969.75,0.0324
969.50,0.0323
969.25,0.0322
969.00,0.0321
968.75,0.0320
968.50,0.0318
968.25,0.0316
968.00,0.0314
967.75,0.0312
967.50,0.0311
967.25,0.0310
967.00,0.0308
966.75,0.0304
966.50,0.0299
966.25,0.0294
966.00,0.0291
965.75,0.0291
965.50,0.0291
965.25,0.0292
965.00,0.0292
964.75,0.0291
964.50,0.0289
964.25,0.0287
964.00,0.0286
963.75,0.0284
963.50,0.0283
963.25,0.0280
963.00,0.0277
962.75,0.0275
962.50,0.0273
962.25,0.0274
962.00,0.0274
961.75,0.0275
961.50,0.0275
961.25,0.0274
961.00,0.0273
960.75,0.0272
960.50,0.0272
960.25,0.0272
960.00,0.0272
959.75,0.0271
959.50,0.0269
959.25,0.0268
959.00,0.0266
958.75,0.0264
958.50,0.0262
958.25,0.0260
958.00,0.0259
957.75,0.0259
957.50,0.0260
957.25,0.0259
957.00,0.0259
956.75,0.0259
956.50,0.0261
956.25,0.0262
956.00,0.0262
955.75,0.0260
955.50,0.0258
955.25,0.0256
955.00,0.0255
954.75,0.0255
954.50,0.0255
954.25,0.0254
954.00,0.0252
953.75,0.0250
953.50,0.0247
953.25,0.0244
953.00,0.0241
952.75,0.0238
952.50,0.0236
952.25,0.0234
952.00,0.0233
951.75,0.0233
951.50,0.0231
951.25,0.0230
951.00,0.0227
950.75,0.0226
950.50,0.0226
950.25,0.0227
950.00,0.0228
949.75,0.0229
949.50,0.0230
949.25,0.0229
949.00,0.0228
948.75,0.0225
948.50,0.0223
948.25,0.0222
948.00,0.0221
947.75,0.0219
947.50,0.0217
947.25,0.0216
947.00,0.0215
946.75,0.0215
946.50,0.0215
946.25,0.0215
946.00,0.0215
945.75,0.0215
945.50,0.0215
945.25,0.0215
945.00,0.0213
944.75,0.0211
944.50,0.0208
944.25,0.0207
944.00,0.0206
943.75,0.0207
943.50,0.0208
943.25,0.0208
943.00,0.0207
942.75,0.0207
942.50,0.0207
942.25,0.0207
942.00,0.0208
941.75,0.0208
941.50,0.0209
941.25,0.0209
941.00,0.0208
940.75,0.0207
940.50,0.0206
940.25,0.0205
940.00,0.0205
939.75,0.0205
939.50,0.0204
939.25,0.0203
939.00,0.0203
938.75,0.0202
938.50,0.0202
938.25,0.0201
938.00,0.0201
937.75,0.0199
937.50,0.0198
937.25,0.0197
937.00,0.0197
936.75,0.0198
936.50,0.0199
936.25,0.0200
936.00,0.0201
935.75,0.0201
935.50,0.0200
935.25,0.0200
935.00,0.0200
934.75,0.0201
934.50,0.0203
934.25,0.0205
934.00,0.0207
933.75,0.0208
933.50,0.0209
933.25,0.0208
933.00,0.0207
932.75,0.0205
932.50,0.0205
932.25,0.0206
932.00,0.0208
931.75,0.0210
931.50,0.0211
931.25,0.0212
931.00,0.0212
930.75,0.0213
930.50,0.0214
930.25,0.0215
930.00,0.0217
929.75,0.0219
929.50,0.0221
929.25,0.0223
929.00,0.0224
928.75,0.0222
928.50,0.0220
928.25,0.0218
928.00,0.0218
927.75,0.0218
927.50,0.0218
927.25,0.0220
927.00,0.0221
926.75,0.0224
926.50,0.0226
926.25,0.0228
926.00,0.0229
925.75,0.0229
925.50,0.0229
925.25,0.0229
925.00,0.0231
924.75,0.0234
924.50,0.0238
924.25,0.0239
924.00,0.0238
923.75,0.0234
923.50,0.0231
923.25,0.0229
923.00,0.0229
922.75,0.0232
922.50,0.0236
922.25,0.0241
922.00,0.0246
921.75,0.0250
921.50,0.0253
921.25,0.0255
921.00,0.0256
920.75,0.0257
920.50,0.0257
920.25,0.0259
920.00,0.0263
919.75,0.0268
919.50,0.0273
919.25,0.0278
919.00,0.0280
918.75,0.0281
918.50,0.0281
918.25,0.0282
918.00,0.0284
917.75,0.0287
917.50,0.0291
917.25,0.0296
917.00,0.0300
916.75,0.0303
916.50,0.0305
916.25,0.0307
916.00,0.0309
915.75,0.0311
915.50,0.0312
915.25,0.0313
915.00,0.0314
914.75,0.0315
914.50,0.0317
914.25,0.0318
914.00,0.0320
913.75,0.0323
913.50,0.0326
913.25,0.0330
913.00,0.0333
912.75,0.0336
912.50,0.0338
912.25,0.0340
912.00,0.0340
911.75,0.0338
911.50,0.0336
911.25,0.0334
911.00,0.0332
910.75,0.0331
910.50,0.0330
910.25,0.0329
910.00,0.0329
909.75,0.0329
909.50,0.0330
909.25,0.0331
909.00,0.0330
908.75,0.0328
908.50,0.0326
908.25,0.0324
908.00,0.0323
907.75,0.0322
907.50,0.0321
907.25,0.0320
907.00,0.0318
906.75,0.0317
906.50,0.0315
906.25,0.0314
906.00,0.0313
905.75,0.0310
905.50,0.0307
905.25,0.0304
905.00,0.0300
904.75,0.0299
904.50,0.0299
904.25,0.0299
904.00,0.0300
903.75,0.0301
903.50,0.0301
903.25,0.0302
903.00,0.0302
902.75,0.0303
902.50,0.0304
902.25,0.0304
902.00,0.0303
901.75,0.0302
901.50,0.0302
901.25,0.0302
901.00,0.0303
900.75,0.0303
900.50,0.0304
900.25,0.0304
900.00,0.0305
899.75,0.0306
899.50,0.0306
899.25,0.0306
899.00,0.0307
898.75,0.0310
898.50,0.0313
898.25,0.0316
898.00,0.0318
897.75,0.0319
897.50,0.0318
897.25,0.0318
897.00,0.0317
896.75,0.0316
896.50,0.0318
896.25,0.0321
896.00,0.0324
895.75,0.0328
895.50,0.0330
895.25,0.0333
895.00,0.0337
894.75,0.0341
894.50,0.0344
894.25,0.0346
894.00,0.0348
893.75,0.0351
893.50,0.0355
893.25,0.0358
893.00,0.0358
892.75,0.0357
892.50,0.0356
892.25,0.0354
892.00,0.0355
891.75,0.0357
891.50,0.0361
891.25,0.0366
891.00,0.0370
890.75,0.0374
890.50,0.0376
890.25,0.0376
890.00,0.0376
889.75,0.0376
889.50,0.0377
889.25,0.0382
889.00,0.0388
888.75,0.0395
888.50,0.0402
888.25,0.0407
888.00,0.0410
887.75,0.0412
887.50,0.0415
887.25,0.0419
887.00,0.0424
886.75,0.0429
886.50,0.0432
886.25,0.0435
886.00,0.0438
885.75,0.0440
885.50,0.0444
885.25,0.0449
885.00,0.0456
884.75,0.0464
884.50,0.0471
884.25,0.0478
884.00,0.0483
883.75,0.0485
883.50,0.0488
883.25,0.0491
883.00,0.0495
882.75,0.0499
882.50,0.0505
882.25,0.0513
882.00,0.0522
881.75,0.0532
881.50,0.0540
881.25,0.0545
881.00,0.0549
880.75,0.0553
880.50,0.0558
880.25,0.0565
880.00,0.0572
879.75,0.0580
879.50,0.0587
879.25,0.0595
879.00,0.0601
878.75,0.0608
878.50,0.0614
878.25,0.0622
878.00,0.0631
877.75,0.0641
877.50,0.0652
877.25,0.0662
877.00,0.0671
876.75,0.0680
876.50,0.0688
876.25,0.0695
876.00,0.0702
875.75,0.0710
875.50,0.0721
875.25,0.0733
875.00,0.0746
874.75,0.0758
874.50,0.0768
874.25,0.0778
874.00,0.0788
873.75,0.0799
873.50,0.0810
873.25,0.0820
873.00,0.0831
872.75,0.0843
872.50,0.0856
872.25,0.0869
872.00,0.0880
871.75,0.0892
871.50,0.0904
871.25,0.0917
871.00,0.0931
870.75,0.0946
870.50,0.0959
870.25,0.0971
870.00,0.0983
869.75,0.0993
869.50,0.1004
869.25,0.1015
869.00,0.1026
868.75,0.1038
868.50,0.1051
868.25,0.1063
868.00,0.1076
867.75,0.1089
867.50,0.1099
867.25,0.1107
867.00,0.1113
866.75,0.1117
866.50,0.1120
866.25,0.1123
866.00,0.1126
865.75,0.1127
865.50,0.1129
865.25,0.1130
865.00,0.1134
864.75,0.1139
864.50,0.1144
864.25,0.1149
864.00,0.1152
863.75,0.1152
863.50,0.1150
863.25,0.1147
863.00,0.1142
862.75,0.1137
862.50,0.1133
862.25,0.1129
862.00,0.1125
861.75,0.1119
861.50,0.1112
861.25,0.1105
861.00,0.1097
860.75,0.1092
860.50,0.1088
860.25,0.1086
860.00,0.1083
859.75,0.1079
859.50,0.1073
859.25,0.1065
859.00,0.1059
858.75,0.1054
858.50,0.1052
858.25,0.1051
858.00,0.1050
857.75,0.1049
857.50,0.1045
857.25,0.1041
857.00,0.1037
856.75,0.1034
856.50,0.1032
856.25,0.1032
856.00,0.1034
855.75,0.1038
855.50,0.1043
855.25,0.1049
855.00,0.1054
854.75,0.1057
854.50,0.1058
854.25,0.1059
854.00,0.1060
853.75,0.1063
853.50,0.1068
853.25,0.1075
853.00,0.1082
852.75,0.1089
852.50,0.1094
852.25,0.1098
852.00,0.1102
851.75,0.1109
851.50,0.1120
851.25,0.1133
851.00,0.1147
850.75,0.1161
850.50,0.1173
850.25,0.1185
850.00,0.1196
849.75,0.1205
849.50,0.1214
849.25,0.1224
849.00,0.1235
848.75,0.1248
848.50,0.1262
848.25,0.1275
848.00,0.1287
847.75,0.1298
847.50,0.1310
847.25,0.1322
847.00,0.1335
846.75,0.1348
846.50,0.1360
846.25,0.1374
846.00,0.1389
845.75,0.1403
845.50,0.1412
845.25,0.1415
845.00,0.1411
844.75,0.1406
844.50,0.1403
844.25,0.1406
844.00,0.1415
843.75,0.1424
843.50,0.1430
843.25,0.1431
843.00,0.1426
842.75,0.1420
842.50,0.1412
842.25,0.1407
842.00,0.1403
841.75,0.1400
841.50,0.1396
841.25,0.1391
841.00,0.1385
840.75,0.1378
840.50,0.1370
840.25,0.1363
840.00,0.1355
839.75,0.1346
839.50,0.1335
839.25,0.1324
839.00,0.1314
838.75,0.1305
838.50,0.1295
838.25,0.1285
838.00,0.1272
837.75,0.1256
837.50,0.1240
837.25,0.1224
837.00,0.1210
836.75,0.1200
836.50,0.1192
836.25,0.1186
836.00,0.1178
835.75,0.1169
835.50,0.1159
835.25,0.1149
835.00,0.1140
834.75,0.1134
834.50,0.1128
834.25,0.1122
834.00,0.1113
833.75,0.1104
833.50,0.1095
833.25,0.1089
833.00,0.1087
832.75,0.1086
832.50,0.1087
832.25,0.1087
832.00,0.1086
831.75,0.1086
831.50,0.1085
831.25,0.1083
831.00,0.1080
830.75,0.1077
830.50,0.1077
830.25,0.1082
830.00,0.1090
829.75,0.1099
829.50,0.1107
829.25,0.1114
829.00,0.1119
828.75,0.1125
828.50,0.1132
828.25,0.1140
828.00,0.1149
827.75,0.1161
827.50,0.1174
827.25,0.1188
827.00,0.1201
826.75,0.1212
826.50,0.1221
826.25,0.1230
826.00,0.1241
825.75,0.1255
825.50,0.1272
825.25,0.1289
825.00,0.1306
824.75,0.1325
824.50,0.1346
824.25,0.1371
824.00,0.1396
823.75,0.1422
823.50,0.1444
823.25,0.1464
823.00,0.1482
822.75,0.1499
822.50,0.1518
822.25,0.1539
822.00,0.1562
821.75,0.1584
821.50,0.1605
821.25,0.1624
821.00,0.1643
820.75,0.1664
820.50,0.1687
820.25,0.1710
820.00,0.1731
819.75,0.1748
819.50,0.1759
819.25,0.1769
819.00,0.1779
818.75,0.1792
818.50,0.1808
818.25,0.1826
818.00,0.1845
817.75,0.1861
817.50,0.1876
817.25,0.1889
817.00,0.1901
816.75,0.1912
816.50,0.1924
816.25,0.1937
816.00,0.1949
815.75,0.1962
815.50,0.1975
815.25,0.1989
815.00,0.2004
814.75,0.2018
814.50,0.2031
814.25,0.2042
814.00,0.2052
813.75,0.2061
813.50,0.2072
813.25,0.2084
813.00,0.2098
812.75,0.2113
812.50,0.2129
812.25,0.2147
812.00,0.2166
811.75,0.2186
811.50,0.2208
811.25,0.2231
811.00,0.2251
810.75,0.2270
810.50,0.2289
810.25,0.2309
810.00,0.2331
809.75,0.2354
809.50,0.2377
809.25,0.2400
809.00,0.2425
808.75,0.2453
808.50,0.2484
808.25,0.2516
808.00,0.2548
807.75,0.2580
807.50,0.2614
807.25,0.2649
807.00,0.2685
806.75,0.2719
806.50,0.2753
806.25,0.2788
806.00,0.2823
805.75,0.2858
805.50,0.2894
805.25,0.2932
805.00,0.2972
804.75,0.3015
804.50,0.3060
804.25,0.3104
804.00,0.3147
803.75,0.3189
803.50,0.3231
803.25,0.3274
803.00,0.3317
802.75,0.3358
802.50,0.3396
802.25,0.3432
802.00,0.3470
801.75,0.3512
801.50,0.3559
801.25,0.3611
801.00,0.3665
800.75,0.3718
800.50,0.3765
800.25,0.3807
800.00,0.3848
