Created as New Dataset,Sample 033 By irlear Date Thursday, January 01 2009
cm-1,A
4000.00,0.0063
3999.75,0.0063
3999.50,0.0062
3999.25,0.0061
3999.00,0.0059
3998.75,0.0058
3998.50,0.0058
3998.25,0.0058
3998.00,0.0059
3997.75,0.0061
3997.50,0.0062
3997.25,0.0063
3997.00,0.0063
3996.75,0.0063
3996.50,0.0063
3996.25,0.0063
3996.00,0.0064
3995.75,0.0064
3995.50,0.0064
3995.25,0.0063
3995.00,0.0062
3994.75,0.0062
3994.50,0.0063
3994.25,0.0063
3994.00,0.0064
3993.75,0.0063
3993.50,0.0062
3993.25,0.0061
3993.00,0.0060
3992.75,0.0060
3992.50,0.0061
3992.25,0.0061
3992.00,0.0061
3991.75,0.0061
3991.50,0.0061
3991.25,0.0061
3991.00,0.0061
3990.75,0.0061
3990.50,0.0061
3990.25,0.0061
3990.00,0.0061
3989.75,0.0062
3989.50,0.0062
3989.25,0.0062
3989.00,0.0062
3988.75,0.0061
3988.50,0.0060
3988.25,0.0059
3988.00,0.0059
3987.75,0.0059
3987.50,0.0060
3987.25,0.0061
3987.00,0.0062
3986.75,0.0062
3986.50,0.0063
3986.25,0.0063
3986.00,0.0064
3985.75,0.0064
3985.50,0.0063
3985.25,0.0062
3985.00,0.0062
3984.75,0.0063
3984.50,0.0064
3984.25,0.0065
3984.00,0.0067
3983.75,0.0068
3983.50,0.0068
3983.25,0.0068
3983.00,0.0066
3982.75,0.0065
3982.50,0.0063
3982.25,0.0061
3982.00,0.0060
3981.75,0.0059
3981.50,0.0059
3981.25,0.0058
3981.00,0.0058
3980.75,0.0057
3980.50,0.0056
3980.25,0.0057
3980.00,0.0057
3979.75,0.0058
3979.50,0.0059
3979.25,0.0061
3979.00,0.0062
3978.75,0.0062
3978.50,0.0061
3978.25,0.0061
3978.00,0.0060
3977.75,0.0060
3977.50,0.0060
3977.25,0.0060
3977.00,0.0060
3976.75,0.0060
3976.50,0.0060
3976.25,0.0061
3976.00,0.0062
3975.75,0.0062
3975.50,0.0061
3975.25,0.0059
3975.00,0.0058
3974.75,0.0056
3974.50,0.0056
3974.25,0.0056
3974.00,0.0057
3973.75,0.0057
3973.50,0.0058
3973.25,0.0059
3973.00,0.0060
3972.75,0.0061
3972.50,0.0062
3972.25,0.0063
3972.00,0.0063
3971.75,0.0063
3971.50,0.0062
3971.25,0.0061
3971.00,0.0061
3970.75,0.0061
3970.50,0.0061
3970.25,0.0062
3970.00,0.0062
3969.75,0.0063
3969.50,0.0063
3969.25,0.0062
3969.00,0.0062
3968.75,0.0061
3968.50,0.0061
3968.25,0.0061
3968.00,0.0061
3967.75,0.0061
3967.50,0.0061
3967.25,0.0061
3967.00,0.0061
3966.75,0.0062
3966.50,0.0063
3966.25,0.0064
3966.00,0.0064
3965.75,0.0064
3965.50,0.0064
3965.25,0.0064
3965.00,0.0063
3964.75,0.0061
3964.50,0.0060
3964.25,0.0059
3964.00,0.0059
3963.75,0.0059
3963.50,0.0059
3963.25,0.0059
3963.00,0.0060
3962.75,0.0060
3962.50,0.0060
3962.25,0.0060
3962.00,0.0061
3961.75,0.0061
3961.50,0.0060
3961.25,0.0059
3961.00,0.0058
3960.75,0.0058
3960.50,0.0059
3960.25,0.0060
3960.00,0.0061
3959.75,0.0062
3959.50,0.0061
3959.25,0.0061
3959.00,0.0060
3958.75,0.0061
3958.50,0.0062
3958.25,0.0063
3958.00,0.0063
3957.75,0.0063
3957.50,0.0062
3957.25,0.0060
3957.00,0.0059
3956.75,0.0060
3956.50,0.0061
3956.25,0.0062
3956.00,0.0062
3955.75,0.0062
3955.50,0.0061
3955.25,0.0061
3955.00,0.0060
3954.75,0.0060
3954.50,0.0060
3954.25,0.0060
3954.00,0.0061
3953.75,0.0062
3953.50,0.0062
3953.25,0.0063
3953.00,0.0063
3952.75,0.0062
3952.50,0.0062
3952.25,0.0061
3952.00,0.0060
3951.75,0.0059
3951.50,0.0059
3951.25,0.0059
3951.00,0.0060
3950.75,0.0061
3950.50,0.0061
3950.25,0.0061
3950.00,0.0061
3949.75,0.0061
3949.50,0.0060
3949.25,0.0059
3949.00,0.0058
3948.75,0.0058
3948.50,0.0058
3948.25,0.0059
3948.00,0.0059
3947.75,0.0059
3947.50,0.0059
3947.25,0.0059
3947.00,0.0059
3946.75,0.0059
3946.50,0.0058
3946.25,0.0057
3946.00,0.0057
3945.75,0.0057
3945.50,0.0057
3945.25,0.0058
3945.00,0.0059
3944.75,0.0061
3944.50,0.0063
3944.25,0.0064
3944.00,0.0063
3943.75,0.0061
3943.50,0.0059
3943.25,0.0058
3943.00,0.0058
3942.75,0.0059
3942.50,0.0061
3942.25,0.0061
3942.00,0.0060
3941.75,0.0059
3941.50,0.0059
3941.25,0.0059
3941.00,0.0060
3940.75,0.0062
3940.50,0.0063
3940.25,0.0063
3940.00,0.0063
3939.75,0.0062
3939.50,0.0061
3939.25,0.0060
3939.00,0.0060
3938.75,0.0060
3938.50,0.0060
3938.25,0.0060
3938.00,0.0059
3937.75,0.0058
3937.50,0.0057
3937.25,0.0057
3937.00,0.0056
3936.75,0.0056
3936.50,0.0056
3936.25,0.0056
3936.00,0.0057
3935.75,0.0058
3935.50,0.0059
3935.25,0.0059
3935.00,0.0060
3934.75,0.0060
3934.50,0.0061
3934.25,0.0061
3934.00,0.0062
3933.75,0.0061
3933.50,0.0060
3933.25,0.0058
3933.00,0.0056
3932.75,0.0056
3932.50,0.0056
3932.25,0.0058
3932.00,0.0059
3931.75,0.0060
3931.50,0.0060
3931.25,0.0061
3931.00,0.0061
3930.75,0.0061
3930.50,0.0061
3930.25,0.0061
3930.00,0.0060
3929.75,0.0059
3929.50,0.0059
3929.25,0.0059
3929.00,0.0059
3928.75,0.0060
3928.50,0.0060
3928.25,0.0060
3928.00,0.0061
3927.75,0.0063
3927.50,0.0064
3927.25,0.0064
3927.00,0.0063
3926.75,0.0061
3926.50,0.0059
3926.25,0.0057
3926.00,0.0057
3925.75,0.0057
3925.50,0.0058
3925.25,0.0060
3925.00,0.0061
3924.75,0.0062
3924.50,0.0062
3924.25,0.0061
3924.00,0.0060
3923.75,0.0059
3923.50,0.0060
3923.25,0.0060
3923.00,0.0061
3922.75,0.0061
3922.50,0.0061
3922.25,0.0062
3922.00,0.0062
3921.75,0.0063
3921.50,0.0063
3921.25,0.0062
3921.00,0.0061
3920.75,0.0060
3920.50,0.0059
3920.25,0.0058
3920.00,0.0057
3919.75,0.0057
3919.50,0.0056
3919.25,0.0055
3919.00,0.0055
3918.75,0.0055
3918.50,0.0056
3918.25,0.0057
3918.00,0.0058
3917.75,0.0058
3917.50,0.0057
3917.25,0.0057
3917.00,0.0057
3916.75,0.0057
3916.50,0.0058
3916.25,0.0058
3916.00,0.0059
3915.75,0.0061
3915.50,0.0062
3915.25,0.0063
3915.00,0.0064
3914.75,0.0063
3914.50,0.0063
3914.25,0.0063
3914.00,0.0063
3913.75,0.0063
3913.50,0.0062
3913.25,0.0061
3913.00,0.0060
3912.75,0.0059
3912.50,0.0059
3912.25,0.0059
3912.00,0.0059
3911.75,0.0059
3911.50,0.0060
3911.25,0.0061
3911.00,0.0062
3910.75,0.0062
3910.50,0.0062
3910.25,0.0062
3910.00,0.0062
3909.75,0.0061
3909.50,0.0060
3909.25,0.0060
3909.00,0.0059
3908.75,0.0059
3908.50,0.0059
3908.25,0.0059
3908.00,0.0059
3907.75,0.0059
3907.50,0.0058
3907.25,0.0058
3907.00,0.0058
3906.75,0.0058
3906.50,0.0059
3906.25,0.0059
3906.00,0.0060
3905.75,0.0061
3905.50,0.0061
3905.25,0.0059
3905.00,0.0057
3904.75,0.0053
3904.50,0.0048
3904.25,0.0045
3904.00,0.0045
3903.75,0.0046
3903.50,0.0048
3903.25,0.0050
3903.00,0.0052
3902.75,0.0053
3902.50,0.0053
3902.25,0.0052
3902.00,0.0051
3901.75,0.0050
3901.50,0.0047
3901.25,0.0046
3901.00,0.0048
3900.75,0.0050
3900.50,0.0053
3900.25,0.0056
3900.00,0.0057
3899.75,0.0056
3899.50,0.0055
3899.25,0.0054
3899.00,0.0053
3898.75,0.0052
3898.50,0.0052
3898.25,0.0053
3898.00,0.0054
3897.75,0.0056
3897.50,0.0058
3897.25,0.0060
3897.00,0.0061
3896.75,0.0062
3896.50,0.0062
3896.25,0.0062
3896.00,0.0062
3895.75,0.0062
3895.50,0.0062
3895.25,0.0061
3895.00,0.0060
3894.75,0.0058
3894.50,0.0056
3894.25,0.0055
3894.00,0.0055
3893.75,0.0055
3893.50,0.0056
3893.25,0.0056
3893.00,0.0057
3892.75,0.0058
3892.50,0.0060
3892.25,0.0062
3892.00,0.0063
3891.75,0.0063
3891.50,0.0060
3891.25,0.0057
3891.00,0.0054
3890.75,0.0051
3890.50,0.0050
3890.25,0.0050
3890.00,0.0051
3889.75,0.0052
3889.50,0.0055
3889.25,0.0058
3889.00,0.0061
3888.75,0.0063
3888.50,0.0063
3888.25,0.0062
3888.00,0.0061
3887.75,0.0060
3887.50,0.0060
3887.25,0.0060
3887.00,0.0060
3886.75,0.0060
3886.50,0.0060
3886.25,0.0058
3886.00,0.0055
3885.75,0.0054
3885.50,0.0053
3885.25,0.0052
3885.00,0.0052
3884.75,0.0053
3884.50,0.0054
3884.25,0.0056
3884.00,0.0058
3883.75,0.0059
3883.50,0.0060
3883.25,0.0060
3883.00,0.0060
3882.75,0.0059
3882.50,0.0058
3882.25,0.0058
3882.00,0.0057
3881.75,0.0056
3881.50,0.0057
3881.25,0.0057
3881.00,0.0058
3880.75,0.0057
3880.50,0.0056
3880.25,0.0054
3880.00,0.0052
3879.75,0.0051
3879.50,0.0050
3879.25,0.0050
3879.00,0.0051
3878.75,0.0053
3878.50,0.0055
3878.25,0.0058
3878.00,0.0060
3877.75,0.0061
3877.50,0.0061
3877.25,0.0061
3877.00,0.0061
3876.75,0.0061
3876.50,0.0061
3876.25,0.0061
3876.00,0.0062
3875.75,0.0062
3875.50,0.0062
3875.25,0.0062
3875.00,0.0060
3874.75,0.0057
3874.50,0.0055
3874.25,0.0056
3874.00,0.0057
3873.75,0.0057
3873.50,0.0054
3873.25,0.0051
3873.00,0.0049
3872.75,0.0049
3872.50,0.0049
3872.25,0.0051
3872.00,0.0054
3871.75,0.0057
3871.50,0.0059
3871.25,0.0060
3871.00,0.0061
3870.75,0.0061
3870.50,0.0059
3870.25,0.0057
3870.00,0.0056
3869.75,0.0056
3869.50,0.0054
3869.25,0.0052
3869.00,0.0050
3868.75,0.0049
3868.50,0.0050
3868.25,0.0051
3868.00,0.0052
3867.75,0.0053
3867.50,0.0055
3867.25,0.0056
3867.00,0.0056
3866.75,0.0055
3866.50,0.0055
3866.25,0.0056
3866.00,0.0056
3865.75,0.0054
3865.50,0.0051
3865.25,0.0048
3865.00,0.0047
3864.75,0.0050
3864.50,0.0052
3864.25,0.0054
3864.00,0.0055
3863.75,0.0056
3863.50,0.0057
3863.25,0.0059
3863.00,0.0061
3862.75,0.0062
3862.50,0.0062
3862.25,0.0061
3862.00,0.0058
3861.75,0.0057
3861.50,0.0058
3861.25,0.0058
3861.00,0.0058
3860.75,0.0056
3860.50,0.0054
3860.25,0.0052
3860.00,0.0052
3859.75,0.0053
3859.50,0.0054
3859.25,0.0056
3859.00,0.0057
3858.75,0.0058
3858.50,0.0059
3858.25,0.0059
3858.00,0.0058
3857.75,0.0057
3857.50,0.0057
3857.25,0.0057
3857.00,0.0058
3856.75,0.0058
3856.50,0.0058
3856.25,0.0056
3856.00,0.0055
3855.75,0.0055
3855.50,0.0056
3855.25,0.0057
3855.00,0.0059
3854.75,0.0058
3854.50,0.0056
3854.25,0.0057
3854.00,0.0067
3853.75,0.0064
3853.50,0.0053
3853.25,0.0047
3853.00,0.0046
3852.75,0.0043
3852.50,0.0039
3852.25,0.0036
3852.00,0.0036
3851.75,0.0038
3851.50,0.0041
3851.25,0.0043
3851.00,0.0046
3850.75,0.0048
3850.50,0.0050
3850.25,0.0053
3850.00,0.0056
3849.75,0.0058
3849.50,0.0060
3849.25,0.0061
3849.00,0.0062
3848.75,0.0061
3848.50,0.0061
3848.25,0.0062
3848.00,0.0064
3847.75,0.0065
3847.50,0.0066
3847.25,0.0065
3847.00,0.0064
3846.75,0.0062
3846.50,0.0060
3846.25,0.0059
3846.00,0.0059
3845.75,0.0060
3845.50,0.0061
3845.25,0.0061
3845.00,0.0061
3844.75,0.0060
3844.50,0.0059
3844.25,0.0057
3844.00,0.0056
3843.75,0.0056
3843.50,0.0056
3843.25,0.0055
3843.00,0.0053
3842.75,0.0052
3842.50,0.0053
3842.25,0.0054
3842.00,0.0057
3841.75,0.0058
3841.50,0.0058
3841.25,0.0056
3841.00,0.0053
3840.75,0.0050
3840.50,0.0048
3840.25,0.0048
3840.00,0.0048
3839.75,0.0049
3839.50,0.0051
3839.25,0.0052
3839.00,0.0053
3838.75,0.0054
3838.50,0.0053
3838.25,0.0050
3838.00,0.0049
3837.75,0.0049
3837.50,0.0048
3837.25,0.0047
3837.00,0.0047
3836.75,0.0048
3836.50,0.0049
3836.25,0.0049
3836.00,0.0050
3835.75,0.0051
3835.50,0.0050
3835.25,0.0048
3835.00,0.0048
3834.75,0.0048
3834.50,0.0050
3834.25,0.0050
3834.00,0.0050
3833.75,0.0051
3833.50,0.0051
3833.25,0.0051
3833.00,0.0053
3832.75,0.0055
3832.50,0.0056
3832.25,0.0056
3832.00,0.0056
3831.75,0.0057
3831.50,0.0059
3831.25,0.0062
3831.00,0.0062
3830.75,0.0062
3830.50,0.0060
3830.25,0.0059
3830.00,0.0058
3829.75,0.0059
3829.50,0.0059
3829.25,0.0060
3829.00,0.0060
3828.75,0.0060
3828.50,0.0061
3828.25,0.0061
3828.00,0.0061
3827.75,0.0062
3827.50,0.0062
3827.25,0.0063
3827.00,0.0064
3826.75,0.0065
3826.50,0.0064
3826.25,0.0061
3826.00,0.0058
3825.75,0.0055
3825.50,0.0054
3825.25,0.0055
3825.00,0.0058
3824.75,0.0061
3824.50,0.0063
3824.25,0.0064
3824.00,0.0064
3823.75,0.0063
3823.50,0.0061
3823.25,0.0060
3823.00,0.0061
3822.75,0.0061
3822.50,0.0061
3822.25,0.0058
3822.00,0.0055
3821.75,0.0052
3821.50,0.0052
3821.25,0.0050
3821.00,0.0045
3820.75,0.0042
3820.50,0.0042
3820.25,0.0045
3820.00,0.0049
3819.75,0.0051
3819.50,0.0053
3819.25,0.0053
3819.00,0.0054
3818.75,0.0056
3818.50,0.0058
3818.25,0.0060
3818.00,0.0062
3817.75,0.0062
3817.50,0.0063
3817.25,0.0063
3817.00,0.0064
3816.75,0.0064
3816.50,0.0062
3816.25,0.0060
3816.00,0.0060
3815.75,0.0059
3815.50,0.0056
3815.25,0.0055
3815.00,0.0055
3814.75,0.0056
3814.50,0.0057
3814.25,0.0058
3814.00,0.0060
3813.75,0.0061
3813.50,0.0062
3813.25,0.0062
3813.00,0.0063
3812.75,0.0063
3812.50,0.0063
3812.25,0.0063
3812.00,0.0063
3811.75,0.0062
3811.50,0.0061
3811.25,0.0061
3811.00,0.0061
3810.75,0.0061
3810.50,0.0061
3810.25,0.0062
3810.00,0.0062
3809.75,0.0062
3809.50,0.0062
3809.25,0.0062
3809.00,0.0061
3808.75,0.0061
3808.50,0.0060
3808.25,0.0061
3808.00,0.0061
3807.75,0.0062
3807.50,0.0061
3807.25,0.0060
3807.00,0.0060
3806.75,0.0060
3806.50,0.0057
3806.25,0.0055
3806.00,0.0054
3805.75,0.0054
3805.50,0.0055
3805.25,0.0057
3805.00,0.0058
3804.75,0.0059
3804.50,0.0059
3804.25,0.0058
3804.00,0.0056
3803.75,0.0055
3803.50,0.0053
3803.25,0.0053
3803.00,0.0054
3802.75,0.0055
3802.50,0.0056
3802.25,0.0055
3802.00,0.0051
3801.75,0.0045
3801.50,0.0042
3801.25,0.0046
3801.00,0.0051
3800.75,0.0053
3800.50,0.0052
3800.25,0.0051
3800.00,0.0050
3799.75,0.0050
3799.50,0.0051
3799.25,0.0053
3799.00,0.0055
3798.75,0.0057
3798.50,0.0059
3798.25,0.0059
3798.00,0.0060
3797.75,0.0061
3797.50,0.0062
3797.25,0.0062
3797.00,0.0061
3796.75,0.0059
3796.50,0.0059
3796.25,0.0060
3796.00,0.0061
3795.75,0.0060
3795.50,0.0059
3795.25,0.0058
3795.00,0.0059
3794.75,0.0061
3794.50,0.0062
3794.25,0.0063
3794.00,0.0064
3793.75,0.0063
3793.50,0.0063
3793.25,0.0062
3793.00,0.0062
3792.75,0.0061
3792.50,0.0062
3792.25,0.0062
3792.00,0.0062
3791.75,0.0062
3791.50,0.0061
3791.25,0.0060
3791.00,0.0060
3790.75,0.0061
3790.50,0.0063
3790.25,0.0064
3790.00,0.0064
3789.75,0.0064
3789.50,0.0063
3789.25,0.0062
3789.00,0.0061
3788.75,0.0061
3788.50,0.0061
3788.25,0.0062
3788.00,0.0063
3787.75,0.0065
3787.50,0.0066
3787.25,0.0066
3787.00,0.0066
3786.75,0.0066
3786.50,0.0066
3786.25,0.0065
3786.00,0.0065
3785.75,0.0064
3785.50,0.0063
3785.25,0.0062
3785.00,0.0062
3784.75,0.0062
3784.50,0.0063
3784.25,0.0064
3784.00,0.0063
3783.75,0.0062
3783.50,0.0061
3783.25,0.0060
3783.00,0.0059
3782.75,0.0059
3782.50,0.0060
3782.25,0.0061
3782.00,0.0063
3781.75,0.0064
3781.50,0.0065
3781.25,0.0066
3781.00,0.0066
3780.75,0.0065
3780.50,0.0064
3780.25,0.0062
3780.00,0.0059
3779.75,0.0056
3779.50,0.0055
3779.25,0.0055
3779.00,0.0054
3778.75,0.0055
3778.50,0.0056
3778.25,0.0058
3778.00,0.0061
3777.75,0.0062
3777.50,0.0063
3777.25,0.0063
3777.00,0.0063
3776.75,0.0063
3776.50,0.0063
3776.25,0.0063
3776.00,0.0064
3775.75,0.0064
3775.50,0.0065
3775.25,0.0065
3775.00,0.0065
3774.75,0.0065
3774.50,0.0064
3774.25,0.0063
3774.00,0.0061
3773.75,0.0060
3773.50,0.0060
3773.25,0.0061
3773.00,0.0062
3772.75,0.0064
3772.50,0.0065
3772.25,0.0066
3772.00,0.0066
3771.75,0.0067
3771.50,0.0066
3771.25,0.0066
3771.00,0.0065
3770.75,0.0063
3770.50,0.0061
3770.25,0.0058
3770.00,0.0056
3769.75,0.0057
3769.50,0.0057
3769.25,0.0056
3769.00,0.0055
3768.75,0.0055
3768.50,0.0056
3768.25,0.0057
3768.00,0.0060
3767.75,0.0062
3767.50,0.0063
3767.25,0.0063
3767.00,0.0063
3766.75,0.0062
3766.50,0.0062
3766.25,0.0061
3766.00,0.0061
3765.75,0.0061
3765.50,0.0060
3765.25,0.0059
3765.00,0.0057
3764.75,0.0057
3764.50,0.0058
3764.25,0.0059
3764.00,0.0061
3763.75,0.0063
3763.50,0.0064
3763.25,0.0065
3763.00,0.0066
3762.75,0.0067
3762.50,0.0067
3762.25,0.0066
3762.00,0.0065
3761.75,0.0064
3761.50,0.0063
3761.25,0.0063
3761.00,0.0063
3760.75,0.0064
3760.50,0.0062
3760.25,0.0060
3760.00,0.0056
3759.75,0.0054
3759.50,0.0054
3759.25,0.0055
3759.00,0.0055
3758.75,0.0056
3758.50,0.0057
3758.25,0.0058
3758.00,0.0060
3757.75,0.0061
3757.50,0.0063
3757.25,0.0064
3757.00,0.0064
3756.75,0.0064
3756.50,0.0064
3756.25,0.0062
3756.00,0.0060
3755.75,0.0059
3755.50,0.0058
3755.25,0.0059
3755.00,0.0060
3754.75,0.0060
3754.50,0.0061
3754.25,0.0061
3754.00,0.0061
3753.75,0.0062
3753.50,0.0062
3753.25,0.0061
3753.00,0.0060
3752.75,0.0058
3752.50,0.0057
3752.25,0.0059
3752.00,0.0062
3751.75,0.0059
3751.50,0.0054
3751.25,0.0051
3751.00,0.0050
3750.75,0.0050
3750.50,0.0052
3750.25,0.0055
3750.00,0.0058
3749.75,0.0060
3749.50,0.0062
3749.25,0.0063
3749.00,0.0057
3748.75,0.0052
3748.50,0.0051
3748.25,0.0052
3748.00,0.0052
3747.75,0.0053
3747.50,0.0054
3747.25,0.0056
3747.00,0.0057
3746.75,0.0058
3746.50,0.0058
3746.25,0.0058
3746.00,0.0059
3745.75,0.0059
3745.50,0.0059
3745.25,0.0056
3745.00,0.0050
3744.75,0.0040
3744.50,0.0033
3744.25,0.0022
3744.00,0.0014
3743.75,0.0021
3743.50,0.0032
3743.25,0.0041
3743.00,0.0047
3742.75,0.0052
3742.50,0.0055
3742.25,0.0058
3742.00,0.0059
3741.75,0.0059
3741.50,0.0060
3741.25,0.0062
3741.00,0.0066
3740.75,0.0068
3740.50,0.0068
3740.25,0.0066
3740.00,0.0064
3739.75,0.0063
3739.50,0.0063
3739.25,0.0064
3739.00,0.0064
3738.75,0.0063
3738.50,0.0062
3738.25,0.0062
3738.00,0.0063
3737.75,0.0063
3737.50,0.0063
3737.25,0.0061
3737.00,0.0058
3736.75,0.0056
3736.50,0.0056
3736.25,0.0055
3736.00,0.0053
3735.75,0.0048
3735.50,0.0042
3735.25,0.0038
3735.00,0.0040
3734.75,0.0045
3734.50,0.0050
3734.25,0.0052
3734.00,0.0054
3733.75,0.0055
3733.50,0.0056
3733.25,0.0059
3733.00,0.0061
3732.75,0.0063
3732.50,0.0064
3732.25,0.0066
3732.00,0.0066
3731.75,0.0064
3731.50,0.0059
3731.25,0.0057
3731.00,0.0056
3730.75,0.0056
3730.50,0.0057
3730.25,0.0058
3730.00,0.0060
3729.75,0.0060
3729.50,0.0061
3729.25,0.0062
3729.00,0.0062
3728.75,0.0062
3728.50,0.0063
3728.25,0.0064
3728.00,0.0065
3727.75,0.0065
3727.50,0.0065
3727.25,0.0065
3727.00,0.0064
3726.75,0.0063
3726.50,0.0062
3726.25,0.0060
3726.00,0.0059
3725.75,0.0059
3725.50,0.0059
3725.25,0.0060
3725.00,0.0061
3724.75,0.0062
3724.50,0.0064
3724.25,0.0064
3724.00,0.0064
3723.75,0.0064
3723.50,0.0065
3723.25,0.0066
3723.00,0.0068
3722.75,0.0068
3722.50,0.0068
3722.25,0.0066
3722.00,0.0064
3721.75,0.0062
3721.50,0.0061
3721.25,0.0061
3721.00,0.0060
3720.75,0.0060
3720.50,0.0061
3720.25,0.0062
3720.00,0.0064
3719.75,0.0064
3719.50,0.0063
3719.25,0.0061
3719.00,0.0059
3718.75,0.0058
3718.50,0.0057
3718.25,0.0056
3718.00,0.0057
3717.75,0.0060
3717.50,0.0062
3717.25,0.0065
3717.00,0.0066
3716.75,0.0067
3716.50,0.0067
3716.25,0.0067
3716.00,0.0067
3715.75,0.0066
3715.50,0.0066
3715.25,0.0065
3715.00,0.0066
3714.75,0.0067
3714.50,0.0067
3714.25,0.0065
3714.00,0.0063
3713.75,0.0060
3713.50,0.0059
3713.25,0.0059
3713.00,0.0059
3712.75,0.0058
3712.50,0.0057
3712.25,0.0059
3712.00,0.0064
3711.75,0.0064
3711.50,0.0061
3711.25,0.0058
3711.00,0.0057
3710.75,0.0058
3710.50,0.0061
3710.25,0.0064
3710.00,0.0065
3709.75,0.0063
3709.50,0.0060
3709.25,0.0058
3709.00,0.0058
3708.75,0.0059
3708.50,0.0061
3708.25,0.0064
3708.00,0.0066
3707.75,0.0068
3707.50,0.0068
3707.25,0.0068
3707.00,0.0067
3706.75,0.0067
3706.50,0.0067
3706.25,0.0068
3706.00,0.0069
3705.75,0.0069
3705.50,0.0069
3705.25,0.0070
3705.00,0.0070
3704.75,0.0071
3704.50,0.0070
3704.25,0.0068
3704.00,0.0066
3703.75,0.0066
3703.50,0.0067
3703.25,0.0068
3703.00,0.0069
3702.75,0.0069
3702.50,0.0066
3702.25,0.0062
3702.00,0.0058
3701.75,0.0055
3701.50,0.0054
3701.25,0.0053
3701.00,0.0054
3700.75,0.0056
3700.50,0.0059
3700.25,0.0061
3700.00,0.0064
3699.75,0.0066
3699.50,0.0068
3699.25,0.0068
3699.00,0.0068
3698.75,0.0067
3698.50,0.0067
3698.25,0.0066
3698.00,0.0066
3697.75,0.0065
3697.50,0.0064
3697.25,0.0063
3697.00,0.0063
3696.75,0.0063
3696.50,0.0064
3696.25,0.0065
3696.00,0.0066
3695.75,0.0066
3695.50,0.0065
3695.25,0.0063
3695.00,0.0062
3694.75,0.0062
3694.50,0.0063
3694.25,0.0064
3694.00,0.0065
3693.75,0.0066
3693.50,0.0066
3693.25,0.0065
3693.00,0.0063
3692.75,0.0062
3692.50,0.0062
3692.25,0.0063
3692.00,0.0064
3691.75,0.0064
3691.50,0.0062
3691.25,0.0061
3691.00,0.0062
3690.75,0.0062
3690.50,0.0059
3690.25,0.0055
3690.00,0.0052
3689.75,0.0050
3689.50,0.0050
3689.25,0.0049
3689.00,0.0047
3688.75,0.0045
3688.50,0.0045
3688.25,0.0049
3688.00,0.0052
3687.75,0.0053
3687.50,0.0055
3687.25,0.0056
3687.00,0.0058
3686.75,0.0061
3686.50,0.0063
3686.25,0.0065
3686.00,0.0065
3685.75,0.0064
3685.50,0.0064
3685.25,0.0064
3685.00,0.0065
3684.75,0.0066
3684.50,0.0067
3684.25,0.0067
3684.00,0.0066
3683.75,0.0065
3683.50,0.0064
3683.25,0.0065
3683.00,0.0066
3682.75,0.0068
3682.50,0.0069
3682.25,0.0070
3682.00,0.0070
3681.75,0.0069
3681.50,0.0067
3681.25,0.0065
3681.00,0.0064
3680.75,0.0064
3680.50,0.0064
3680.25,0.0064
3680.00,0.0062
3679.75,0.0060
3679.50,0.0059
3679.25,0.0059
3679.00,0.0060
3678.75,0.0060
3678.50,0.0060
3678.25,0.0060
3678.00,0.0059
3677.75,0.0058
3677.50,0.0058
3677.25,0.0059
3677.00,0.0060
3676.75,0.0059
3676.50,0.0056
3676.25,0.0051
3676.00,0.0049
3675.75,0.0052
3675.50,0.0057
3675.25,0.0056
3675.00,0.0052
3674.75,0.0047
3674.50,0.0045
3674.25,0.0047
3674.00,0.0051
3673.75,0.0054
3673.50,0.0056
3673.25,0.0058
3673.00,0.0059
3672.75,0.0058
3672.50,0.0057
3672.25,0.0056
3672.00,0.0056
3671.75,0.0058
3671.50,0.0060
3671.25,0.0059
3671.00,0.0058
3670.75,0.0058
3670.50,0.0060
3670.25,0.0060
3670.00,0.0059
3669.75,0.0056
3669.50,0.0054
3669.25,0.0051
3669.00,0.0050
3668.75,0.0051
3668.50,0.0051
3668.25,0.0051
3668.00,0.0052
3667.75,0.0055
3667.50,0.0058
3667.25,0.0061
3667.00,0.0064
3666.75,0.0066
3666.50,0.0066
3666.25,0.0066
3666.00,0.0066
3665.75,0.0067
3665.50,0.0070
3665.25,0.0072
3665.00,0.0073
3664.75,0.0073
3664.50,0.0071
3664.25,0.0069
3664.00,0.0066
3663.75,0.0065
3663.50,0.0064
3663.25,0.0063
3663.00,0.0063
3662.75,0.0063
3662.50,0.0063
3662.25,0.0062
3662.00,0.0062
3661.75,0.0063
3661.50,0.0064
3661.25,0.0065
3661.00,0.0066
3660.75,0.0067
3660.50,0.0068
3660.25,0.0069
3660.00,0.0069
3659.75,0.0068
3659.50,0.0068
3659.25,0.0067
3659.00,0.0067
3658.75,0.0067
3658.50,0.0066
3658.25,0.0064
3658.00,0.0062
3657.75,0.0060
3657.50,0.0060
3657.25,0.0060
3657.00,0.0060
3656.75,0.0058
3656.50,0.0056
3656.25,0.0054
3656.00,0.0055
3655.75,0.0057
3655.50,0.0061
3655.25,0.0064
3655.00,0.0066
3654.75,0.0067
3654.50,0.0067
3654.25,0.0066
3654.00,0.0065
3653.75,0.0064
3653.50,0.0064
3653.25,0.0064
3653.00,0.0065
3652.75,0.0064
3652.50,0.0064
3652.25,0.0061
3652.00,0.0058
3651.75,0.0054
3651.50,0.0050
3651.25,0.0049
3651.00,0.0050
3650.75,0.0052
3650.50,0.0053
3650.25,0.0052
3650.00,0.0050
3649.75,0.0045
3649.50,0.0040
3649.25,0.0039
3649.00,0.0044
3648.75,0.0050
3648.50,0.0054
3648.25,0.0054
3648.00,0.0051
3647.75,0.0048
3647.50,0.0046
3647.25,0.0048
3647.00,0.0051
3646.75,0.0052
3646.50,0.0054
3646.25,0.0057
3646.00,0.0060
3645.75,0.0062
3645.50,0.0064
3645.25,0.0065
3645.00,0.0066
3644.75,0.0066
3644.50,0.0067
3644.25,0.0067
3644.00,0.0067
3643.75,0.0067
3643.50,0.0067
3643.25,0.0067
3643.00,0.0067
3642.75,0.0068
3642.50,0.0068
3642.25,0.0068
3642.00,0.0066
3641.75,0.0064
3641.50,0.0063
3641.25,0.0062
3641.00,0.0061
3640.75,0.0060
3640.50,0.0059
3640.25,0.0060
3640.00,0.0061
3639.75,0.0064
3639.50,0.0065
3639.25,0.0067
3639.00,0.0067
3638.75,0.0068
3638.50,0.0070
3638.25,0.0072
3638.00,0.0075
3637.75,0.0076
3637.50,0.0075
3637.25,0.0072
3637.00,0.0070
3636.75,0.0067
3636.50,0.0066
3636.25,0.0066
3636.00,0.0066
3635.75,0.0066
3635.50,0.0067
3635.25,0.0068
3635.00,0.0067
3634.75,0.0066
3634.50,0.0065
3634.25,0.0065
3634.00,0.0066
3633.75,0.0068
3633.50,0.0069
3633.25,0.0067
3633.00,0.0066
3632.75,0.0065
3632.50,0.0065
3632.25,0.0066
3632.00,0.0067
3631.75,0.0069
3631.50,0.0069
3631.25,0.0070
3631.00,0.0070
3630.75,0.0070
3630.50,0.0070
3630.25,0.0068
3630.00,0.0063
3629.75,0.0058
3629.50,0.0054
3629.25,0.0052
3629.00,0.0047
3628.75,0.0039
3628.50,0.0031
3628.25,0.0029
3628.00,0.0034
3627.75,0.0044
3627.50,0.0052
3627.25,0.0058
3627.00,0.0062
3626.75,0.0063
3626.50,0.0065
3626.25,0.0065
3626.00,0.0065
3625.75,0.0064
3625.50,0.0063
3625.25,0.0062
3625.00,0.0062
3624.75,0.0062
3624.50,0.0063
3624.25,0.0065
3624.00,0.0067
3623.75,0.0069
3623.50,0.0071
3623.25,0.0071
3623.00,0.0071
3622.75,0.0070
3622.50,0.0068
3622.25,0.0067
3622.00,0.0066
3621.75,0.0066
3621.50,0.0066
3621.25,0.0066
3621.00,0.0066
3620.75,0.0065
3620.50,0.0063
3620.25,0.0059
3620.00,0.0054
3619.75,0.0050
3619.50,0.0051
3619.25,0.0055
3619.00,0.0061
3618.75,0.0064
3618.50,0.0066
3618.25,0.0065
3618.00,0.0064
3617.75,0.0063
3617.50,0.0063
3617.25,0.0063
3617.00,0.0063
3616.75,0.0063
3616.50,0.0063
3616.25,0.0064
3616.00,0.0065
3615.75,0.0067
3615.50,0.0070
3615.25,0.0073
3615.00,0.0074
3614.75,0.0072
3614.50,0.0070
3614.25,0.0067
3614.00,0.0065
3613.75,0.0065
3613.50,0.0064
3613.25,0.0062
3613.00,0.0060
3612.75,0.0059
3612.50,0.0058
3612.25,0.0059
3612.00,0.0059
3611.75,0.0060
3611.50,0.0061
3611.25,0.0062
3611.00,0.0062
3610.75,0.0061
3610.50,0.0061
3610.25,0.0061
3610.00,0.0060
3609.75,0.0058
3609.50,0.0057
3609.25,0.0058
3609.00,0.0062
3608.75,0.0065
3608.50,0.0067
3608.25,0.0067
3608.00,0.0065
3607.75,0.0063
3607.50,0.0061
3607.25,0.0062
3607.00,0.0064
3606.75,0.0065
3606.50,0.0063
3606.25,0.0061
3606.00,0.0060
3605.75,0.0060
3605.50,0.0061
3605.25,0.0063
3605.00,0.0066
3604.75,0.0068
3604.50,0.0069
3604.25,0.0070
3604.00,0.0070
3603.75,0.0069
3603.50,0.0069
3603.25,0.0068
3603.00,0.0068
3602.75,0.0067
3602.50,0.0066
3602.25,0.0064
3602.00,0.0063
3601.75,0.0063
3601.50,0.0064
3601.25,0.0066
3601.00,0.0067
3600.75,0.0067
3600.50,0.0066
3600.25,0.0065
3600.00,0.0065
3599.75,0.0066
3599.50,0.0068
3599.25,0.0070
3599.00,0.0072
3598.75,0.0072
3598.50,0.0072
3598.25,0.0071
3598.00,0.0069
3597.75,0.0067
3597.50,0.0066
3597.25,0.0065
3597.00,0.0064
3596.75,0.0063
3596.50,0.0063
3596.25,0.0063
3596.00,0.0063
3595.75,0.0062
3595.50,0.0060
3595.25,0.0060
3595.00,0.0061
3594.75,0.0062
3594.50,0.0064
3594.25,0.0065
3594.00,0.0065
3593.75,0.0064
3593.50,0.0062
3593.25,0.0062
3593.00,0.0063
3592.75,0.0063
3592.50,0.0064
3592.25,0.0064
3592.00,0.0065
3591.75,0.0065
3591.50,0.0066
3591.25,0.0067
3591.00,0.0068
3590.75,0.0070
3590.50,0.0071
3590.25,0.0071
3590.00,0.0070
3589.75,0.0069
3589.50,0.0068
3589.25,0.0066
3589.00,0.0065
3588.75,0.0064
3588.50,0.0062
3588.25,0.0060
3588.00,0.0057
3587.75,0.0055
3587.50,0.0054
3587.25,0.0054
3587.00,0.0056
3586.75,0.0058
3586.50,0.0060
3586.25,0.0059
3586.00,0.0058
3585.75,0.0059
3585.50,0.0061
3585.25,0.0063
3585.00,0.0065
3584.75,0.0065
3584.50,0.0064
3584.25,0.0063
3584.00,0.0064
3583.75,0.0066
3583.50,0.0069
3583.25,0.0071
3583.00,0.0071
3582.75,0.0070
3582.50,0.0069
3582.25,0.0068
3582.00,0.0068
3581.75,0.0068
3581.50,0.0068
3581.25,0.0067
3581.00,0.0066
3580.75,0.0065
3580.50,0.0065
3580.25,0.0066
3580.00,0.0067
3579.75,0.0068
3579.50,0.0069
3579.25,0.0068
3579.00,0.0067
3578.75,0.0065
3578.50,0.0064
3578.25,0.0064
3578.00,0.0064
3577.75,0.0066
3577.50,0.0068
3577.25,0.0070
3577.00,0.0072
3576.75,0.0072
3576.50,0.0071
3576.25,0.0069
3576.00,0.0067
3575.75,0.0066
3575.50,0.0066
3575.25,0.0067
3575.00,0.0068
3574.75,0.0069
3574.50,0.0071
3574.25,0.0072
3574.00,0.0073
3573.75,0.0073
3573.50,0.0071
3573.25,0.0069
3573.00,0.0067
3572.75,0.0066
3572.50,0.0065
3572.25,0.0065
3572.00,0.0066
3571.75,0.0067
3571.50,0.0067
3571.25,0.0068
3571.00,0.0068
3570.75,0.0068
3570.50,0.0068
3570.25,0.0067
3570.00,0.0067
3569.75,0.0067
3569.50,0.0068
3569.25,0.0068
3569.00,0.0066
3568.75,0.0064
3568.50,0.0061
3568.25,0.0060
3568.00,0.0058
3567.75,0.0055
3567.50,0.0053
3567.25,0.0053
3567.00,0.0055
3566.75,0.0059
3566.50,0.0065
3566.25,0.0069
3566.00,0.0071
3565.75,0.0069
3565.50,0.0066
3565.25,0.0064
3565.00,0.0063
3564.75,0.0063
3564.50,0.0063
3564.25,0.0064
3564.00,0.0064
3563.75,0.0065
3563.50,0.0066
3563.25,0.0066
3563.00,0.0066
3562.75,0.0066
3562.50,0.0066
3562.25,0.0065
3562.00,0.0065
3561.75,0.0065
3561.50,0.0066
3561.25,0.0068
3561.00,0.0070
3560.75,0.0071
3560.50,0.0072
3560.25,0.0072
3560.00,0.0071
3559.75,0.0070
3559.50,0.0069
3559.25,0.0068
3559.00,0.0069
3558.75,0.0069
3558.50,0.0070
3558.25,0.0069
3558.00,0.0068
3557.75,0.0068
3557.50,0.0067
3557.25,0.0066
3557.00,0.0066
3556.75,0.0066
3556.50,0.0066
3556.25,0.0066
3556.00,0.0066
3555.75,0.0067
3555.50,0.0068
3555.25,0.0068
3555.00,0.0067
3554.75,0.0066
3554.50,0.0065
3554.25,0.0066
3554.00,0.0066
3553.75,0.0067
3553.50,0.0068
3553.25,0.0068
3553.00,0.0067
3552.75,0.0067
3552.50,0.0067
3552.25,0.0067
3552.00,0.0067
3551.75,0.0065
3551.50,0.0063
3551.25,0.0062
3551.00,0.0061
3550.75,0.0060
3550.50,0.0061
3550.25,0.0062
3550.00,0.0064
3549.75,0.0066
3549.50,0.0067
3549.25,0.0068
3549.00,0.0068
3548.75,0.0067
3548.50,0.0067
3548.25,0.0068
3548.00,0.0069
3547.75,0.0069
3547.50,0.0068
3547.25,0.0065
3547.00,0.0062
3546.75,0.0060
3546.50,0.0060
3546.25,0.0061
3546.00,0.0063
3545.75,0.0066
3545.50,0.0068
3545.25,0.0070
3545.00,0.0071
3544.75,0.0071
3544.50,0.0069
3544.25,0.0068
3544.00,0.0067
3543.75,0.0066
3543.50,0.0066
3543.25,0.0065
3543.00,0.0065
3542.75,0.0064
3542.50,0.0064
3542.25,0.0064
3542.00,0.0064
3541.75,0.0064
3541.50,0.0065
3541.25,0.0066
3541.00,0.0067
3540.75,0.0068
3540.50,0.0069
3540.25,0.0069
3540.00,0.0069
3539.75,0.0068
3539.50,0.0066
3539.25,0.0065
3539.00,0.0064
3538.75,0.0064
3538.50,0.0065
3538.25,0.0065
3538.00,0.0066
3537.75,0.0066
3537.50,0.0067
3537.25,0.0067
3537.00,0.0068
3536.75,0.0068
3536.50,0.0068
3536.25,0.0067
3536.00,0.0066
3535.75,0.0064
3535.50,0.0062
3535.25,0.0061
3535.00,0.0061
3534.75,0.0062
3534.50,0.0064
3534.25,0.0066
3534.00,0.0068
3533.75,0.0070
3533.50,0.0071
3533.25,0.0071
3533.00,0.0071
3532.75,0.0071
3532.50,0.0071
3532.25,0.0071
3532.00,0.0070
3531.75,0.0069
3531.50,0.0069
3531.25,0.0069
3531.00,0.0069
3530.75,0.0069
3530.50,0.0069
3530.25,0.0068
3530.00,0.0068
3529.75,0.0068
3529.50,0.0068
3529.25,0.0067
3529.00,0.0066
3528.75,0.0065
3528.50,0.0063
3528.25,0.0061
3528.00,0.0061
3527.75,0.0062
3527.50,0.0065
3527.25,0.0067
3527.00,0.0069
3526.75,0.0070
3526.50,0.0069
3526.25,0.0067
3526.00,0.0066
3525.75,0.0065
3525.50,0.0065
3525.25,0.0066
3525.00,0.0066
3524.75,0.0067
3524.50,0.0068
3524.25,0.0068
3524.00,0.0069
3523.75,0.0068
3523.50,0.0068
3523.25,0.0068
3523.00,0.0068
3522.75,0.0067
3522.50,0.0067
3522.25,0.0067
3522.00,0.0067
3521.75,0.0068
3521.50,0.0068
3521.25,0.0069
3521.00,0.0069
3520.75,0.0069
3520.50,0.0068
3520.25,0.0067
3520.00,0.0065
3519.75,0.0063
3519.50,0.0061
3519.25,0.0061
3519.00,0.0062
3518.75,0.0063
3518.50,0.0065
3518.25,0.0066
3518.00,0.0066
3517.75,0.0066
3517.50,0.0065
3517.25,0.0064
3517.00,0.0064
3516.75,0.0064
3516.50,0.0064
3516.25,0.0064
3516.00,0.0063
3515.75,0.0063
3515.50,0.0064
3515.25,0.0065
3515.00,0.0066
3514.75,0.0067
3514.50,0.0068
3514.25,0.0069
3514.00,0.0070
3513.75,0.0071
3513.50,0.0072
3513.25,0.0071
3513.00,0.0070
3512.75,0.0069
3512.50,0.0067
3512.25,0.0066
3512.00,0.0065
3511.75,0.0064
3511.50,0.0064
3511.25,0.0065
3511.00,0.0065
3510.75,0.0065
3510.50,0.0063
3510.25,0.0062
3510.00,0.0061
3509.75,0.0062
3509.50,0.0064
3509.25,0.0068
3509.00,0.0070
3508.75,0.0071
3508.50,0.0071
3508.25,0.0070
3508.00,0.0071
3507.75,0.0072
3507.50,0.0073
3507.25,0.0074
3507.00,0.0073
3506.75,0.0072
3506.50,0.0070
3506.25,0.0067
3506.00,0.0065
3505.75,0.0064
3505.50,0.0064
3505.25,0.0064
3505.00,0.0065
3504.75,0.0066
3504.50,0.0066
3504.25,0.0066
3504.00,0.0065
3503.75,0.0064
3503.50,0.0064
3503.25,0.0065
3503.00,0.0066
3502.75,0.0067
3502.50,0.0067
3502.25,0.0067
3502.00,0.0067
3501.75,0.0067
3501.50,0.0068
3501.25,0.0068
3501.00,0.0068
3500.75,0.0067
3500.50,0.0067
3500.25,0.0067
3500.00,0.0068
3499.75,0.0069
3499.50,0.0069
3499.25,0.0069
3499.00,0.0068
3498.75,0.0068
3498.50,0.0068
3498.25,0.0068
3498.00,0.0068
3497.75,0.0068
3497.50,0.0068
3497.25,0.0067
3497.00,0.0067
3496.75,0.0067
3496.50,0.0067
3496.25,0.0068
3496.00,0.0068
3495.75,0.0069
3495.50,0.0069
3495.25,0.0068
3495.00,0.0067
3494.75,0.0066
3494.50,0.0065
3494.25,0.0063
3494.00,0.0063
3493.75,0.0064
3493.50,0.0065
3493.25,0.0067
3493.00,0.0068
3492.75,0.0068
3492.50,0.0068
3492.25,0.0069
3492.00,0.0069
3491.75,0.0068
3491.50,0.0067
3491.25,0.0066
3491.00,0.0066
3490.75,0.0066
3490.50,0.0066
3490.25,0.0065
3490.00,0.0064
3489.75,0.0064
3489.50,0.0064
3489.25,0.0064
3489.00,0.0066
3488.75,0.0067
3488.50,0.0068
3488.25,0.0068
3488.00,0.0067
3487.75,0.0067
3487.50,0.0066
3487.25,0.0066
3487.00,0.0067
3486.75,0.0067
3486.50,0.0067
3486.25,0.0068
3486.00,0.0068
3485.75,0.0068
3485.50,0.0068
3485.25,0.0068
3485.00,0.0068
3484.75,0.0068
3484.50,0.0068
3484.25,0.0068
3484.00,0.0067
3483.75,0.0066
3483.50,0.0065
3483.25,0.0064
3483.00,0.0065
3482.75,0.0066
3482.50,0.0067
3482.25,0.0067
3482.00,0.0066
3481.75,0.0065
3481.50,0.0065
3481.25,0.0065
3481.00,0.0066
3480.75,0.0068
3480.50,0.0070
3480.25,0.0071
3480.00,0.0071
3479.75,0.0070
3479.50,0.0069
3479.25,0.0068
3479.00,0.0068
3478.75,0.0068
3478.50,0.0068
3478.25,0.0068
3478.00,0.0068
3477.75,0.0068
3477.50,0.0068
3477.25,0.0069
3477.00,0.0070
3476.75,0.0071
3476.50,0.0070
3476.25,0.0070
3476.00,0.0069
3475.75,0.0068
3475.50,0.0067
3475.25,0.0066
3475.00,0.0065
3474.75,0.0064
3474.50,0.0064
3474.25,0.0065
3474.00,0.0066
3473.75,0.0067
3473.50,0.0067
3473.25,0.0067
3473.00,0.0066
3472.75,0.0065
3472.50,0.0065
3472.25,0.0066
3472.00,0.0069
3471.75,0.0071
3471.50,0.0072
3471.25,0.0073
3471.00,0.0073
3470.75,0.0072
3470.50,0.0072
3470.25,0.0071
3470.00,0.0070
3469.75,0.0068
3469.50,0.0066
3469.25,0.0064
3469.00,0.0062
3468.75,0.0062
3468.50,0.0063
3468.25,0.0064
3468.00,0.0066
3467.75,0.0067
3467.50,0.0068
3467.25,0.0069
3467.00,0.0069
3466.75,0.0070
3466.50,0.0070
3466.25,0.0070
3466.00,0.0071
3465.75,0.0071
3465.50,0.0071
3465.25,0.0071
3465.00,0.0069
3464.75,0.0067
3464.50,0.0066
3464.25,0.0065
3464.00,0.0065
3463.75,0.0067
3463.50,0.0068
3463.25,0.0068
3463.00,0.0068
3462.75,0.0067
3462.50,0.0066
3462.25,0.0064
3462.00,0.0063
3461.75,0.0064
3461.50,0.0065
3461.25,0.0068
3461.00,0.0069
3460.75,0.0070
3460.50,0.0069
3460.25,0.0068
3460.00,0.0066
3459.75,0.0065
3459.50,0.0065
3459.25,0.0066
3459.00,0.0068
3458.75,0.0069
3458.50,0.0070
3458.25,0.0070
3458.00,0.0069
3457.75,0.0069
3457.50,0.0069
3457.25,0.0069
3457.00,0.0069
3456.75,0.0069
3456.50,0.0068
3456.25,0.0067
3456.00,0.0066
3455.75,0.0065
3455.50,0.0063
3455.25,0.0062
3455.00,0.0062
3454.75,0.0062
3454.50,0.0063
3454.25,0.0064
3454.00,0.0064
3453.75,0.0065
3453.50,0.0066
3453.25,0.0067
3453.00,0.0068
3452.75,0.0068
3452.50,0.0067
3452.25,0.0066
3452.00,0.0065
3451.75,0.0065
3451.50,0.0066
3451.25,0.0066
3451.00,0.0067
3450.75,0.0067
3450.50,0.0067
3450.25,0.0067
3450.00,0.0067
3449.75,0.0067
3449.50,0.0067
3449.25,0.0067
3449.00,0.0067
3448.75,0.0067
3448.50,0.0067
3448.25,0.0068
3448.00,0.0069
3447.75,0.0070
3447.50,0.0072
3447.25,0.0073
3447.00,0.0074
3446.75,0.0074
3446.50,0.0072
3446.25,0.0070
3446.00,0.0067
3445.75,0.0066
3445.50,0.0065
3445.25,0.0064
3445.00,0.0064
3444.75,0.0065
3444.50,0.0067
3444.25,0.0069
3444.00,0.0071
3443.75,0.0071
3443.50,0.0070
3443.25,0.0069
3443.00,0.0067
3442.75,0.0067
3442.50,0.0066
3442.25,0.0064
3442.00,0.0063
3441.75,0.0063
3441.50,0.0062
3441.25,0.0062
3441.00,0.0062
3440.75,0.0062
3440.50,0.0062
3440.25,0.0062
3440.00,0.0063
3439.75,0.0064
3439.50,0.0065
3439.25,0.0066
3439.00,0.0067
3438.75,0.0067
3438.50,0.0067
3438.25,0.0067
3438.00,0.0068
3437.75,0.0068
3437.50,0.0068
3437.25,0.0068
3437.00,0.0067
3436.75,0.0066
3436.50,0.0066
3436.25,0.0066
3436.00,0.0066
3435.75,0.0066
3435.50,0.0066
3435.25,0.0066
3435.00,0.0066
3434.75,0.0066
3434.50,0.0066
3434.25,0.0065
3434.00,0.0065
3433.75,0.0064
3433.50,0.0064
3433.25,0.0063
3433.00,0.0063
3432.75,0.0063
3432.50,0.0062
3432.25,0.0062
3432.00,0.0062
3431.75,0.0062
3431.50,0.0062
3431.25,0.0064
3431.00,0.0066
3430.75,0.0068
3430.50,0.0068
3430.25,0.0068
3430.00,0.0066
3429.75,0.0064
3429.50,0.0064
3429.25,0.0065
3429.00,0.0066
3428.75,0.0067
3428.50,0.0068
3428.25,0.0067
3428.00,0.0066
3427.75,0.0065
3427.50,0.0064
3427.25,0.0064
3427.00,0.0066
3426.75,0.0068
3426.50,0.0070
3426.25,0.0072
3426.00,0.0072
3425.75,0.0072
3425.50,0.0070
3425.25,0.0068
3425.00,0.0067
3424.75,0.0067
3424.50,0.0068
3424.25,0.0069
3424.00,0.0069
3423.75,0.0069
3423.50,0.0068
3423.25,0.0067
3423.00,0.0067
3422.75,0.0066
3422.50,0.0065
3422.25,0.0065
3422.00,0.0064
3421.75,0.0064
3421.50,0.0064
3421.25,0.0064
3421.00,0.0064
3420.75,0.0064
3420.50,0.0065
3420.25,0.0065
3420.00,0.0066
3419.75,0.0066
3419.50,0.0066
3419.25,0.0066
3419.00,0.0066
3418.75,0.0065
3418.50,0.0065
3418.25,0.0064
3418.00,0.0064
3417.75,0.0064
3417.50,0.0064
3417.25,0.0064
3417.00,0.0065
3416.75,0.0065
3416.50,0.0066
3416.25,0.0066
3416.00,0.0065
3415.75,0.0065
3415.50,0.0065
3415.25,0.0066
3415.00,0.0068
3414.75,0.0069
3414.50,0.0070
3414.25,0.0070
3414.00,0.0069
3413.75,0.0067
3413.50,0.0065
3413.25,0.0064
3413.00,0.0063
3412.75,0.0062
3412.50,0.0061
3412.25,0.0061
3412.00,0.0062
3411.75,0.0063
3411.50,0.0064
3411.25,0.0066
3411.00,0.0067
3410.75,0.0068
3410.50,0.0068
3410.25,0.0068
3410.00,0.0067
3409.75,0.0066
3409.50,0.0067
3409.25,0.0067
3409.00,0.0067
3408.75,0.0066
3408.50,0.0065
3408.25,0.0063
3408.00,0.0064
3407.75,0.0065
3407.50,0.0067
3407.25,0.0068
3407.00,0.0069
3406.75,0.0068
3406.50,0.0067
3406.25,0.0066
3406.00,0.0064
3405.75,0.0063
3405.50,0.0062
3405.25,0.0062
3405.00,0.0063
3404.75,0.0064
3404.50,0.0066
3404.25,0.0068
3404.00,0.0069
3403.75,0.0069
3403.50,0.0070
3403.25,0.0069
3403.00,0.0068
3402.75,0.0066
3402.50,0.0065
3402.25,0.0064
3402.00,0.0065
3401.75,0.0066
3401.50,0.0068
3401.25,0.0068
3401.00,0.0067
3400.75,0.0066
3400.50,0.0064
3400.25,0.0063
3400.00,0.0061
3399.75,0.0060
3399.50,0.0060
3399.25,0.0061
3399.00,0.0063
3398.75,0.0065
3398.50,0.0067
3398.25,0.0067
3398.00,0.0068
3397.75,0.0067
3397.50,0.0066
3397.25,0.0066
3397.00,0.0066
3396.75,0.0066
3396.50,0.0067
3396.25,0.0067
3396.00,0.0067
3395.75,0.0066
3395.50,0.0065
3395.25,0.0065
3395.00,0.0064
3394.75,0.0064
3394.50,0.0065
3394.25,0.0066
3394.00,0.0066
3393.75,0.0066
3393.50,0.0066
3393.25,0.0065
3393.00,0.0063
3392.75,0.0063
3392.50,0.0062
3392.25,0.0062
3392.00,0.0063
3391.75,0.0064
3391.50,0.0065
3391.25,0.0066
3391.00,0.0067
3390.75,0.0067
3390.50,0.0067
3390.25,0.0068
3390.00,0.0069
3389.75,0.0070
3389.50,0.0071
3389.25,0.0071
3389.00,0.0070
3388.75,0.0068
3388.50,0.0067
3388.25,0.0066
3388.00,0.0066
3387.75,0.0066
3387.50,0.0067
3387.25,0.0067
3387.00,0.0067
3386.75,0.0066
3386.50,0.0066
3386.25,0.0066
3386.00,0.0067
3385.75,0.0068
3385.50,0.0069
3385.25,0.0070
3385.00,0.0071
3384.75,0.0071
3384.50,0.0070
3384.25,0.0068
3384.00,0.0065
3383.75,0.0063
3383.50,0.0061
3383.25,0.0060
3383.00,0.0061
3382.75,0.0062
3382.50,0.0063
3382.25,0.0063
3382.00,0.0064
3381.75,0.0064
3381.50,0.0065
3381.25,0.0066
3381.00,0.0068
3380.75,0.0070
3380.50,0.0071
3380.25,0.0071
3380.00,0.0070
3379.75,0.0068
3379.50,0.0065
3379.25,0.0063
3379.00,0.0062
3378.75,0.0063
3378.50,0.0064
3378.25,0.0066
3378.00,0.0067
3377.75,0.0068
3377.50,0.0068
3377.25,0.0068
3377.00,0.0068
3376.75,0.0069
3376.50,0.0070
3376.25,0.0071
3376.00,0.0071
3375.75,0.0070
3375.50,0.0069
3375.25,0.0067
3375.00,0.0067
3374.75,0.0067
3374.50,0.0067
3374.25,0.0066
3374.00,0.0066
3373.75,0.0065
3373.50,0.0065
3373.25,0.0066
3373.00,0.0066
3372.75,0.0067
3372.50,0.0066
3372.25,0.0066
3372.00,0.0065
3371.75,0.0064
3371.50,0.0064
3371.25,0.0063
3371.00,0.0062
3370.75,0.0062
3370.50,0.0062
3370.25,0.0064
3370.00,0.0065
3369.75,0.0066
3369.50,0.0066
3369.25,0.0066
3369.00,0.0065
3368.75,0.0064
3368.50,0.0064
3368.25,0.0064
3368.00,0.0065
3367.75,0.0065
3367.50,0.0066
3367.25,0.0068
3367.00,0.0069
3366.75,0.0070
3366.50,0.0071
3366.25,0.0071
3366.00,0.0071
3365.75,0.0071
3365.50,0.0070
3365.25,0.0070
3365.00,0.0069
3364.75,0.0070
3364.50,0.0071
3364.25,0.0072
3364.00,0.0072
3363.75,0.0071
3363.50,0.0069
3363.25,0.0068
3363.00,0.0067
3362.75,0.0066
3362.50,0.0066
3362.25,0.0067
3362.00,0.0067
3361.75,0.0068
3361.50,0.0068
3361.25,0.0068
3361.00,0.0068
3360.75,0.0067
3360.50,0.0067
3360.25,0.0067
3360.00,0.0067
3359.75,0.0067
3359.50,0.0067
3359.25,0.0067
3359.00,0.0067
3358.75,0.0067
3358.50,0.0068
3358.25,0.0068
3358.00,0.0067
3357.75,0.0066
3357.50,0.0064
3357.25,0.0064
3357.00,0.0065
3356.75,0.0066
3356.50,0.0068
3356.25,0.0071
3356.00,0.0073
3355.75,0.0074
3355.50,0.0074
3355.25,0.0072
3355.00,0.0070
3354.75,0.0067
3354.50,0.0066
3354.25,0.0065
3354.00,0.0066
3353.75,0.0066
3353.50,0.0066
3353.25,0.0065
3353.00,0.0064
3352.75,0.0063
3352.50,0.0063
3352.25,0.0063
3352.00,0.0064
3351.75,0.0065
3351.50,0.0067
3351.25,0.0069
3351.00,0.0069
3350.75,0.0069
3350.50,0.0067
3350.25,0.0066
3350.00,0.0066
3349.75,0.0066
3349.50,0.0066
3349.25,0.0066
3349.00,0.0067
3348.75,0.0067
3348.50,0.0068
3348.25,0.0068
3348.00,0.0067
3347.75,0.0067
3347.50,0.0067
3347.25,0.0066
3347.00,0.0066
3346.75,0.0065
3346.50,0.0064
3346.25,0.0065
3346.00,0.0066
3345.75,0.0067
3345.50,0.0067
3345.25,0.0068
3345.00,0.0068
3344.75,0.0068
3344.50,0.0068
3344.25,0.0068
3344.00,0.0067
3343.75,0.0067
3343.50,0.0067
3343.25,0.0067
3343.00,0.0067
3342.75,0.0068
3342.50,0.0068
3342.25,0.0068
3342.00,0.0067
3341.75,0.0066
3341.50,0.0065
3341.25,0.0064
3341.00,0.0064
3340.75,0.0065
3340.50,0.0065
3340.25,0.0066
3340.00,0.0066
3339.75,0.0066
3339.50,0.0066
3339.25,0.0067
3339.00,0.0067
3338.75,0.0067
3338.50,0.0067
3338.25,0.0066
3338.00,0.0066
3337.75,0.0067
3337.50,0.0067
3337.25,0.0067
3337.00,0.0067
3336.75,0.0067
3336.50,0.0066
3336.25,0.0066
3336.00,0.0066
3335.75,0.0066
3335.50,0.0065
3335.25,0.0064
3335.00,0.0064
3334.75,0.0063
3334.50,0.0063
3334.25,0.0063
3334.00,0.0064
3333.75,0.0065
3333.50,0.0066
3333.25,0.0066
3333.00,0.0066
3332.75,0.0066
3332.50,0.0066
3332.25,0.0066
3332.00,0.0065
3331.75,0.0065
3331.50,0.0064
3331.25,0.0064
3331.00,0.0065
3330.75,0.0066
3330.50,0.0066
3330.25,0.0066
3330.00,0.0066
3329.75,0.0066
3329.50,0.0066
3329.25,0.0066
3329.00,0.0066
3328.75,0.0067
3328.50,0.0067
3328.25,0.0068
3328.00,0.0068
3327.75,0.0067
3327.50,0.0066
3327.25,0.0066
3327.00,0.0065
3326.75,0.0065
3326.50,0.0064
3326.25,0.0064
3326.00,0.0062
3325.75,0.0061
3325.50,0.0059
3325.25,0.0059
3325.00,0.0060
3324.75,0.0062
3324.50,0.0064
3324.25,0.0066
3324.00,0.0067
3323.75,0.0067
3323.50,0.0067
3323.25,0.0066
3323.00,0.0064
3322.75,0.0062
3322.50,0.0060
3322.25,0.0059
3322.00,0.0060
3321.75,0.0061
3321.50,0.0063
3321.25,0.0065
3321.00,0.0067
3320.75,0.0068
3320.50,0.0069
3320.25,0.0068
3320.00,0.0067
3319.75,0.0065
3319.50,0.0065
3319.25,0.0065
3319.00,0.0066
3318.75,0.0067
3318.50,0.0068
3318.25,0.0067
3318.00,0.0067
3317.75,0.0067
3317.50,0.0067
3317.25,0.0067
3317.00,0.0067
3316.75,0.0066
3316.50,0.0066
3316.25,0.0066
3316.00,0.0066
3315.75,0.0066
3315.50,0.0066
3315.25,0.0067
3315.00,0.0068
3314.75,0.0069
3314.50,0.0070
3314.25,0.0070
3314.00,0.0070
3313.75,0.0069
3313.50,0.0068
3313.25,0.0067
3313.00,0.0067
3312.75,0.0066
3312.50,0.0065
3312.25,0.0065
3312.00,0.0065
3311.75,0.0066
3311.50,0.0067
3311.25,0.0068
3311.00,0.0068
3310.75,0.0069
3310.50,0.0069
3310.25,0.0068
3310.00,0.0068
3309.75,0.0068
3309.50,0.0067
3309.25,0.0066
3309.00,0.0065
3308.75,0.0065
3308.50,0.0065
3308.25,0.0066
3308.00,0.0066
3307.75,0.0066
3307.50,0.0066
3307.25,0.0067
3307.00,0.0067
3306.75,0.0067
3306.50,0.0067
3306.25,0.0067
3306.00,0.0067
3305.75,0.0066
3305.50,0.0066
3305.25,0.0067
3305.00,0.0067
3304.75,0.0068
3304.50,0.0068
3304.25,0.0068
3304.00,0.0067
3303.75,0.0067
3303.50,0.0066
3303.25,0.0066
3303.00,0.0066
3302.75,0.0066
3302.50,0.0065
3302.25,0.0065
3302.00,0.0064
3301.75,0.0063
3301.50,0.0063
3301.25,0.0063
3301.00,0.0063
3300.75,0.0064
3300.50,0.0064
3300.25,0.0064
3300.00,0.0065
3299.75,0.0065
3299.50,0.0066
3299.25,0.0067
3299.00,0.0069
3298.75,0.0070
3298.50,0.0071
3298.25,0.0070
3298.00,0.0068
3297.75,0.0066
3297.50,0.0064
3297.25,0.0064
3297.00,0.0063
3296.75,0.0063
3296.50,0.0063
3296.25,0.0063
3296.00,0.0064
3295.75,0.0065
3295.50,0.0066
3295.25,0.0067
3295.00,0.0067
3294.75,0.0066
3294.50,0.0065
3294.25,0.0065
3294.00,0.0065
3293.75,0.0065
3293.50,0.0066
3293.25,0.0066
3293.00,0.0065
3292.75,0.0065
3292.50,0.0065
3292.25,0.0066
3292.00,0.0067
3291.75,0.0068
3291.50,0.0068
3291.25,0.0069
3291.00,0.0068
3290.75,0.0068
3290.50,0.0068
3290.25,0.0068
3290.00,0.0068
3289.75,0.0067
3289.50,0.0066
3289.25,0.0064
3289.00,0.0062
3288.75,0.0062
3288.50,0.0062
3288.25,0.0062
3288.00,0.0063
3287.75,0.0063
3287.50,0.0063
3287.25,0.0063
3287.00,0.0063
3286.75,0.0063
3286.50,0.0062
3286.25,0.0063
3286.00,0.0063
3285.75,0.0064
3285.50,0.0065
3285.25,0.0065
3285.00,0.0066
3284.75,0.0066
3284.50,0.0067
3284.25,0.0066
3284.00,0.0065
3283.75,0.0064
3283.50,0.0063
3283.25,0.0063
3283.00,0.0064
3282.75,0.0066
3282.50,0.0067
3282.25,0.0067
3282.00,0.0067
3281.75,0.0068
3281.50,0.0068
3281.25,0.0068
3281.00,0.0067
3280.75,0.0068
3280.50,0.0068
3280.25,0.0069
3280.00,0.0070
3279.75,0.0070
3279.50,0.0068
3279.25,0.0066
3279.00,0.0064
3278.75,0.0064
3278.50,0.0065
3278.25,0.0066
3278.00,0.0068
3277.75,0.0068
3277.50,0.0067
3277.25,0.0065
3277.00,0.0063
3276.75,0.0061
3276.50,0.0061
3276.25,0.0061
3276.00,0.0061
3275.75,0.0062
3275.50,0.0062
3275.25,0.0062
3275.00,0.0063
3274.75,0.0063
3274.50,0.0065
3274.25,0.0066
3274.00,0.0067
3273.75,0.0067
3273.50,0.0066
3273.25,0.0065
3273.00,0.0064
3272.75,0.0064
3272.50,0.0064
3272.25,0.0065
3272.00,0.0066
3271.75,0.0068
3271.50,0.0068
3271.25,0.0067
3271.00,0.0066
3270.75,0.0065
3270.50,0.0065
3270.25,0.0064
3270.00,0.0064
3269.75,0.0063
3269.50,0.0063
3269.25,0.0064
3269.00,0.0066
3268.75,0.0067
3268.50,0.0069
3268.25,0.0069
3268.00,0.0069
3267.75,0.0067
3267.50,0.0065
3267.25,0.0064
3267.00,0.0063
3266.75,0.0063
3266.50,0.0064
3266.25,0.0065
3266.00,0.0065
3265.75,0.0065
3265.50,0.0065
3265.25,0.0065
3265.00,0.0065
3264.75,0.0065
3264.50,0.0066
3264.25,0.0067
3264.00,0.0068
3263.75,0.0069
3263.50,0.0068
3263.25,0.0067
3263.00,0.0065
3262.75,0.0063
3262.50,0.0061
3262.25,0.0061
3262.00,0.0061
3261.75,0.0062
3261.50,0.0062
3261.25,0.0064
3261.00,0.0065
3260.75,0.0067
3260.50,0.0068
3260.25,0.0069
3260.00,0.0069
3259.75,0.0069
3259.50,0.0068
3259.25,0.0067
3259.00,0.0067
3258.75,0.0067
3258.50,0.0068
3258.25,0.0069
3258.00,0.0069
3257.75,0.0069
3257.50,0.0069
3257.25,0.0068
3257.00,0.0068
3256.75,0.0067
3256.50,0.0067
3256.25,0.0068
3256.00,0.0070
3255.75,0.0071
3255.50,0.0072
3255.25,0.0071
3255.00,0.0070
3254.75,0.0069
3254.50,0.0068
3254.25,0.0068
3254.00,0.0067
3253.75,0.0067
3253.50,0.0066
3253.25,0.0066
3253.00,0.0066
3252.75,0.0066
3252.50,0.0066
3252.25,0.0067
3252.00,0.0068
3251.75,0.0069
3251.50,0.0069
3251.25,0.0070
3251.00,0.0069
3250.75,0.0067
3250.50,0.0066
3250.25,0.0065
3250.00,0.0064
3249.75,0.0065
3249.50,0.0066
3249.25,0.0067
3249.00,0.0069
3248.75,0.0070
3248.50,0.0070
3248.25,0.0070
3248.00,0.0070
3247.75,0.0069
3247.50,0.0069
3247.25,0.0069
3247.00,0.0068
3246.75,0.0067
3246.50,0.0066
3246.25,0.0065
3246.00,0.0064
3245.75,0.0063
3245.50,0.0062
3245.25,0.0062
3245.00,0.0062
3244.75,0.0062
3244.50,0.0062
3244.25,0.0063
3244.00,0.0064
3243.75,0.0065
3243.50,0.0066
3243.25,0.0067
3243.00,0.0066
3242.75,0.0066
3242.50,0.0065
3242.25,0.0065
3242.00,0.0064
3241.75,0.0063
3241.50,0.0062
3241.25,0.0063
3241.00,0.0064
3240.75,0.0066
3240.50,0.0067
3240.25,0.0068
3240.00,0.0068
3239.75,0.0067
3239.50,0.0067
3239.25,0.0065
3239.00,0.0064
3238.75,0.0063
3238.50,0.0062
3238.25,0.0062
3238.00,0.0062
3237.75,0.0062
3237.50,0.0062
3237.25,0.0061
3237.00,0.0061
3236.75,0.0061
3236.50,0.0061
3236.25,0.0062
3236.00,0.0064
3235.75,0.0066
3235.50,0.0067
3235.25,0.0069
3235.00,0.0069
3234.75,0.0068
3234.50,0.0067
3234.25,0.0066
3234.00,0.0066
3233.75,0.0066
3233.50,0.0066
3233.25,0.0067
3233.00,0.0068
3232.75,0.0068
3232.50,0.0068
3232.25,0.0066
3232.00,0.0065
3231.75,0.0064
3231.50,0.0064
3231.25,0.0064
3231.00,0.0063
3230.75,0.0064
3230.50,0.0064
3230.25,0.0064
3230.00,0.0065
3229.75,0.0066
3229.50,0.0066
3229.25,0.0067
3229.00,0.0067
3228.75,0.0068
3228.50,0.0067
3228.25,0.0067
3228.00,0.0067
3227.75,0.0067
3227.50,0.0068
3227.25,0.0069
3227.00,0.0071
3226.75,0.0071
3226.50,0.0071
3226.25,0.0069
3226.00,0.0067
3225.75,0.0065
3225.50,0.0064
3225.25,0.0063
3225.00,0.0063
3224.75,0.0063
3224.50,0.0063
3224.25,0.0064
3224.00,0.0064
3223.75,0.0065
3223.50,0.0065
3223.25,0.0065
3223.00,0.0066
3222.75,0.0067
3222.50,0.0068
3222.25,0.0068
3222.00,0.0067
3221.75,0.0066
3221.50,0.0065
3221.25,0.0066
3221.00,0.0066
3220.75,0.0065
3220.50,0.0064
3220.25,0.0063
3220.00,0.0063
3219.75,0.0064
3219.50,0.0066
3219.25,0.0067
3219.00,0.0068
3218.75,0.0067
3218.50,0.0066
3218.25,0.0065
3218.00,0.0064
3217.75,0.0064
3217.50,0.0064
3217.25,0.0064
3217.00,0.0064
3216.75,0.0064
3216.50,0.0064
3216.25,0.0065
3216.00,0.0065
3215.75,0.0066
3215.50,0.0066
3215.25,0.0066
3215.00,0.0066
3214.75,0.0066
3214.50,0.0065
3214.25,0.0066
3214.00,0.0066
3213.75,0.0067
3213.50,0.0068
3213.25,0.0067
3213.00,0.0067
3212.75,0.0066
3212.50,0.0065
3212.25,0.0064
3212.00,0.0063
3211.75,0.0063
3211.50,0.0064
3211.25,0.0065
3211.00,0.0066
3210.75,0.0067
3210.50,0.0067
3210.25,0.0068
3210.00,0.0069
3209.75,0.0070
3209.50,0.0071
3209.25,0.0071
3209.00,0.0071
3208.75,0.0070
3208.50,0.0069
3208.25,0.0067
3208.00,0.0066
3207.75,0.0066
3207.50,0.0067
3207.25,0.0067
3207.00,0.0066
3206.75,0.0065
3206.50,0.0065
3206.25,0.0065
3206.00,0.0066
3205.75,0.0066
3205.50,0.0065
3205.25,0.0064
3205.00,0.0063
3204.75,0.0062
3204.50,0.0062
3204.25,0.0063
3204.00,0.0064
3203.75,0.0065
3203.50,0.0066
3203.25,0.0067
3203.00,0.0067
3202.75,0.0067
3202.50,0.0066
3202.25,0.0066
3202.00,0.0065
3201.75,0.0065
3201.50,0.0065
3201.25,0.0066
3201.00,0.0067
3200.75,0.0068
3200.50,0.0068
3200.25,0.0068
3200.00,0.0066
3199.75,0.0064
3199.50,0.0063
3199.25,0.0061
3199.00,0.0061
3198.75,0.0061
3198.50,0.0061
3198.25,0.0061
3198.00,0.0062
3197.75,0.0062
3197.50,0.0063
3197.25,0.0064
3197.00,0.0066
3196.75,0.0067
3196.50,0.0068
3196.25,0.0069
3196.00,0.0068
3195.75,0.0067
3195.50,0.0067
3195.25,0.0067
3195.00,0.0067
3194.75,0.0067
3194.50,0.0067
3194.25,0.0067
3194.00,0.0067
3193.75,0.0067
3193.50,0.0067
3193.25,0.0066
3193.00,0.0065
3192.75,0.0064
3192.50,0.0065
3192.25,0.0065
3192.00,0.0066
3191.75,0.0067
3191.50,0.0067
3191.25,0.0068
3191.00,0.0068
3190.75,0.0067
3190.50,0.0067
3190.25,0.0066
3190.00,0.0066
3189.75,0.0066
3189.50,0.0065
3189.25,0.0065
3189.00,0.0065
3188.75,0.0064
3188.50,0.0064
3188.25,0.0064
3188.00,0.0063
3187.75,0.0063
3187.50,0.0064
3187.25,0.0065
3187.00,0.0067
3186.75,0.0067
3186.50,0.0067
3186.25,0.0067
3186.00,0.0068
3185.75,0.0068
3185.50,0.0068
3185.25,0.0066
3185.00,0.0064
3184.75,0.0062
3184.50,0.0060
3184.25,0.0061
3184.00,0.0062
3183.75,0.0064
3183.50,0.0066
3183.25,0.0067
3183.00,0.0066
3182.75,0.0066
3182.50,0.0065
3182.25,0.0064
3182.00,0.0064
3181.75,0.0064
3181.50,0.0065
3181.25,0.0067
3181.00,0.0067
3180.75,0.0066
3180.50,0.0065
3180.25,0.0064
3180.00,0.0064
3179.75,0.0064
3179.50,0.0065
3179.25,0.0065
3179.00,0.0065
3178.75,0.0066
3178.50,0.0066
3178.25,0.0066
3178.00,0.0066
3177.75,0.0066
3177.50,0.0066
3177.25,0.0065
3177.00,0.0065
3176.75,0.0065
3176.50,0.0065
3176.25,0.0065
3176.00,0.0066
3175.75,0.0066
3175.50,0.0066
3175.25,0.0066
3175.00,0.0066
3174.75,0.0066
3174.50,0.0065
3174.25,0.0065
3174.00,0.0066
3173.75,0.0066
3173.50,0.0065
3173.25,0.0065
3173.00,0.0064
3172.75,0.0064
3172.50,0.0065
3172.25,0.0066
3172.00,0.0066
3171.75,0.0067
3171.50,0.0068
3171.25,0.0068
3171.00,0.0069
3170.75,0.0068
3170.50,0.0068
3170.25,0.0068
3170.00,0.0068
3169.75,0.0067
3169.50,0.0067
3169.25,0.0066
3169.00,0.0065
3168.75,0.0064
3168.50,0.0064
3168.25,0.0065
3168.00,0.0066
3167.75,0.0066
3167.50,0.0067
3167.25,0.0068
3167.00,0.0069
3166.75,0.0069
3166.50,0.0070
3166.25,0.0069
3166.00,0.0069
3165.75,0.0068
3165.50,0.0067
3165.25,0.0067
3165.00,0.0068
3164.75,0.0068
3164.50,0.0068
3164.25,0.0068
3164.00,0.0066
3163.75,0.0065
3163.50,0.0064
3163.25,0.0064
3163.00,0.0063
3162.75,0.0063
3162.50,0.0064
3162.25,0.0065
3162.00,0.0066
3161.75,0.0065
3161.50,0.0063
3161.25,0.0062
3161.00,0.0061
3160.75,0.0062
3160.50,0.0064
3160.25,0.0066
3160.00,0.0066
3159.75,0.0066
3159.50,0.0066
3159.25,0.0066
3159.00,0.0066
3158.75,0.0067
3158.50,0.0067
3158.25,0.0066
3158.00,0.0066
3157.75,0.0065
3157.50,0.0064
3157.25,0.0063
3157.00,0.0063
3156.75,0.0063
3156.50,0.0064
3156.25,0.0065
3156.00,0.0067
3155.75,0.0068
3155.50,0.0069
3155.25,0.0070
3155.00,0.0070
3154.75,0.0070
3154.50,0.0070
3154.25,0.0069
3154.00,0.0068
3153.75,0.0066
3153.50,0.0064
3153.25,0.0064
3153.00,0.0064
3152.75,0.0065
3152.50,0.0066
3152.25,0.0067
3152.00,0.0067
3151.75,0.0066
3151.50,0.0066
3151.25,0.0065
3151.00,0.0064
3150.75,0.0063
3150.50,0.0063
3150.25,0.0064
3150.00,0.0066
3149.75,0.0067
3149.50,0.0069
3149.25,0.0069
3149.00,0.0069
3148.75,0.0068
3148.50,0.0067
3148.25,0.0066
3148.00,0.0066
3147.75,0.0066
3147.50,0.0066
3147.25,0.0067
3147.00,0.0066
3146.75,0.0066
3146.50,0.0067
3146.25,0.0067
3146.00,0.0067
3145.75,0.0066
3145.50,0.0065
3145.25,0.0064
3145.00,0.0064
3144.75,0.0064
3144.50,0.0064
3144.25,0.0065
3144.00,0.0065
3143.75,0.0066
3143.50,0.0066
3143.25,0.0065
3143.00,0.0065
3142.75,0.0065
3142.50,0.0066
3142.25,0.0066
3142.00,0.0067
3141.75,0.0067
3141.50,0.0067
3141.25,0.0067
3141.00,0.0067
3140.75,0.0067
3140.50,0.0068
3140.25,0.0068
3140.00,0.0069
3139.75,0.0069
3139.50,0.0070
3139.25,0.0070
3139.00,0.0069
3138.75,0.0067
3138.50,0.0065
3138.25,0.0063
3138.00,0.0062
3137.75,0.0061
3137.50,0.0061
3137.25,0.0061
3137.00,0.0062
3136.75,0.0063
3136.50,0.0064
3136.25,0.0065
3136.00,0.0065
3135.75,0.0065
3135.50,0.0065
3135.25,0.0065
3135.00,0.0066
3134.75,0.0065
3134.50,0.0065
3134.25,0.0064
3134.00,0.0063
3133.75,0.0063
3133.50,0.0063
3133.25,0.0064
3133.00,0.0065
3132.75,0.0066
3132.50,0.0067
3132.25,0.0067
3132.00,0.0067
3131.75,0.0068
3131.50,0.0068
3131.25,0.0068
3131.00,0.0068
3130.75,0.0068
3130.50,0.0067
3130.25,0.0067
3130.00,0.0067
3129.75,0.0066
3129.50,0.0066
3129.25,0.0066
3129.00,0.0065
3128.75,0.0065
3128.50,0.0064
3128.25,0.0063
3128.00,0.0063
3127.75,0.0064
3127.50,0.0065
3127.25,0.0067
3127.00,0.0068
3126.75,0.0068
3126.50,0.0067
3126.25,0.0066
3126.00,0.0065
3125.75,0.0065
3125.50,0.0065
3125.25,0.0065
3125.00,0.0066
3124.75,0.0066
3124.50,0.0067
3124.25,0.0068
3124.00,0.0069
3123.75,0.0069
3123.50,0.0069
3123.25,0.0069
3123.00,0.0068
3122.75,0.0067
3122.50,0.0066
3122.25,0.0065
3122.00,0.0064
3121.75,0.0064
3121.50,0.0065
3121.25,0.0066
3121.00,0.0067
3120.75,0.0068
3120.50,0.0068
3120.25,0.0068
3120.00,0.0067
3119.75,0.0067
3119.50,0.0067
3119.25,0.0067
3119.00,0.0067
3118.75,0.0067
3118.50,0.0067
3118.25,0.0067
3118.00,0.0066
3117.75,0.0065
3117.50,0.0065
3117.25,0.0065
3117.00,0.0065
3116.75,0.0065
3116.50,0.0065
3116.25,0.0065
3116.00,0.0065
3115.75,0.0064
3115.50,0.0063
3115.25,0.0062
3115.00,0.0062
3114.75,0.0062
3114.50,0.0062
3114.25,0.0063
3114.00,0.0063
3113.75,0.0063
3113.50,0.0063
3113.25,0.0063
3113.00,0.0064
3112.75,0.0064
3112.50,0.0064
3112.25,0.0065
3112.00,0.0065
3111.75,0.0066
3111.50,0.0067
3111.25,0.0067
3111.00,0.0067
3110.75,0.0067
3110.50,0.0067
3110.25,0.0067
3110.00,0.0066
3109.75,0.0065
3109.50,0.0064
3109.25,0.0063
3109.00,0.0063
3108.75,0.0062
3108.50,0.0062
3108.25,0.0062
3108.00,0.0062
3107.75,0.0063
3107.50,0.0064
3107.25,0.0066
3107.00,0.0067
3106.75,0.0067
3106.50,0.0066
3106.25,0.0065
3106.00,0.0066
3105.75,0.0066
3105.50,0.0066
3105.25,0.0065
3105.00,0.0063
3104.75,0.0062
3104.50,0.0061
3104.25,0.0061
3104.00,0.0061
3103.75,0.0063
3103.50,0.0064
3103.25,0.0064
3103.00,0.0064
3102.75,0.0064
3102.50,0.0063
3102.25,0.0062
3102.00,0.0061
3101.75,0.0060
3101.50,0.0060
3101.25,0.0061
3101.00,0.0062
3100.75,0.0063
3100.50,0.0064
3100.25,0.0065
3100.00,0.0066
3099.75,0.0067
3099.50,0.0068
3099.25,0.0068
3099.00,0.0068
3098.75,0.0066
3098.50,0.0065
3098.25,0.0063
3098.00,0.0063
3097.75,0.0064
3097.50,0.0065
3097.25,0.0066
3097.00,0.0066
3096.75,0.0066
3096.50,0.0066
3096.25,0.0066
3096.00,0.0067
3095.75,0.0067
3095.50,0.0067
3095.25,0.0066
3095.00,0.0064
3094.75,0.0062
3094.50,0.0061
3094.25,0.0061
3094.00,0.0061
3093.75,0.0063
3093.50,0.0064
3093.25,0.0065
3093.00,0.0065
3092.75,0.0065
3092.50,0.0065
3092.25,0.0065
3092.00,0.0065
3091.75,0.0065
3091.50,0.0065
3091.25,0.0065
3091.00,0.0064
3090.75,0.0063
3090.50,0.0062
3090.25,0.0060
3090.00,0.0059
3089.75,0.0058
3089.50,0.0058
3089.25,0.0058
3089.00,0.0059
3088.75,0.0061
3088.50,0.0063
3088.25,0.0064
3088.00,0.0066
3087.75,0.0066
3087.50,0.0065
3087.25,0.0064
3087.00,0.0063
3086.75,0.0062
3086.50,0.0062
3086.25,0.0062
3086.00,0.0062
3085.75,0.0062
3085.50,0.0061
3085.25,0.0060
3085.00,0.0060
3084.75,0.0060
3084.50,0.0061
3084.25,0.0062
3084.00,0.0062
3083.75,0.0062
3083.50,0.0061
3083.25,0.0061
3083.00,0.0061
3082.75,0.0061
3082.50,0.0061
3082.25,0.0062
3082.00,0.0062
3081.75,0.0062
3081.50,0.0062
3081.25,0.0061
3081.00,0.0061
3080.75,0.0061
3080.50,0.0061
3080.25,0.0061
3080.00,0.0061
3079.75,0.0061
3079.50,0.0061
3079.25,0.0062
3079.00,0.0062
3078.75,0.0063
3078.50,0.0062
3078.25,0.0061
3078.00,0.0060
3077.75,0.0060
3077.50,0.0061
3077.25,0.0062
3077.00,0.0062
3076.75,0.0063
3076.50,0.0063
3076.25,0.0063
3076.00,0.0063
3075.75,0.0063
3075.50,0.0064
3075.25,0.0064
3075.00,0.0064
3074.75,0.0064
3074.50,0.0063
3074.25,0.0063
3074.00,0.0063
3073.75,0.0063
3073.50,0.0064
3073.25,0.0064
3073.00,0.0064
3072.75,0.0063
3072.50,0.0063
3072.25,0.0063
3072.00,0.0064
3071.75,0.0064
3071.50,0.0065
3071.25,0.0065
3071.00,0.0064
3070.75,0.0064
3070.50,0.0064
3070.25,0.0063
3070.00,0.0062
3069.75,0.0061
3069.50,0.0060
3069.25,0.0060
3069.00,0.0059
3068.75,0.0060
3068.50,0.0061
3068.25,0.0063
3068.00,0.0064
3067.75,0.0065
3067.50,0.0064
3067.25,0.0064
3067.00,0.0064
3066.75,0.0064
3066.50,0.0064
3066.25,0.0064
3066.00,0.0063
3065.75,0.0063
3065.50,0.0062
3065.25,0.0062
3065.00,0.0061
3064.75,0.0061
3064.50,0.0061
3064.25,0.0062
3064.00,0.0062
3063.75,0.0063
3063.50,0.0063
3063.25,0.0063
3063.00,0.0063
3062.75,0.0062
3062.50,0.0061
3062.25,0.0060
3062.00,0.0060
3061.75,0.0061
3061.50,0.0062
3061.25,0.0064
3061.00,0.0065
3060.75,0.0066
3060.50,0.0066
3060.25,0.0066
3060.00,0.0066
3059.75,0.0067
3059.50,0.0067
3059.25,0.0068
3059.00,0.0068
3058.75,0.0067
3058.50,0.0066
3058.25,0.0064
3058.00,0.0064
3057.75,0.0064
3057.50,0.0065
3057.25,0.0066
3057.00,0.0065
3056.75,0.0064
3056.50,0.0062
3056.25,0.0061
3056.00,0.0061
3055.75,0.0062
3055.50,0.0064
3055.25,0.0066
3055.00,0.0067
3054.75,0.0068
3054.50,0.0067
3054.25,0.0067
3054.00,0.0067
3053.75,0.0067
3053.50,0.0068
3053.25,0.0068
3053.00,0.0068
3052.75,0.0067
3052.50,0.0065
3052.25,0.0064
3052.00,0.0063
3051.75,0.0063
3051.50,0.0063
3051.25,0.0063
3051.00,0.0062
3050.75,0.0062
3050.50,0.0062
3050.25,0.0061
3050.00,0.0061
3049.75,0.0061
3049.50,0.0061
3049.25,0.0062
3049.00,0.0062
3048.75,0.0062
3048.50,0.0061
3048.25,0.0060
3048.00,0.0060
3047.75,0.0061
3047.50,0.0062
3047.25,0.0062
3047.00,0.0062
3046.75,0.0061
3046.50,0.0060
3046.25,0.0058
3046.00,0.0057
3045.75,0.0057
3045.50,0.0057
3045.25,0.0057
3045.00,0.0058
3044.75,0.0059
3044.50,0.0059
3044.25,0.0059
3044.00,0.0057
3043.75,0.0055
3043.50,0.0053
3043.25,0.0052
3043.00,0.0052
3042.75,0.0053
3042.50,0.0054
3042.25,0.0056
3042.00,0.0057
3041.75,0.0058
3041.50,0.0059
3041.25,0.0060
3041.00,0.0060
3040.75,0.0061
3040.50,0.0061
3040.25,0.0061
3040.00,0.0061
3039.75,0.0059
3039.50,0.0058
3039.25,0.0056
3039.00,0.0055
3038.75,0.0056
3038.50,0.0057
3038.25,0.0059
3038.00,0.0060
3037.75,0.0061
3037.50,0.0061
3037.25,0.0060
3037.00,0.0058
3036.75,0.0057
3036.50,0.0057
3036.25,0.0057
3036.00,0.0058
3035.75,0.0058
3035.50,0.0059
3035.25,0.0059
3035.00,0.0058
3034.75,0.0057
3034.50,0.0056
3034.25,0.0056
3034.00,0.0056
3033.75,0.0057
3033.50,0.0058
3033.25,0.0058
3033.00,0.0058
3032.75,0.0057
3032.50,0.0055
3032.25,0.0055
3032.00,0.0055
3031.75,0.0055
3031.50,0.0056
3031.25,0.0057
3031.00,0.0058
3030.75,0.0058
3030.50,0.0059
3030.25,0.0059
3030.00,0.0059
3029.75,0.0058
3029.50,0.0057
3029.25,0.0057
3029.00,0.0056
3028.75,0.0056
3028.50,0.0057
3028.25,0.0059
3028.00,0.0060
3027.75,0.0061
3027.50,0.0062
3027.25,0.0062
3027.00,0.0062
3026.75,0.0063
3026.50,0.0063
3026.25,0.0063
3026.00,0.0063
3025.75,0.0063
3025.50,0.0063
3025.25,0.0063
3025.00,0.0062
3024.75,0.0062
3024.50,0.0063
3024.25,0.0064
3024.00,0.0065
3023.75,0.0066
3023.50,0.0067
3023.25,0.0067
3023.00,0.0067
3022.75,0.0067
3022.50,0.0066
3022.25,0.0065
3022.00,0.0064
3021.75,0.0062
3021.50,0.0061
3021.25,0.0061
3021.00,0.0062
3020.75,0.0063
3020.50,0.0065
3020.25,0.0066
3020.00,0.0067
3019.75,0.0067
3019.50,0.0066
3019.25,0.0065
3019.00,0.0065
3018.75,0.0065
3018.50,0.0065
3018.25,0.0065
3018.00,0.0066
3017.75,0.0067
3017.50,0.0067
3017.25,0.0068
3017.00,0.0068
3016.75,0.0067
3016.50,0.0066
3016.25,0.0065
3016.00,0.0065
3015.75,0.0065
3015.50,0.0065
3015.25,0.0065
3015.00,0.0066
3014.75,0.0067
3014.50,0.0068
3014.25,0.0069
3014.00,0.0070
3013.75,0.0070
3013.50,0.0071
3013.25,0.0070
3013.00,0.0069
3012.75,0.0068
3012.50,0.0067
3012.25,0.0067
3012.00,0.0067
3011.75,0.0068
3011.50,0.0069
3011.25,0.0070
3011.00,0.0071
3010.75,0.0071
3010.50,0.0070
3010.25,0.0069
3010.00,0.0068
3009.75,0.0067
3009.50,0.0066
3009.25,0.0066
3009.00,0.0067
3008.75,0.0069
3008.50,0.0071
3008.25,0.0072
3008.00,0.0073
3007.75,0.0075
3007.50,0.0075
3007.25,0.0075
3007.00,0.0074
3006.75,0.0073
3006.50,0.0071
3006.25,0.0071
3006.00,0.0071
3005.75,0.0071
3005.50,0.0071
3005.25,0.0071
3005.00,0.0071
3004.75,0.0070
3004.50,0.0070
3004.25,0.0070
3004.00,0.0070
3003.75,0.0070
3003.50,0.0071
3003.25,0.0071
3003.00,0.0072
3002.75,0.0072
3002.50,0.0073
3002.25,0.0073
3002.00,0.0074
3001.75,0.0074
3001.50,0.0074
3001.25,0.0074
3001.00,0.0074
3000.75,0.0074
3000.50,0.0074
3000.25,0.0073
3000.00,0.0072
2999.75,0.0072
2999.50,0.0071
2999.25,0.0070
2999.00,0.0070
2998.75,0.0070
2998.50,0.0071
2998.25,0.0072
2998.00,0.0073
2997.75,0.0074
2997.50,0.0075
2997.25,0.0075
2997.00,0.0076
2996.75,0.0077
2996.50,0.0078
2996.25,0.0079
2996.00,0.0079
2995.75,0.0080
2995.50,0.0081
2995.25,0.0081
2995.00,0.0081
2994.75,0.0080
2994.50,0.0079
2994.25,0.0077
2994.00,0.0076
2993.75,0.0075
2993.50,0.0075
2993.25,0.0076
2993.00,0.0077
2992.75,0.0078
2992.50,0.0078
2992.25,0.0079
2992.00,0.0079
2991.75,0.0079
2991.50,0.0079
2991.25,0.0080
2991.00,0.0080
2990.75,0.0080
2990.50,0.0080
2990.25,0.0080
2990.00,0.0080
2989.75,0.0081
2989.50,0.0082
2989.25,0.0084
2989.00,0.0084
2988.75,0.0084
2988.50,0.0084
2988.25,0.0084
2988.00,0.0084
2987.75,0.0084
2987.50,0.0086
2987.25,0.0087
2987.00,0.0088
2986.75,0.0088
2986.50,0.0088
2986.25,0.0087
2986.00,0.0087
2985.75,0.0087
2985.50,0.0087
2985.25,0.0088
2985.00,0.0089
2984.75,0.0091
2984.50,0.0092
2984.25,0.0093
2984.00,0.0094
2983.75,0.0094
2983.50,0.0095
2983.25,0.0096
2983.00,0.0098
2982.75,0.0100
2982.50,0.0102
2982.25,0.0103
2982.00,0.0104
2981.75,0.0105
2981.50,0.0106
2981.25,0.0106
2981.00,0.0106
2980.75,0.0106
2980.50,0.0106
2980.25,0.0107
2980.00,0.0109
2979.75,0.0112
2979.50,0.0115
2979.25,0.0119
2979.00,0.0121
2978.75,0.0123
2978.50,0.0124
2978.25,0.0125
2978.00,0.0125
2977.75,0.0126
2977.50,0.0128
2977.25,0.0130
2977.00,0.0134
2976.75,0.0138
2976.50,0.0141
2976.25,0.0144
2976.00,0.0145
2975.75,0.0145
2975.50,0.0146
2975.25,0.0148
2975.00,0.0150
2974.75,0.0154
2974.50,0.0158
2974.25,0.0163
2974.00,0.0168
2973.75,0.0173
2973.50,0.0176
2973.25,0.0179
2973.00,0.0181
2972.75,0.0182
2972.50,0.0184
2972.25,0.0187
2972.00,0.0191
2971.75,0.0196
2971.50,0.0202
2971.25,0.0208
2971.00,0.0214
2970.75,0.0219
2970.50,0.0224
2970.25,0.0229
2970.00,0.0234
2969.75,0.0239
2969.50,0.0243
2969.25,0.0248
2969.00,0.0252
2968.75,0.0257
2968.50,0.0262
2968.25,0.0267
2968.00,0.0273
2967.75,0.0279
2967.50,0.0285
2967.25,0.0292
2967.00,0.0299
2966.75,0.0305
2966.50,0.0310
2966.25,0.0315
2966.00,0.0320
2965.75,0.0324
2965.50,0.0329
2965.25,0.0334
2965.00,0.0339
2964.75,0.0344
2964.50,0.0348
2964.25,0.0352
2964.00,0.0356
2963.75,0.0358
2963.50,0.0359
2963.25,0.0361
2963.00,0.0361
2962.75,0.0362
2962.50,0.0362
2962.25,0.0363
2962.00,0.0364
2961.75,0.0366
2961.50,0.0366
2961.25,0.0365
2961.00,0.0363
2960.75,0.0360
2960.50,0.0356
2960.25,0.0352
2960.00,0.0347
2959.75,0.0343
2959.50,0.0339
2959.25,0.0335
2959.00,0.0331
2958.75,0.0326
2958.50,0.0321
2958.25,0.0316
2958.00,0.0310
2957.75,0.0303
2957.50,0.0297
2957.25,0.0290
2957.00,0.0283
2956.75,0.0278
2956.50,0.0272
2956.25,0.0266
2956.00,0.0260
2955.75,0.0253
2955.50,0.0246
2955.25,0.0240
2955.00,0.0234
2954.75,0.0230
2954.50,0.0225
2954.25,0.0220
2954.00,0.0215
2953.75,0.0209
2953.50,0.0204
2953.25,0.0199
2953.00,0.0195
2952.75,0.0190
2952.50,0.0186
2952.25,0.0182
2952.00,0.0178
2951.75,0.0176
2951.50,0.0173
2951.25,0.0171
2951.00,0.0167
2950.75,0.0164
2950.50,0.0160
2950.25,0.0157
2950.00,0.0153
2949.75,0.0149
2949.50,0.0145
2949.25,0.0142
2949.00,0.0139
2948.75,0.0137
2948.50,0.0134
2948.25,0.0132
2948.00,0.0129
2947.75,0.0127
2947.50,0.0126
2947.25,0.0126
2947.00,0.0126
2946.75,0.0126
2946.50,0.0125
2946.25,0.0122
2946.00,0.0120
2945.75,0.0117
2945.50,0.0115
2945.25,0.0112
2945.00,0.0110
2944.75,0.0107
2944.50,0.0106
2944.25,0.0106
2944.00,0.0107
2943.75,0.0108
2943.50,0.0108
2943.25,0.0108
2943.00,0.0107
2942.75,0.0106
2942.50,0.0105
2942.25,0.0104
2942.00,0.0103
2941.75,0.0101
2941.50,0.0099
2941.25,0.0097
2941.00,0.0096
2940.75,0.0095
2940.50,0.0095
2940.25,0.0094
2940.00,0.0094
2939.75,0.0093
2939.50,0.0092
2939.25,0.0091
2939.00,0.0090
2938.75,0.0089
2938.50,0.0088
2938.25,0.0088
2938.00,0.0088
2937.75,0.0088
2937.50,0.0088
2937.25,0.0088
2937.00,0.0089
2936.75,0.0089
2936.50,0.0089
2936.25,0.0089
2936.00,0.0088
2935.75,0.0086
2935.50,0.0085
2935.25,0.0084
2935.00,0.0083
2934.75,0.0082
2934.50,0.0082
2934.25,0.0082
2934.00,0.0083
2933.75,0.0084
2933.50,0.0084
2933.25,0.0084
2933.00,0.0084
2932.75,0.0085
2932.50,0.0086
2932.25,0.0087
2932.00,0.0087
2931.75,0.0087
2931.50,0.0085
2931.25,0.0083
2931.00,0.0081
2930.75,0.0079
2930.50,0.0079
2930.25,0.0078
2930.00,0.0078
2929.75,0.0078
2929.50,0.0077
2929.25,0.0077
2929.00,0.0077
2928.75,0.0077
2928.50,0.0077
2928.25,0.0077
2928.00,0.0078
2927.75,0.0079
2927.50,0.0080
2927.25,0.0079
2927.00,0.0078
2926.75,0.0076
2926.50,0.0075
2926.25,0.0075
2926.00,0.0076
2925.75,0.0078
2925.50,0.0080
2925.25,0.0080
2925.00,0.0080
2924.75,0.0079
2924.50,0.0079
2924.25,0.0078
2924.00,0.0078
2923.75,0.0078
2923.50,0.0078
2923.25,0.0078
2923.00,0.0078
2922.75,0.0078
2922.50,0.0079
2922.25,0.0080
2922.00,0.0080
2921.75,0.0080
2921.50,0.0080
2921.25,0.0081
2921.00,0.0082
2920.75,0.0082
2920.50,0.0083
2920.25,0.0082
2920.00,0.0082
2919.75,0.0081
2919.50,0.0081
2919.25,0.0081
2919.00,0.0081
2918.75,0.0082
2918.50,0.0082
2918.25,0.0082
2918.00,0.0083
2917.75,0.0084
2917.50,0.0085
2917.25,0.0086
2917.00,0.0086
2916.75,0.0086
2916.50,0.0085
2916.25,0.0085
2916.00,0.0084
2915.75,0.0082
2915.50,0.0082
2915.25,0.0082
2915.00,0.0084
2914.75,0.0086
2914.50,0.0087
2914.25,0.0089
2914.00,0.0089
2913.75,0.0089
2913.50,0.0089
2913.25,0.0089
2913.00,0.0089
2912.75,0.0089
2912.50,0.0089
2912.25,0.0090
2912.00,0.0091
2911.75,0.0092
2911.50,0.0094
2911.25,0.0095
2911.00,0.0095
2910.75,0.0094
2910.50,0.0094
2910.25,0.0094
2910.00,0.0095
2909.75,0.0096
2909.50,0.0096
2909.25,0.0095
2909.00,0.0094
2908.75,0.0093
2908.50,0.0094
2908.25,0.0096
2908.00,0.0098
2907.75,0.0100
2907.50,0.0102
2907.25,0.0103
2907.00,0.0104
2906.75,0.0105
2906.50,0.0107
2906.25,0.0108
2906.00,0.0109
2905.75,0.0108
2905.50,0.0107
2905.25,0.0106
2905.00,0.0106
2904.75,0.0105
2904.50,0.0105
2904.25,0.0105
2904.00,0.0104
2903.75,0.0104
2903.50,0.0103
2903.25,0.0103
2903.00,0.0102
2902.75,0.0102
2902.50,0.0102
2902.25,0.0103
2902.00,0.0103
2901.75,0.0103
2901.50,0.0102
2901.25,0.0101
2901.00,0.0101
2900.75,0.0100
2900.50,0.0100
2900.25,0.0101
2900.00,0.0101
2899.75,0.0102
2899.50,0.0102
2899.25,0.0102
2899.00,0.0101
2898.75,0.0099
2898.50,0.0098
2898.25,0.0096
2898.00,0.0094
2897.75,0.0094
2897.50,0.0093
2897.25,0.0093
2897.00,0.0093
2896.75,0.0092
2896.50,0.0091
2896.25,0.0090
2896.00,0.0089
2895.75,0.0089
2895.50,0.0089
2895.25,0.0089
2895.00,0.0089
2894.75,0.0089
2894.50,0.0089
2894.25,0.0088
2894.00,0.0087
2893.75,0.0087
2893.50,0.0086
2893.25,0.0087
2893.00,0.0087
2892.75,0.0087
2892.50,0.0087
2892.25,0.0086
2892.00,0.0085
2891.75,0.0084
2891.50,0.0084
2891.25,0.0083
2891.00,0.0083
2890.75,0.0082
2890.50,0.0080
2890.25,0.0078
2890.00,0.0077
2889.75,0.0075
2889.50,0.0074
2889.25,0.0074
2889.00,0.0075
2888.75,0.0076
2888.50,0.0077
2888.25,0.0078
2888.00,0.0078
2887.75,0.0078
2887.50,0.0078
2887.25,0.0078
2887.00,0.0078
2886.75,0.0078
2886.50,0.0077
2886.25,0.0077
2886.00,0.0077
2885.75,0.0076
2885.50,0.0075
2885.25,0.0074
2885.00,0.0074
2884.75,0.0074
2884.50,0.0075
2884.25,0.0076
2884.00,0.0076
2883.75,0.0076
2883.50,0.0076
2883.25,0.0075
2883.00,0.0075
2882.75,0.0075
2882.50,0.0076
2882.25,0.0077
2882.00,0.0077
2881.75,0.0077
2881.50,0.0077
2881.25,0.0076
2881.00,0.0076
2880.75,0.0075
2880.50,0.0075
2880.25,0.0075
2880.00,0.0075
2879.75,0.0075
2879.50,0.0074
2879.25,0.0073
2879.00,0.0072
2878.75,0.0071
2878.50,0.0071
2878.25,0.0072
2878.00,0.0073
2877.75,0.0074
2877.50,0.0074
2877.25,0.0073
2877.00,0.0072
2876.75,0.0071
2876.50,0.0071
2876.25,0.0071
2876.00,0.0071
2875.75,0.0070
2875.50,0.0070
2875.25,0.0070
2875.00,0.0070
2874.75,0.0070
2874.50,0.0070
2874.25,0.0070
2874.00,0.0069
2873.75,0.0068
2873.50,0.0068
2873.25,0.0067
2873.00,0.0067
2872.75,0.0067
2872.50,0.0067
2872.25,0.0068
2872.00,0.0069
2871.75,0.0070
2871.50,0.0071
2871.25,0.0070
2871.00,0.0070
2870.75,0.0070
2870.50,0.0070
2870.25,0.0071
2870.00,0.0071
2869.75,0.0070
2869.50,0.0070
2869.25,0.0069
2869.00,0.0069
2868.75,0.0069
2868.50,0.0070
2868.25,0.0071
2868.00,0.0072
2867.75,0.0071
2867.50,0.0071
2867.25,0.0070
2867.00,0.0069
2866.75,0.0069
2866.50,0.0068
2866.25,0.0068
2866.00,0.0069
2865.75,0.0070
2865.50,0.0071
2865.25,0.0072
2865.00,0.0073
2864.75,0.0073
2864.50,0.0072
2864.25,0.0071
2864.00,0.0070
2863.75,0.0070
2863.50,0.0070
2863.25,0.0071
2863.00,0.0072
2862.75,0.0072
2862.50,0.0072
2862.25,0.0071
2862.00,0.0070
2861.75,0.0069
2861.50,0.0069
2861.25,0.0070
2861.00,0.0070
2860.75,0.0070
2860.50,0.0069
2860.25,0.0068
2860.00,0.0067
2859.75,0.0067
2859.50,0.0067
2859.25,0.0067
2859.00,0.0068
2858.75,0.0068
2858.50,0.0069
2858.25,0.0069
2858.00,0.0069
2857.75,0.0070
2857.50,0.0071
2857.25,0.0071
2857.00,0.0071
2856.75,0.0071
2856.50,0.0069
2856.25,0.0068
2856.00,0.0066
2855.75,0.0065
2855.50,0.0065
2855.25,0.0065
2855.00,0.0066
2854.75,0.0068
2854.50,0.0069
2854.25,0.0070
2854.00,0.0071
2853.75,0.0070
2853.50,0.0069
2853.25,0.0069
2853.00,0.0068
2852.75,0.0067
2852.50,0.0065
2852.25,0.0064
2852.00,0.0064
2851.75,0.0064
2851.50,0.0065
2851.25,0.0067
2851.00,0.0069
2850.75,0.0070
2850.50,0.0071
2850.25,0.0071
2850.00,0.0071
2849.75,0.0070
2849.50,0.0069
2849.25,0.0069
2849.00,0.0069
2848.75,0.0069
2848.50,0.0069
2848.25,0.0068
2848.00,0.0067
2847.75,0.0067
2847.50,0.0067
2847.25,0.0067
2847.00,0.0068
2846.75,0.0069
2846.50,0.0069
2846.25,0.0068
2846.00,0.0068
2845.75,0.0067
2845.50,0.0067
2845.25,0.0067
2845.00,0.0067
2844.75,0.0067
2844.50,0.0067
2844.25,0.0067
2844.00,0.0067
2843.75,0.0068
2843.50,0.0068
2843.25,0.0069
2843.00,0.0069
2842.75,0.0070
2842.50,0.0070
2842.25,0.0070
2842.00,0.0070
2841.75,0.0069
2841.50,0.0067
2841.25,0.0066
2841.00,0.0065
2840.75,0.0066
2840.50,0.0067
2840.25,0.0068
2840.00,0.0068
2839.75,0.0068
2839.50,0.0067
2839.25,0.0066
2839.00,0.0065
2838.75,0.0065
2838.50,0.0066
2838.25,0.0068
2838.00,0.0070
2837.75,0.0072
2837.50,0.0073
2837.25,0.0073
2837.00,0.0072
2836.75,0.0071
2836.50,0.0069
2836.25,0.0067
2836.00,0.0066
2835.75,0.0065
2835.50,0.0065
2835.25,0.0067
2835.00,0.0069
2834.75,0.0070
2834.50,0.0070
2834.25,0.0070
2834.00,0.0070
2833.75,0.0070
2833.50,0.0070
2833.25,0.0070
2833.00,0.0069
2832.75,0.0069
2832.50,0.0069
2832.25,0.0069
2832.00,0.0069
2831.75,0.0068
2831.50,0.0067
2831.25,0.0067
2831.00,0.0067
2830.75,0.0066
2830.50,0.0066
2830.25,0.0066
2830.00,0.0066
2829.75,0.0068
2829.50,0.0069
2829.25,0.0070
2829.00,0.0071
2828.75,0.0071
2828.50,0.0070
2828.25,0.0069
2828.00,0.0068
2827.75,0.0068
2827.50,0.0068
2827.25,0.0068
2827.00,0.0068
2826.75,0.0069
2826.50,0.0070
2826.25,0.0070
2826.00,0.0071
2825.75,0.0070
2825.50,0.0070
2825.25,0.0070
2825.00,0.0070
2824.75,0.0070
2824.50,0.0070
2824.25,0.0069
2824.00,0.0068
2823.75,0.0067
2823.50,0.0067
2823.25,0.0067
2823.00,0.0067
2822.75,0.0066
2822.50,0.0066
2822.25,0.0066
2822.00,0.0067
2821.75,0.0069
2821.50,0.0071
2821.25,0.0071
2821.00,0.0071
2820.75,0.0070
2820.50,0.0069
2820.25,0.0068
2820.00,0.0069
2819.75,0.0069
2819.50,0.0070
2819.25,0.0070
2819.00,0.0070
2818.75,0.0069
2818.50,0.0069
2818.25,0.0067
2818.00,0.0066
2817.75,0.0065
2817.50,0.0065
2817.25,0.0065
2817.00,0.0066
2816.75,0.0067
2816.50,0.0068
2816.25,0.0069
2816.00,0.0069
2815.75,0.0070
2815.50,0.0070
2815.25,0.0070
2815.00,0.0070
2814.75,0.0070
2814.50,0.0070
2814.25,0.0070
2814.00,0.0070
2813.75,0.0071
2813.50,0.0072
2813.25,0.0072
2813.00,0.0072
2812.75,0.0072
2812.50,0.0071
2812.25,0.0069
2812.00,0.0068
2811.75,0.0068
2811.50,0.0068
2811.25,0.0067
2811.00,0.0067
2810.75,0.0067
2810.50,0.0068
2810.25,0.0069
2810.00,0.0070
2809.75,0.0072
2809.50,0.0073
2809.25,0.0073
2809.00,0.0073
2808.75,0.0072
2808.50,0.0070
2808.25,0.0068
2808.00,0.0066
2807.75,0.0065
2807.50,0.0065
2807.25,0.0066
2807.00,0.0067
2806.75,0.0068
2806.50,0.0069
2806.25,0.0069
2806.00,0.0069
2805.75,0.0069
2805.50,0.0069
2805.25,0.0069
2805.00,0.0069
2804.75,0.0069
2804.50,0.0070
2804.25,0.0070
2804.00,0.0070
2803.75,0.0069
2803.50,0.0069
2803.25,0.0068
2803.00,0.0067
2802.75,0.0067
2802.50,0.0067
2802.25,0.0068
2802.00,0.0069
2801.75,0.0069
2801.50,0.0069
2801.25,0.0067
2801.00,0.0066
2800.75,0.0065
2800.50,0.0066
2800.25,0.0067
2800.00,0.0068
2799.75,0.0069
2799.50,0.0069
2799.25,0.0070
2799.00,0.0069
2798.75,0.0068
2798.50,0.0067
2798.25,0.0066
2798.00,0.0065
2797.75,0.0065
2797.50,0.0066
2797.25,0.0068
2797.00,0.0070
2796.75,0.0071
2796.50,0.0071
2796.25,0.0071
2796.00,0.0071
2795.75,0.0070
2795.50,0.0068
2795.25,0.0067
2795.00,0.0067
2794.75,0.0068
2794.50,0.0069
2794.25,0.0070
2794.00,0.0070
2793.75,0.0070
2793.50,0.0069
2793.25,0.0068
2793.00,0.0067
2792.75,0.0067
2792.50,0.0068
2792.25,0.0068
2792.00,0.0069
2791.75,0.0069
2791.50,0.0068
2791.25,0.0068
2791.00,0.0068
2790.75,0.0068
2790.50,0.0068
2790.25,0.0069
2790.00,0.0069
2789.75,0.0069
2789.50,0.0069
2789.25,0.0069
2789.00,0.0069
2788.75,0.0069
2788.50,0.0069
2788.25,0.0069
2788.00,0.0069
2787.75,0.0069
2787.50,0.0069
2787.25,0.0069
2787.00,0.0069
2786.75,0.0068
2786.50,0.0067
2786.25,0.0065
2786.00,0.0065
2785.75,0.0064
2785.50,0.0063
2785.25,0.0063
2785.00,0.0064
2784.75,0.0064
2784.50,0.0065
2784.25,0.0066
2784.00,0.0066
2783.75,0.0067
2783.50,0.0067
2783.25,0.0067
2783.00,0.0067
2782.75,0.0067
2782.50,0.0066
2782.25,0.0066
2782.00,0.0065
2781.75,0.0064
2781.50,0.0064
2781.25,0.0063
2781.00,0.0064
2780.75,0.0065
2780.50,0.0067
2780.25,0.0068
2780.00,0.0069
2779.75,0.0069
2779.50,0.0069
2779.25,0.0068
2779.00,0.0066
2778.75,0.0065
2778.50,0.0064
2778.25,0.0064
2778.00,0.0064
2777.75,0.0065
2777.50,0.0064
2777.25,0.0064
2777.00,0.0063
2776.75,0.0063
2776.50,0.0063
2776.25,0.0063
2776.00,0.0063
2775.75,0.0062
2775.50,0.0062
2775.25,0.0062
2775.00,0.0063
2774.75,0.0064
2774.50,0.0065
2774.25,0.0065
2774.00,0.0065
2773.75,0.0064
2773.50,0.0064
2773.25,0.0064
2773.00,0.0064
2772.75,0.0065
2772.50,0.0065
2772.25,0.0066
2772.00,0.0066
2771.75,0.0066
2771.50,0.0065
2771.25,0.0065
2771.00,0.0064
2770.75,0.0064
2770.50,0.0064
2770.25,0.0065
2770.00,0.0066
2769.75,0.0067
2769.50,0.0067
2769.25,0.0066
2769.00,0.0065
2768.75,0.0064
2768.50,0.0064
2768.25,0.0064
2768.00,0.0065
2767.75,0.0065
2767.50,0.0065
2767.25,0.0065
2767.00,0.0065
2766.75,0.0065
2766.50,0.0065
2766.25,0.0065
2766.00,0.0065
2765.75,0.0065
2765.50,0.0065
2765.25,0.0065
2765.00,0.0066
2764.75,0.0066
2764.50,0.0067
2764.25,0.0067
2764.00,0.0067
2763.75,0.0068
2763.50,0.0067
2763.25,0.0067
2763.00,0.0066
2762.75,0.0065
2762.50,0.0064
2762.25,0.0063
2762.00,0.0063
2761.75,0.0063
2761.50,0.0062
2761.25,0.0062
2761.00,0.0062
2760.75,0.0062
2760.50,0.0062
2760.25,0.0062
2760.00,0.0062
2759.75,0.0062
2759.50,0.0062
2759.25,0.0061
2759.00,0.0060
2758.75,0.0060
2758.50,0.0060
2758.25,0.0059
2758.00,0.0059
2757.75,0.0059
2757.50,0.0060
2757.25,0.0060
2757.00,0.0060
2756.75,0.0061
2756.50,0.0062
2756.25,0.0062
2756.00,0.0063
2755.75,0.0063
2755.50,0.0064
2755.25,0.0064
2755.00,0.0064
2754.75,0.0064
2754.50,0.0064
2754.25,0.0063
2754.00,0.0062
2753.75,0.0061
2753.50,0.0061
2753.25,0.0060
2753.00,0.0060
2752.75,0.0061
2752.50,0.0061
2752.25,0.0061
2752.00,0.0061
2751.75,0.0061
2751.50,0.0061
2751.25,0.0061
2751.00,0.0061
2750.75,0.0060
2750.50,0.0059
2750.25,0.0058
2750.00,0.0058
2749.75,0.0058
2749.50,0.0058
2749.25,0.0057
2749.00,0.0057
2748.75,0.0058
2748.50,0.0060
2748.25,0.0061
2748.00,0.0062
2747.75,0.0063
2747.50,0.0063
2747.25,0.0063
2747.00,0.0063
2746.75,0.0062
2746.50,0.0062
2746.25,0.0061
2746.00,0.0061
2745.75,0.0061
2745.50,0.0061
2745.25,0.0062
2745.00,0.0063
2744.75,0.0063
2744.50,0.0062
2744.25,0.0061
2744.00,0.0060
2743.75,0.0058
2743.50,0.0058
2743.25,0.0058
2743.00,0.0059
2742.75,0.0061
2742.50,0.0062
2742.25,0.0063
2742.00,0.0064
2741.75,0.0064
2741.50,0.0064
2741.25,0.0064
2741.00,0.0063
2740.75,0.0062
2740.50,0.0062
2740.25,0.0061
2740.00,0.0062
2739.75,0.0062
2739.50,0.0062
2739.25,0.0062
2739.00,0.0062
2738.75,0.0061
2738.50,0.0061
2738.25,0.0061
2738.00,0.0061
2737.75,0.0061
2737.50,0.0061
2737.25,0.0061
2737.00,0.0060
2736.75,0.0060
2736.50,0.0060
2736.25,0.0061
2736.00,0.0062
2735.75,0.0063
2735.50,0.0064
2735.25,0.0065
2735.00,0.0065
2734.75,0.0065
2734.50,0.0064
2734.25,0.0063
2734.00,0.0062
2733.75,0.0061
2733.50,0.0061
2733.25,0.0060
2733.00,0.0060
2732.75,0.0061
2732.50,0.0061
2732.25,0.0062
2732.00,0.0062
2731.75,0.0063
2731.50,0.0063
2731.25,0.0063
2731.00,0.0063
2730.75,0.0062
2730.50,0.0061
2730.25,0.0061
2730.00,0.0061
2729.75,0.0061
2729.50,0.0061
2729.25,0.0061
2729.00,0.0061
2728.75,0.0061
2728.50,0.0060
2728.25,0.0060
2728.00,0.0061
2727.75,0.0061
2727.50,0.0061
2727.25,0.0062
2727.00,0.0062
2726.75,0.0062
2726.50,0.0062
2726.25,0.0063
2726.00,0.0063
2725.75,0.0063
2725.50,0.0062
2725.25,0.0062
2725.00,0.0062
2724.75,0.0061
2724.50,0.0061
2724.25,0.0060
2724.00,0.0060
2723.75,0.0059
2723.50,0.0059
2723.25,0.0059
2723.00,0.0060
2722.75,0.0061
2722.50,0.0062
2722.25,0.0062
2722.00,0.0062
2721.75,0.0061
2721.50,0.0061
2721.25,0.0060
2721.00,0.0060
2720.75,0.0060
2720.50,0.0061
2720.25,0.0062
2720.00,0.0063
2719.75,0.0063
2719.50,0.0063
2719.25,0.0063
2719.00,0.0062
2718.75,0.0062
2718.50,0.0062
2718.25,0.0063
2718.00,0.0064
2717.75,0.0064
2717.50,0.0062
2717.25,0.0060
2717.00,0.0059
2716.75,0.0058
2716.50,0.0058
2716.25,0.0059
2716.00,0.0061
2715.75,0.0062
2715.50,0.0063
2715.25,0.0063
2715.00,0.0063
2714.75,0.0063
2714.50,0.0062
2714.25,0.0063
2714.00,0.0063
2713.75,0.0064
2713.50,0.0065
2713.25,0.0065
2713.00,0.0065
2712.75,0.0064
2712.50,0.0063
2712.25,0.0062
2712.00,0.0061
2711.75,0.0060
2711.50,0.0060
2711.25,0.0061
2711.00,0.0062
2710.75,0.0062
2710.50,0.0062
2710.25,0.0062
2710.00,0.0062
2709.75,0.0062
2709.50,0.0062
2709.25,0.0062
2709.00,0.0062
2708.75,0.0062
2708.50,0.0063
2708.25,0.0063
2708.00,0.0063
2707.75,0.0063
2707.50,0.0063
2707.25,0.0062
2707.00,0.0061
2706.75,0.0060
2706.50,0.0060
2706.25,0.0059
2706.00,0.0059
2705.75,0.0059
2705.50,0.0060
2705.25,0.0060
2705.00,0.0061
2704.75,0.0061
2704.50,0.0061
2704.25,0.0061
2704.00,0.0061
2703.75,0.0061
2703.50,0.0060
2703.25,0.0061
2703.00,0.0061
2702.75,0.0062
2702.50,0.0062
2702.25,0.0062
2702.00,0.0062
2701.75,0.0062
2701.50,0.0061
2701.25,0.0061
2701.00,0.0061
2700.75,0.0060
2700.50,0.0059
2700.25,0.0059
2700.00,0.0059
2699.75,0.0060
2699.50,0.0060
2699.25,0.0060
2699.00,0.0059
2698.75,0.0059
2698.50,0.0060
2698.25,0.0061
2698.00,0.0061
2697.75,0.0061
2697.50,0.0061
2697.25,0.0061
2697.00,0.0061
2696.75,0.0061
2696.50,0.0061
2696.25,0.0061
2696.00,0.0061
2695.75,0.0061
2695.50,0.0060
2695.25,0.0060
2695.00,0.0062
2694.75,0.0063
2694.50,0.0065
2694.25,0.0066
2694.00,0.0065
2693.75,0.0065
2693.50,0.0063
2693.25,0.0062
2693.00,0.0061
2692.75,0.0061
2692.50,0.0061
2692.25,0.0062
2692.00,0.0062
2691.75,0.0063
2691.50,0.0064
2691.25,0.0064
2691.00,0.0063
2690.75,0.0062
2690.50,0.0061
2690.25,0.0061
2690.00,0.0061
2689.75,0.0062
2689.50,0.0062
2689.25,0.0063
2689.00,0.0063
2688.75,0.0063
2688.50,0.0063
2688.25,0.0063
2688.00,0.0063
2687.75,0.0063
2687.50,0.0063
2687.25,0.0063
2687.00,0.0063
2686.75,0.0064
2686.50,0.0064
2686.25,0.0064
2686.00,0.0064
2685.75,0.0063
2685.50,0.0062
2685.25,0.0061
2685.00,0.0060
2684.75,0.0059
2684.50,0.0058
2684.25,0.0058
2684.00,0.0059
2683.75,0.0061
2683.50,0.0062
2683.25,0.0063
2683.00,0.0063
2682.75,0.0063
2682.50,0.0063
2682.25,0.0063
2682.00,0.0063
2681.75,0.0062
2681.50,0.0062
2681.25,0.0061
2681.00,0.0060
2680.75,0.0060
2680.50,0.0060
2680.25,0.0060
2680.00,0.0061
2679.75,0.0061
2679.50,0.0062
2679.25,0.0062
2679.00,0.0062
2678.75,0.0061
2678.50,0.0060
2678.25,0.0060
2678.00,0.0060
2677.75,0.0061
2677.50,0.0061
2677.25,0.0062
2677.00,0.0063
2676.75,0.0063
2676.50,0.0064
2676.25,0.0064
2676.00,0.0064
2675.75,0.0063
2675.50,0.0061
2675.25,0.0060
2675.00,0.0059
2674.75,0.0059
2674.50,0.0060
2674.25,0.0062
2674.00,0.0063
2673.75,0.0063
2673.50,0.0063
2673.25,0.0064
2673.00,0.0063
2672.75,0.0063
2672.50,0.0063
2672.25,0.0062
2672.00,0.0062
2671.75,0.0062
2671.50,0.0062
2671.25,0.0062
2671.00,0.0063
2670.75,0.0062
2670.50,0.0062
2670.25,0.0062
2670.00,0.0062
2669.75,0.0063
2669.50,0.0063
2669.25,0.0063
2669.00,0.0062
2668.75,0.0062
2668.50,0.0061
2668.25,0.0060
2668.00,0.0059
2667.75,0.0059
2667.50,0.0060
2667.25,0.0061
2667.00,0.0062
2666.75,0.0062
2666.50,0.0063
2666.25,0.0063
2666.00,0.0063
2665.75,0.0064
2665.50,0.0063
2665.25,0.0063
2665.00,0.0062
2664.75,0.0062
2664.50,0.0061
2664.25,0.0061
2664.00,0.0061
2663.75,0.0061
2663.50,0.0061
2663.25,0.0061
2663.00,0.0060
2662.75,0.0061
2662.50,0.0061
2662.25,0.0062
2662.00,0.0063
2661.75,0.0063
2661.50,0.0064
2661.25,0.0064
2661.00,0.0065
2660.75,0.0065
2660.50,0.0064
2660.25,0.0063
2660.00,0.0062
2659.75,0.0062
2659.50,0.0062
2659.25,0.0061
2659.00,0.0061
2658.75,0.0061
2658.50,0.0061
2658.25,0.0062
2658.00,0.0064
2657.75,0.0065
2657.50,0.0066
2657.25,0.0065
2657.00,0.0064
2656.75,0.0063
2656.50,0.0063
2656.25,0.0063
2656.00,0.0063
2655.75,0.0064
2655.50,0.0064
2655.25,0.0064
2655.00,0.0064
2654.75,0.0063
2654.50,0.0063
2654.25,0.0063
2654.00,0.0063
2653.75,0.0064
2653.50,0.0065
2653.25,0.0066
2653.00,0.0066
2652.75,0.0066
2652.50,0.0065
2652.25,0.0064
2652.00,0.0063
2651.75,0.0061
2651.50,0.0061
2651.25,0.0061
2651.00,0.0061
2650.75,0.0060
2650.50,0.0060
2650.25,0.0061
2650.00,0.0062
2649.75,0.0063
2649.50,0.0064
2649.25,0.0064
2649.00,0.0063
2648.75,0.0063
2648.50,0.0062
2648.25,0.0062
2648.00,0.0061
2647.75,0.0061
2647.50,0.0062
2647.25,0.0062
2647.00,0.0062
2646.75,0.0062
2646.50,0.0062
2646.25,0.0062
2646.00,0.0062
2645.75,0.0062
2645.50,0.0062
2645.25,0.0061
2645.00,0.0061
2644.75,0.0060
2644.50,0.0060
2644.25,0.0059
2644.00,0.0059
2643.75,0.0058
2643.50,0.0058
2643.25,0.0058
2643.00,0.0059
2642.75,0.0060
2642.50,0.0061
2642.25,0.0061
2642.00,0.0060
2641.75,0.0060
2641.50,0.0061
2641.25,0.0062
2641.00,0.0062
2640.75,0.0062
2640.50,0.0061
2640.25,0.0061
2640.00,0.0061
2639.75,0.0062
2639.50,0.0063
2639.25,0.0063
2639.00,0.0063
2638.75,0.0062
2638.50,0.0061
2638.25,0.0061
2638.00,0.0060
2637.75,0.0061
2637.50,0.0061
2637.25,0.0060
2637.00,0.0060
2636.75,0.0059
2636.50,0.0059
2636.25,0.0058
2636.00,0.0058
2635.75,0.0058
2635.50,0.0059
2635.25,0.0060
2635.00,0.0062
2634.75,0.0063
2634.50,0.0063
2634.25,0.0063
2634.00,0.0061
2633.75,0.0060
2633.50,0.0060
2633.25,0.0061
2633.00,0.0061
2632.75,0.0062
2632.50,0.0063
2632.25,0.0063
2632.00,0.0063
2631.75,0.0064
2631.50,0.0064
2631.25,0.0064
2631.00,0.0064
2630.75,0.0063
2630.50,0.0063
2630.25,0.0062
2630.00,0.0061
2629.75,0.0060
2629.50,0.0060
2629.25,0.0060
2629.00,0.0060
2628.75,0.0060
2628.50,0.0060
2628.25,0.0060
2628.00,0.0059
2627.75,0.0059
2627.50,0.0059
2627.25,0.0060
2627.00,0.0061
2626.75,0.0063
2626.50,0.0064
2626.25,0.0065
2626.00,0.0066
2625.75,0.0065
2625.50,0.0064
2625.25,0.0063
2625.00,0.0062
2624.75,0.0061
2624.50,0.0060
2624.25,0.0059
2624.00,0.0058
2623.75,0.0058
2623.50,0.0058
2623.25,0.0058
2623.00,0.0058
2622.75,0.0059
2622.50,0.0060
2622.25,0.0060
2622.00,0.0060
2621.75,0.0059
2621.50,0.0060
2621.25,0.0060
2621.00,0.0061
2620.75,0.0062
2620.50,0.0062
2620.25,0.0061
2620.00,0.0061
2619.75,0.0061
2619.50,0.0062
2619.25,0.0063
2619.00,0.0064
2618.75,0.0064
2618.50,0.0063
2618.25,0.0063
2618.00,0.0063
2617.75,0.0063
2617.50,0.0063
2617.25,0.0062
2617.00,0.0061
2616.75,0.0059
2616.50,0.0058
2616.25,0.0058
2616.00,0.0059
2615.75,0.0060
2615.50,0.0061
2615.25,0.0063
2615.00,0.0064
2614.75,0.0064
2614.50,0.0064
2614.25,0.0064
2614.00,0.0064
2613.75,0.0064
2613.50,0.0063
2613.25,0.0062
2613.00,0.0060
2612.75,0.0058
2612.50,0.0058
2612.25,0.0057
2612.00,0.0058
2611.75,0.0058
2611.50,0.0059
2611.25,0.0060
2611.00,0.0061
2610.75,0.0061
2610.50,0.0061
2610.25,0.0060
2610.00,0.0060
2609.75,0.0060
2609.50,0.0061
2609.25,0.0062
2609.00,0.0063
2608.75,0.0064
2608.50,0.0063
2608.25,0.0061
2608.00,0.0059
2607.75,0.0057
2607.50,0.0056
2607.25,0.0056
2607.00,0.0057
2606.75,0.0059
2606.50,0.0060
2606.25,0.0061
2606.00,0.0062
2605.75,0.0064
2605.50,0.0065
2605.25,0.0066
2605.00,0.0067
2604.75,0.0067
2604.50,0.0066
2604.25,0.0065
2604.00,0.0063
2603.75,0.0062
2603.50,0.0062
2603.25,0.0062
2603.00,0.0064
2602.75,0.0066
2602.50,0.0066
2602.25,0.0065
2602.00,0.0062
2601.75,0.0059
2601.50,0.0056
2601.25,0.0054
2601.00,0.0053
2600.75,0.0053
2600.50,0.0054
2600.25,0.0056
2600.00,0.0058
2599.75,0.0059
2599.50,0.0059
2599.25,0.0059
2599.00,0.0057
2598.75,0.0055
2598.50,0.0055
2598.25,0.0055
2598.00,0.0057
2597.75,0.0059
2597.50,0.0061
2597.25,0.0062
2597.00,0.0062
2596.75,0.0062
2596.50,0.0062
2596.25,0.0062
2596.00,0.0062
2595.75,0.0061
2595.50,0.0060
2595.25,0.0058
2595.00,0.0056
2594.75,0.0055
2594.50,0.0055
2594.25,0.0055
2594.00,0.0056
2593.75,0.0057
2593.50,0.0057
2593.25,0.0057
2593.00,0.0058
2592.75,0.0058
2592.50,0.0059
2592.25,0.0059
2592.00,0.0059
2591.75,0.0058
2591.50,0.0057
2591.25,0.0057
2591.00,0.0057
2590.75,0.0057
2590.50,0.0058
2590.25,0.0059
2590.00,0.0060
2589.75,0.0060
2589.50,0.0061
2589.25,0.0062
2589.00,0.0062
2588.75,0.0063
2588.50,0.0063
2588.25,0.0063
2588.00,0.0063
2587.75,0.0063
2587.50,0.0063
2587.25,0.0062
2587.00,0.0060
2586.75,0.0058
2586.50,0.0057
2586.25,0.0057
2586.00,0.0058
2585.75,0.0058
2585.50,0.0058
2585.25,0.0057
2585.00,0.0056
2584.75,0.0055
2584.50,0.0055
2584.25,0.0056
2584.00,0.0056
2583.75,0.0056
2583.50,0.0055
2583.25,0.0054
2583.00,0.0056
2582.75,0.0058
2582.50,0.0059
2582.25,0.0059
2582.00,0.0058
2581.75,0.0057
2581.50,0.0055
2581.25,0.0054
2581.00,0.0055
2580.75,0.0056
2580.50,0.0057
2580.25,0.0059
2580.00,0.0060
2579.75,0.0062
2579.50,0.0063
2579.25,0.0064
2579.00,0.0064
2578.75,0.0063
2578.50,0.0062
2578.25,0.0060
2578.00,0.0057
2577.75,0.0055
2577.50,0.0054
2577.25,0.0053
2577.00,0.0054
2576.75,0.0055
2576.50,0.0058
2576.25,0.0060
2576.00,0.0061
2575.75,0.0062
2575.50,0.0062
2575.25,0.0063
2575.00,0.0063
2574.75,0.0063
2574.50,0.0062
2574.25,0.0061
2574.00,0.0060
2573.75,0.0060
2573.50,0.0060
2573.25,0.0060
2573.00,0.0061
2572.75,0.0061
2572.50,0.0060
2572.25,0.0060
2572.00,0.0061
2571.75,0.0062
2571.50,0.0064
2571.25,0.0063
2571.00,0.0062
2570.75,0.0059
2570.50,0.0057
2570.25,0.0056
2570.00,0.0056
2569.75,0.0056
2569.50,0.0057
2569.25,0.0059
2569.00,0.0060
2568.75,0.0061
2568.50,0.0060
2568.25,0.0059
2568.00,0.0057
2567.75,0.0055
2567.50,0.0055
2567.25,0.0055
2567.00,0.0056
2566.75,0.0057
2566.50,0.0057
2566.25,0.0059
2566.00,0.0061
2565.75,0.0062
2565.50,0.0062
2565.25,0.0061
2565.00,0.0059
2564.75,0.0057
2564.50,0.0056
2564.25,0.0056
2564.00,0.0057
2563.75,0.0060
2563.50,0.0063
2563.25,0.0064
2563.00,0.0064
2562.75,0.0063
2562.50,0.0062
2562.25,0.0061
2562.00,0.0059
2561.75,0.0058
2561.50,0.0056
2561.25,0.0055
2561.00,0.0055
2560.75,0.0057
2560.50,0.0059
2560.25,0.0059
2560.00,0.0059
2559.75,0.0058
2559.50,0.0058
2559.25,0.0059
2559.00,0.0061
2558.75,0.0061
2558.50,0.0061
2558.25,0.0060
2558.00,0.0059
2557.75,0.0059
2557.50,0.0060
2557.25,0.0060
2557.00,0.0060
2556.75,0.0060
2556.50,0.0060
2556.25,0.0060
2556.00,0.0060
2555.75,0.0060
2555.50,0.0061
2555.25,0.0060
2555.00,0.0059
2554.75,0.0056
2554.50,0.0054
2554.25,0.0052
2554.00,0.0052
2553.75,0.0053
2553.50,0.0053
2553.25,0.0053
2553.00,0.0053
2552.75,0.0053
2552.50,0.0054
2552.25,0.0056
2552.00,0.0058
2551.75,0.0059
2551.50,0.0060
2551.25,0.0059
2551.00,0.0059
2550.75,0.0059
2550.50,0.0060
2550.25,0.0060
2550.00,0.0060
2549.75,0.0060
2549.50,0.0060
2549.25,0.0058
2549.00,0.0056
2548.75,0.0053
2548.50,0.0052
2548.25,0.0052
2548.00,0.0054
2547.75,0.0056
2547.50,0.0057
2547.25,0.0057
2547.00,0.0056
2546.75,0.0055
2546.50,0.0056
2546.25,0.0059
2546.00,0.0062
2545.75,0.0065
2545.50,0.0066
2545.25,0.0065
2545.00,0.0062
2544.75,0.0058
2544.50,0.0055
2544.25,0.0053
2544.00,0.0051
2543.75,0.0051
2543.50,0.0050
2543.25,0.0049
2543.00,0.0049
2542.75,0.0050
2542.50,0.0051
2542.25,0.0054
2542.00,0.0058
2541.75,0.0061
2541.50,0.0063
2541.25,0.0063
2541.00,0.0060
2540.75,0.0057
2540.50,0.0054
2540.25,0.0053
2540.00,0.0052
2539.75,0.0052
2539.50,0.0052
2539.25,0.0052
2539.00,0.0053
2538.75,0.0053
2538.50,0.0054
2538.25,0.0054
2538.00,0.0054
2537.75,0.0053
2537.50,0.0053
2537.25,0.0055
2537.00,0.0058
2536.75,0.0063
2536.50,0.0066
2536.25,0.0067
2536.00,0.0066
2535.75,0.0064
2535.50,0.0062
2535.25,0.0062
2535.00,0.0062
2534.75,0.0062
2534.50,0.0061
2534.25,0.0059
2534.00,0.0057
2533.75,0.0055
2533.50,0.0053
2533.25,0.0053
2533.00,0.0053
2532.75,0.0052
2532.50,0.0052
2532.25,0.0052
2532.00,0.0052
2531.75,0.0053
2531.50,0.0053
2531.25,0.0054
2531.00,0.0053
2530.75,0.0052
2530.50,0.0051
2530.25,0.0050
2530.00,0.0050
2529.75,0.0052
2529.50,0.0054
2529.25,0.0056
2529.00,0.0056
2528.75,0.0054
2528.50,0.0051
2528.25,0.0049
2528.00,0.0049
2527.75,0.0049
2527.50,0.0050
2527.25,0.0050
2527.00,0.0051
2526.75,0.0051
2526.50,0.0051
2526.25,0.0051
2526.00,0.0052
2525.75,0.0053
2525.50,0.0053
2525.25,0.0052
2525.00,0.0051
2524.75,0.0050
2524.50,0.0050
2524.25,0.0049
2524.00,0.0048
2523.75,0.0046
2523.50,0.0044
2523.25,0.0043
2523.00,0.0042
2522.75,0.0042
2522.50,0.0042
2522.25,0.0043
2522.00,0.0043
2521.75,0.0044
2521.50,0.0044
2521.25,0.0044
2521.00,0.0043
2520.75,0.0042
2520.50,0.0042
2520.25,0.0043
2520.00,0.0045
2519.75,0.0046
2519.50,0.0047
2519.25,0.0048
2519.00,0.0049
2518.75,0.0049
2518.50,0.0050
2518.25,0.0052
2518.00,0.0053
2517.75,0.0053
2517.50,0.0053
2517.25,0.0052
2517.00,0.0051
2516.75,0.0051
2516.50,0.0049
2516.25,0.0048
2516.00,0.0046
2515.75,0.0046
2515.50,0.0046
2515.25,0.0047
2515.00,0.0048
2514.75,0.0049
2514.50,0.0049
2514.25,0.0049
2514.00,0.0048
2513.75,0.0047
2513.50,0.0047
2513.25,0.0046
2513.00,0.0046
2512.75,0.0045
2512.50,0.0045
2512.25,0.0046
2512.00,0.0048
2511.75,0.0050
2511.50,0.0051
2511.25,0.0051
2511.00,0.0049
2510.75,0.0048
2510.50,0.0047
2510.25,0.0048
2510.00,0.0049
2509.75,0.0050
2509.50,0.0049
2509.25,0.0048
2509.00,0.0047
2508.75,0.0047
2508.50,0.0047
2508.25,0.0047
2508.00,0.0047
2507.75,0.0048
2507.50,0.0048
2507.25,0.0048
2507.00,0.0047
2506.75,0.0045
2506.50,0.0044
2506.25,0.0045
2506.00,0.0046
2505.75,0.0047
2505.50,0.0049
2505.25,0.0051
2505.00,0.0051
2504.75,0.0051
2504.50,0.0049
2504.25,0.0046
2504.00,0.0044
2503.75,0.0043
2503.50,0.0045
2503.25,0.0047
2503.00,0.0050
2502.75,0.0052
2502.50,0.0052
2502.25,0.0052
2502.00,0.0051
2501.75,0.0051
2501.50,0.0051
2501.25,0.0051
2501.00,0.0051
2500.75,0.0051
2500.50,0.0051
2500.25,0.0051
2500.00,0.0052
2499.75,0.0052
2499.50,0.0053
2499.25,0.0054
2499.00,0.0055
2498.75,0.0056
2498.50,0.0056
2498.25,0.0056
2498.00,0.0055
2497.75,0.0055
2497.50,0.0056
2497.25,0.0057
2497.00,0.0056
2496.75,0.0054
2496.50,0.0050
2496.25,0.0048
2496.00,0.0048
2495.75,0.0052
2495.50,0.0056
2495.25,0.0060
2495.00,0.0061
2494.75,0.0061
2494.50,0.0059
2494.25,0.0057
2494.00,0.0057
2493.75,0.0057
2493.50,0.0058
2493.25,0.0058
2493.00,0.0058
2492.75,0.0056
2492.50,0.0054
2492.25,0.0052
2492.00,0.0052
2491.75,0.0053
2491.50,0.0054
2491.25,0.0056
2491.00,0.0057
2490.75,0.0057
2490.50,0.0056
2490.25,0.0056
2490.00,0.0056
2489.75,0.0055
2489.50,0.0055
2489.25,0.0055
2489.00,0.0055
2488.75,0.0056
2488.50,0.0058
2488.25,0.0059
2488.00,0.0059
2487.75,0.0058
2487.50,0.0058
2487.25,0.0058
2487.00,0.0058
2486.75,0.0058
2486.50,0.0056
2486.25,0.0054
2486.00,0.0051
2485.75,0.0049
2485.50,0.0050
2485.25,0.0052
2485.00,0.0055
2484.75,0.0059
2484.50,0.0061
2484.25,0.0062
2484.00,0.0062
2483.75,0.0061
2483.50,0.0060
2483.25,0.0061
2483.00,0.0064
2482.75,0.0066
2482.50,0.0068
2482.25,0.0069
2482.00,0.0068
2481.75,0.0066
2481.50,0.0063
2481.25,0.0060
2481.00,0.0058
2480.75,0.0058
2480.50,0.0059
2480.25,0.0061
2480.00,0.0062
2479.75,0.0062
2479.50,0.0062
2479.25,0.0061
2479.00,0.0060
2478.75,0.0058
2478.50,0.0057
2478.25,0.0055
2478.00,0.0054
2477.75,0.0053
2477.50,0.0051
2477.25,0.0051
2477.00,0.0052
2476.75,0.0054
2476.50,0.0057
2476.25,0.0059
2476.00,0.0061
2475.75,0.0062
2475.50,0.0062
2475.25,0.0062
2475.00,0.0061
2474.75,0.0060
2474.50,0.0058
2474.25,0.0056
2474.00,0.0054
2473.75,0.0054
2473.50,0.0054
2473.25,0.0055
2473.00,0.0056
2472.75,0.0057
2472.50,0.0057
2472.25,0.0058
2472.00,0.0059
2471.75,0.0059
2471.50,0.0059
2471.25,0.0058
2471.00,0.0058
2470.75,0.0057
2470.50,0.0056
2470.25,0.0055
2470.00,0.0054
2469.75,0.0053
2469.50,0.0054
2469.25,0.0056
2469.00,0.0058
2468.75,0.0059
2468.50,0.0059
2468.25,0.0058
2468.00,0.0057
2467.75,0.0056
2467.50,0.0056
2467.25,0.0055
2467.00,0.0054
2466.75,0.0054
2466.50,0.0054
2466.25,0.0055
2466.00,0.0057
2465.75,0.0057
2465.50,0.0057
2465.25,0.0057
2465.00,0.0056
2464.75,0.0056
2464.50,0.0056
2464.25,0.0056
2464.00,0.0057
2463.75,0.0057
2463.50,0.0056
2463.25,0.0054
2463.00,0.0052
2462.75,0.0051
2462.50,0.0052
2462.25,0.0053
2462.00,0.0054
2461.75,0.0055
2461.50,0.0056
2461.25,0.0058
2461.00,0.0059
2460.75,0.0058
2460.50,0.0057
2460.25,0.0055
2460.00,0.0053
2459.75,0.0052
2459.50,0.0052
2459.25,0.0054
2459.00,0.0056
2458.75,0.0058
2458.50,0.0058
2458.25,0.0058
2458.00,0.0057
2457.75,0.0057
2457.50,0.0058
2457.25,0.0060
2457.00,0.0061
2456.75,0.0062
2456.50,0.0062
2456.25,0.0061
2456.00,0.0059
2455.75,0.0058
2455.50,0.0056
2455.25,0.0056
2455.00,0.0055
2454.75,0.0055
2454.50,0.0054
2454.25,0.0054
2454.00,0.0053
2453.75,0.0054
2453.50,0.0055
2453.25,0.0058
2453.00,0.0060
2452.75,0.0062
2452.50,0.0064
2452.25,0.0063
2452.00,0.0062
2451.75,0.0060
2451.50,0.0059
2451.25,0.0057
2451.00,0.0057
2450.75,0.0058
2450.50,0.0060
2450.25,0.0061
2450.00,0.0062
2449.75,0.0061
2449.50,0.0059
2449.25,0.0056
2449.00,0.0054
2448.75,0.0053
2448.50,0.0054
2448.25,0.0055
2448.00,0.0055
2447.75,0.0055
2447.50,0.0053
2447.25,0.0053
2447.00,0.0055
2446.75,0.0058
2446.50,0.0061
2446.25,0.0062
2446.00,0.0061
2445.75,0.0058
2445.50,0.0054
2445.25,0.0052
2445.00,0.0052
2444.75,0.0053
2444.50,0.0053
2444.25,0.0054
2444.00,0.0055
2443.75,0.0057
2443.50,0.0058
2443.25,0.0059
2443.00,0.0059
2442.75,0.0059
2442.50,0.0060
2442.25,0.0061
2442.00,0.0061
2441.75,0.0062
2441.50,0.0064
2441.25,0.0065
2441.00,0.0065
2440.75,0.0065
2440.50,0.0064
2440.25,0.0062
2440.00,0.0058
2439.75,0.0055
2439.50,0.0053
2439.25,0.0053
2439.00,0.0054
2438.75,0.0056
2438.50,0.0058
2438.25,0.0059
2438.00,0.0059
2437.75,0.0059
2437.50,0.0057
2437.25,0.0056
2437.00,0.0055
2436.75,0.0054
2436.50,0.0052
2436.25,0.0052
2436.00,0.0051
2435.75,0.0051
2435.50,0.0051
2435.25,0.0051
2435.00,0.0050
2434.75,0.0051
2434.50,0.0053
2434.25,0.0056
2434.00,0.0058
2433.75,0.0058
2433.50,0.0056
2433.25,0.0054
2433.00,0.0053
2432.75,0.0052
2432.50,0.0053
2432.25,0.0055
2432.00,0.0058
2431.75,0.0059
2431.50,0.0058
2431.25,0.0056
2431.00,0.0054
2430.75,0.0053
2430.50,0.0053
2430.25,0.0054
2430.00,0.0056
2429.75,0.0059
2429.50,0.0060
2429.25,0.0060
2429.00,0.0059
2428.75,0.0059
2428.50,0.0059
2428.25,0.0058
2428.00,0.0057
2427.75,0.0056
2427.50,0.0055
2427.25,0.0057
2427.00,0.0059
2426.75,0.0060
2426.50,0.0059
2426.25,0.0058
2426.00,0.0057
2425.75,0.0056
2425.50,0.0056
2425.25,0.0056
2425.00,0.0056
2424.75,0.0056
2424.50,0.0056
2424.25,0.0056
2424.00,0.0055
2423.75,0.0054
2423.50,0.0053
2423.25,0.0052
2423.00,0.0052
2422.75,0.0052
2422.50,0.0053
2422.25,0.0055
2422.00,0.0057
2421.75,0.0057
2421.50,0.0057
2421.25,0.0057
2421.00,0.0056
2420.75,0.0056
2420.50,0.0055
2420.25,0.0055
2420.00,0.0055
2419.75,0.0055
2419.50,0.0055
2419.25,0.0054
2419.00,0.0053
2418.75,0.0053
2418.50,0.0054
2418.25,0.0055
2418.00,0.0056
2417.75,0.0058
2417.50,0.0060
2417.25,0.0061
2417.00,0.0062
2416.75,0.0062
2416.50,0.0062
2416.25,0.0061
2416.00,0.0060
2415.75,0.0059
2415.50,0.0059
2415.25,0.0059
2415.00,0.0059
2414.75,0.0059
2414.50,0.0059
2414.25,0.0058
2414.00,0.0057
2413.75,0.0057
2413.50,0.0057
2413.25,0.0057
2413.00,0.0058
2412.75,0.0058
2412.50,0.0058
2412.25,0.0059
2412.00,0.0061
2411.75,0.0062
2411.50,0.0063
2411.25,0.0063
2411.00,0.0062
2410.75,0.0061
2410.50,0.0061
2410.25,0.0059
2410.00,0.0057
2409.75,0.0055
2409.50,0.0053
2409.25,0.0052
2409.00,0.0052
2408.75,0.0053
2408.50,0.0054
2408.25,0.0054
2408.00,0.0053
2407.75,0.0054
2407.50,0.0055
2407.25,0.0056
2407.00,0.0058
2406.75,0.0058
2406.50,0.0058
2406.25,0.0058
2406.00,0.0057
2405.75,0.0056
2405.50,0.0055
2405.25,0.0055
2405.00,0.0055
2404.75,0.0055
2404.50,0.0055
2404.25,0.0056
2404.00,0.0056
2403.75,0.0056
2403.50,0.0056
2403.25,0.0057
2403.00,0.0057
2402.75,0.0058
2402.50,0.0059
2402.25,0.0059
2402.00,0.0059
2401.75,0.0058
2401.50,0.0058
2401.25,0.0058
2401.00,0.0059
2400.75,0.0061
2400.50,0.0061
2400.25,0.0060
2400.00,0.0057
2399.75,0.0053
2399.50,0.0052
2399.25,0.0051
2399.00,0.0052
2398.75,0.0053
2398.50,0.0055
2398.25,0.0057
2398.00,0.0058
2397.75,0.0058
2397.50,0.0058
2397.25,0.0056
2397.00,0.0054
2396.75,0.0054
2396.50,0.0055
2396.25,0.0057
2396.00,0.0059
2395.75,0.0059
2395.50,0.0058
2395.25,0.0055
2395.00,0.0053
2394.75,0.0052
2394.50,0.0053
2394.25,0.0054
2394.00,0.0055
2393.75,0.0055
2393.50,0.0056
2393.25,0.0056
2393.00,0.0056
2392.75,0.0055
2392.50,0.0054
2392.25,0.0054
2392.00,0.0055
2391.75,0.0055
2391.50,0.0055
2391.25,0.0054
2391.00,0.0053
2390.75,0.0052
2390.50,0.0053
2390.25,0.0054
2390.00,0.0056
2389.75,0.0058
2389.50,0.0058
2389.25,0.0058
2389.00,0.0058
2388.75,0.0058
2388.50,0.0057
2388.25,0.0056
2388.00,0.0055
2387.75,0.0054
2387.50,0.0055
2387.25,0.0056
2387.00,0.0057
2386.75,0.0056
2386.50,0.0055
2386.25,0.0054
2386.00,0.0054
2385.75,0.0053
2385.50,0.0053
2385.25,0.0053
2385.00,0.0052
2384.75,0.0052
2384.50,0.0052
2384.25,0.0052
2384.00,0.0052
2383.75,0.0052
2383.50,0.0053
2383.25,0.0054
2383.00,0.0053
2382.75,0.0052
2382.50,0.0051
2382.25,0.0049
2382.00,0.0048
2381.75,0.0048
2381.50,0.0049
2381.25,0.0049
2381.00,0.0050
2380.75,0.0051
2380.50,0.0052
2380.25,0.0052
2380.00,0.0050
2379.75,0.0049
2379.50,0.0048
2379.25,0.0047
2379.00,0.0047
2378.75,0.0047
2378.50,0.0046
2378.25,0.0045
2378.00,0.0044
2377.75,0.0042
2377.50,0.0041
2377.25,0.0041
2377.00,0.0043
2376.75,0.0047
2376.50,0.0050
2376.25,0.0052
2376.00,0.0052
2375.75,0.0050
2375.50,0.0048
2375.25,0.0045
2375.00,0.0041
2374.75,0.0038
2374.50,0.0035
2374.25,0.0034
2374.00,0.0035
2373.75,0.0037
2373.50,0.0040
2373.25,0.0043
2373.00,0.0044
2372.75,0.0045
2372.50,0.0044
2372.25,0.0043
2372.00,0.0040
2371.75,0.0036
2371.50,0.0033
2371.25,0.0031
2371.00,0.0030
2370.75,0.0028
2370.50,0.0028
2370.25,0.0028
2370.00,0.0030
2369.75,0.0033
2369.50,0.0035
2369.25,0.0038
2369.00,0.0041
2368.75,0.0045
2368.50,0.0048
2368.25,0.0051
2368.00,0.0054
2367.75,0.0054
2367.50,0.0050
2367.25,0.0042
2367.00,0.0032
2366.75,0.0027
2366.50,0.0028
2366.25,0.0035
2366.00,0.0041
2365.75,0.0046
2365.50,0.0048
2365.25,0.0047
2365.00,0.0044
2364.75,0.0040
2364.50,0.0036
2364.25,0.0034
2364.00,0.0034
2363.75,0.0036
2363.50,0.0035
2363.25,0.0033
2363.00,0.0031
2362.75,0.0033
2362.50,0.0038
2362.25,0.0043
2362.00,0.0045
2361.75,0.0044
2361.50,0.0043
2361.25,0.0045
2361.00,0.0047
2360.75,0.0049
2360.50,0.0049
2360.25,0.0049
2360.00,0.0047
2359.75,0.0043
2359.50,0.0039
2359.25,0.0036
2359.00,0.0035
2358.75,0.0040
2358.50,0.0048
2358.25,0.0055
2358.00,0.0057
2357.75,0.0056
2357.50,0.0055
2357.25,0.0054
2357.00,0.0052
2356.75,0.0050
2356.50,0.0049
2356.25,0.0048
2356.00,0.0051
2355.75,0.0057
2355.50,0.0060
2355.25,0.0060
2355.00,0.0057
2354.75,0.0054
2354.50,0.0051
2354.25,0.0049
2354.00,0.0049
2353.75,0.0051
2353.50,0.0054
2353.25,0.0057
2353.00,0.0059
2352.75,0.0058
2352.50,0.0055
2352.25,0.0054
2352.00,0.0054
2351.75,0.0055
2351.50,0.0054
2351.25,0.0052
2351.00,0.0050
2350.75,0.0049
2350.50,0.0051
2350.25,0.0054
2350.00,0.0057
2349.75,0.0058
2349.50,0.0056
2349.25,0.0053
2349.00,0.0052
2348.75,0.0053
2348.50,0.0054
2348.25,0.0054
2348.00,0.0054
2347.75,0.0053
2347.50,0.0052
2347.25,0.0050
2347.00,0.0048
2346.75,0.0047
2346.50,0.0046
2346.25,0.0046
2346.00,0.0049
2345.75,0.0053
2345.50,0.0056
2345.25,0.0056
2345.00,0.0056
2344.75,0.0056
2344.50,0.0056
2344.25,0.0054
2344.00,0.0050
2343.75,0.0047
2343.50,0.0046
2343.25,0.0047
2343.00,0.0049
2342.75,0.0052
2342.50,0.0054
2342.25,0.0054
2342.00,0.0053
2341.75,0.0053
2341.50,0.0054
2341.25,0.0057
2341.00,0.0061
2340.75,0.0060
2340.50,0.0057
2340.25,0.0054
2340.00,0.0052
2339.75,0.0051
2339.50,0.0050
2339.25,0.0048
2339.00,0.0044
2338.75,0.0043
2338.50,0.0045
2338.25,0.0046
2338.00,0.0048
2337.75,0.0051
2337.50,0.0054
2337.25,0.0055
2337.00,0.0055
2336.75,0.0052
2336.50,0.0048
2336.25,0.0042
2336.00,0.0036
2335.75,0.0032
2335.50,0.0031
2335.25,0.0034
2335.00,0.0035
2334.75,0.0034
2334.50,0.0030
2334.25,0.0027
2334.00,0.0027
2333.75,0.0032
2333.50,0.0038
2333.25,0.0042
2333.00,0.0044
2332.75,0.0044
2332.50,0.0045
2332.25,0.0048
2332.00,0.0050
2331.75,0.0051
2331.50,0.0051
2331.25,0.0049
2331.00,0.0046
2330.75,0.0044
2330.50,0.0043
2330.25,0.0042
2330.00,0.0043
2329.75,0.0045
2329.50,0.0046
2329.25,0.0046
2329.00,0.0046
2328.75,0.0049
2328.50,0.0051
2328.25,0.0052
2328.00,0.0052
2327.75,0.0052
2327.50,0.0050
2327.25,0.0048
2327.00,0.0047
2326.75,0.0046
2326.50,0.0044
2326.25,0.0044
2326.00,0.0046
2325.75,0.0048
2325.50,0.0051
2325.25,0.0052
2325.00,0.0051
2324.75,0.0046
2324.50,0.0040
2324.25,0.0037
2324.00,0.0036
2323.75,0.0037
2323.50,0.0037
2323.25,0.0038
2323.00,0.0039
2322.75,0.0040
2322.50,0.0042
2322.25,0.0046
2322.00,0.0050
2321.75,0.0052
2321.50,0.0052
2321.25,0.0050
2321.00,0.0044
2320.75,0.0040
2320.50,0.0040
2320.25,0.0043
2320.00,0.0046
2319.75,0.0048
2319.50,0.0049
2319.25,0.0048
2319.00,0.0045
2318.75,0.0041
2318.50,0.0038
2318.25,0.0038
2318.00,0.0038
2317.75,0.0040
2317.50,0.0044
2317.25,0.0049
2317.00,0.0054
2316.75,0.0056
2316.50,0.0055
2316.25,0.0053
2316.00,0.0051
2315.75,0.0049
2315.50,0.0047
2315.25,0.0047
2315.00,0.0047
2314.75,0.0047
2314.50,0.0047
2314.25,0.0047
2314.00,0.0047
2313.75,0.0045
2313.50,0.0044
2313.25,0.0042
2313.00,0.0042
2312.75,0.0041
2312.50,0.0041
2312.25,0.0041
2312.00,0.0042
2311.75,0.0044
2311.50,0.0046
2311.25,0.0048
2311.00,0.0048
2310.75,0.0046
2310.50,0.0044
2310.25,0.0042
2310.00,0.0041
2309.75,0.0041
2309.50,0.0042
2309.25,0.0042
2309.00,0.0043
2308.75,0.0044
2308.50,0.0045
2308.25,0.0047
2308.00,0.0049
2307.75,0.0051
2307.50,0.0053
2307.25,0.0054
2307.00,0.0053
2306.75,0.0051
2306.50,0.0049
2306.25,0.0048
2306.00,0.0048
2305.75,0.0047
2305.50,0.0046
2305.25,0.0044
2305.00,0.0042
2304.75,0.0042
2304.50,0.0044
2304.25,0.0047
2304.00,0.0051
2303.75,0.0054
2303.50,0.0054
2303.25,0.0053
2303.00,0.0050
2302.75,0.0047
2302.50,0.0045
2302.25,0.0044
2302.00,0.0044
2301.75,0.0045
2301.50,0.0046
2301.25,0.0048
2301.00,0.0050
2300.75,0.0051
2300.50,0.0050
2300.25,0.0048
2300.00,0.0047
2299.75,0.0046
2299.50,0.0046
2299.25,0.0047
2299.00,0.0047
2298.75,0.0048
2298.50,0.0049
2298.25,0.0050
2298.00,0.0051
2297.75,0.0051
2297.50,0.0050
2297.25,0.0049
2297.00,0.0047
2296.75,0.0045
2296.50,0.0044
2296.25,0.0045
2296.00,0.0047
2295.75,0.0049
2295.50,0.0050
2295.25,0.0050
2295.00,0.0050
2294.75,0.0051
2294.50,0.0053
2294.25,0.0055
2294.00,0.0055
2293.75,0.0055
2293.50,0.0055
2293.25,0.0055
2293.00,0.0056
2292.75,0.0055
2292.50,0.0054
2292.25,0.0052
2292.00,0.0052
2291.75,0.0054
2291.50,0.0056
2291.25,0.0058
2291.00,0.0059
2290.75,0.0060
2290.50,0.0060
2290.25,0.0060
2290.00,0.0058
2289.75,0.0057
2289.50,0.0055
2289.25,0.0053
2289.00,0.0051
2288.75,0.0050
2288.50,0.0049
2288.25,0.0049
2288.00,0.0048
2287.75,0.0048
2287.50,0.0047
2287.25,0.0047
2287.00,0.0047
2286.75,0.0048
2286.50,0.0049
2286.25,0.0050
2286.00,0.0051
2285.75,0.0052
2285.50,0.0054
2285.25,0.0057
2285.00,0.0059
2284.75,0.0060
2284.50,0.0059
2284.25,0.0057
2284.00,0.0053
2283.75,0.0051
2283.50,0.0049
2283.25,0.0049
2283.00,0.0049
2282.75,0.0049
2282.50,0.0050
2282.25,0.0051
2282.00,0.0051
2281.75,0.0052
2281.50,0.0052
2281.25,0.0052
2281.00,0.0053
2280.75,0.0055
2280.50,0.0057
2280.25,0.0058
2280.00,0.0058
2279.75,0.0056
2279.50,0.0054
2279.25,0.0052
2279.00,0.0051
2278.75,0.0051
2278.50,0.0052
2278.25,0.0051
2278.00,0.0050
2277.75,0.0048
2277.50,0.0047
2277.25,0.0048
2277.00,0.0052
2276.75,0.0056
2276.50,0.0058
2276.25,0.0056
2276.00,0.0053
2275.75,0.0048
2275.50,0.0045
2275.25,0.0045
2275.00,0.0047
2274.75,0.0050
2274.50,0.0055
2274.25,0.0060
2274.00,0.0064
2273.75,0.0067
2273.50,0.0066
2273.25,0.0063
2273.00,0.0058
2272.75,0.0052
2272.50,0.0048
2272.25,0.0047
2272.00,0.0049
2271.75,0.0053
2271.50,0.0057
2271.25,0.0059
2271.00,0.0058
2270.75,0.0056
2270.50,0.0053
2270.25,0.0049
2270.00,0.0046
2269.75,0.0043
2269.50,0.0041
2269.25,0.0041
2269.00,0.0042
2268.75,0.0046
2268.50,0.0050
2268.25,0.0053
2268.00,0.0054
2267.75,0.0054
2267.50,0.0052
2267.25,0.0050
2267.00,0.0048
2266.75,0.0045
2266.50,0.0044
2266.25,0.0043
2266.00,0.0044
2265.75,0.0046
2265.50,0.0048
2265.25,0.0048
2265.00,0.0048
2264.75,0.0048
2264.50,0.0049
2264.25,0.0050
2264.00,0.0051
2263.75,0.0052
2263.50,0.0053
2263.25,0.0052
2263.00,0.0051
2262.75,0.0049
2262.50,0.0048
2262.25,0.0047
2262.00,0.0047
2261.75,0.0049
2261.50,0.0051
2261.25,0.0053
2261.00,0.0054
2260.75,0.0054
2260.50,0.0054
2260.25,0.0053
2260.00,0.0052
2259.75,0.0050
2259.50,0.0048
2259.25,0.0045
2259.00,0.0044
2258.75,0.0044
2258.50,0.0044
2258.25,0.0045
2258.00,0.0046
2257.75,0.0047
2257.50,0.0048
2257.25,0.0048
2257.00,0.0048
2256.75,0.0048
2256.50,0.0047
2256.25,0.0048
2256.00,0.0048
2255.75,0.0049
2255.50,0.0049
2255.25,0.0049
2255.00,0.0050
2254.75,0.0052
2254.50,0.0053
2254.25,0.0053
2254.00,0.0052
2253.75,0.0049
2253.50,0.0046
2253.25,0.0043
2253.00,0.0042
2252.75,0.0043
2252.50,0.0044
2252.25,0.0046
2252.00,0.0048
2251.75,0.0049
2251.50,0.0048
2251.25,0.0046
2251.00,0.0044
2250.75,0.0044
2250.50,0.0046
2250.25,0.0048
2250.00,0.0050
2249.75,0.0050
2249.50,0.0050
2249.25,0.0048
2249.00,0.0047
2248.75,0.0045
2248.50,0.0045
2248.25,0.0045
2248.00,0.0045
2247.75,0.0044
2247.50,0.0043
2247.25,0.0042
2247.00,0.0042
2246.75,0.0042
2246.50,0.0042
2246.25,0.0041
2246.00,0.0040
2245.75,0.0040
2245.50,0.0042
2245.25,0.0045
2245.00,0.0046
2244.75,0.0047
2244.50,0.0048
2244.25,0.0049
2244.00,0.0049
2243.75,0.0046
2243.50,0.0043
2243.25,0.0041
2243.00,0.0041
2242.75,0.0042
2242.50,0.0045
2242.25,0.0047
2242.00,0.0050
2241.75,0.0053
2241.50,0.0055
2241.25,0.0055
2241.00,0.0055
2240.75,0.0053
2240.50,0.0050
2240.25,0.0047
2240.00,0.0043
2239.75,0.0040
2239.50,0.0040
2239.25,0.0042
2239.00,0.0046
2238.75,0.0051
2238.50,0.0053
2238.25,0.0051
2238.00,0.0048
2237.75,0.0044
2237.50,0.0043
2237.25,0.0044
2237.00,0.0048
2236.75,0.0051
2236.50,0.0052
2236.25,0.0052
2236.00,0.0050
2235.75,0.0046
2235.50,0.0041
2235.25,0.0037
2235.00,0.0034
2234.75,0.0033
2234.50,0.0033
2234.25,0.0033
2234.00,0.0034
2233.75,0.0036
2233.50,0.0038
2233.25,0.0042
2233.00,0.0045
2232.75,0.0048
2232.50,0.0050
2232.25,0.0051
2232.00,0.0051
2231.75,0.0051
2231.50,0.0050
2231.25,0.0048
2231.00,0.0048
2230.75,0.0049
2230.50,0.0053
2230.25,0.0058
2230.00,0.0061
2229.75,0.0061
2229.50,0.0058
2229.25,0.0054
2229.00,0.0051
2228.75,0.0048
2228.50,0.0046
2228.25,0.0044
2228.00,0.0042
2227.75,0.0039
2227.50,0.0038
2227.25,0.0037
2227.00,0.0037
2226.75,0.0038
2226.50,0.0039
2226.25,0.0039
2226.00,0.0039
2225.75,0.0040
2225.50,0.0041
2225.25,0.0044
2225.00,0.0047
2224.75,0.0050
2224.50,0.0053
2224.25,0.0055
2224.00,0.0057
2223.75,0.0058
2223.50,0.0059
2223.25,0.0059
2223.00,0.0058
2222.75,0.0056
2222.50,0.0052
2222.25,0.0048
2222.00,0.0045
2221.75,0.0043
2221.50,0.0042
2221.25,0.0041
2221.00,0.0039
2220.75,0.0037
2220.50,0.0035
2220.25,0.0034
2220.00,0.0034
2219.75,0.0036
2219.50,0.0039
2219.25,0.0042
2219.00,0.0044
2218.75,0.0043
2218.50,0.0038
2218.25,0.0030
2218.00,0.0025
2217.75,0.0023
2217.50,0.0026
2217.25,0.0032
2217.00,0.0039
2216.75,0.0044
2216.50,0.0047
2216.25,0.0047
2216.00,0.0044
2215.75,0.0039
2215.50,0.0037
2215.25,0.0036
2215.00,0.0038
2214.75,0.0041
2214.50,0.0042
2214.25,0.0042
2214.00,0.0041
2213.75,0.0038
2213.50,0.0036
2213.25,0.0035
2213.00,0.0035
2212.75,0.0035
2212.50,0.0035
2212.25,0.0034
2212.00,0.0032
2211.75,0.0030
2211.50,0.0030
2211.25,0.0033
2211.00,0.0037
2210.75,0.0041
2210.50,0.0044
2210.25,0.0045
2210.00,0.0044
2209.75,0.0042
2209.50,0.0040
2209.25,0.0038
2209.00,0.0038
2208.75,0.0040
2208.50,0.0041
2208.25,0.0040
2208.00,0.0037
2207.75,0.0033
2207.50,0.0031
2207.25,0.0031
2207.00,0.0033
2206.75,0.0036
2206.50,0.0038
2206.25,0.0037
2206.00,0.0034
2205.75,0.0028
2205.50,0.0022
2205.25,0.0020
2205.00,0.0024
2204.75,0.0034
2204.50,0.0046
2204.25,0.0056
2204.00,0.0061
2203.75,0.0061
2203.50,0.0057
2203.25,0.0052
2203.00,0.0047
2202.75,0.0044
2202.50,0.0043
2202.25,0.0043
2202.00,0.0043
2201.75,0.0043
2201.50,0.0043
2201.25,0.0042
2201.00,0.0041
2200.75,0.0039
2200.50,0.0038
2200.25,0.0040
2200.00,0.0042
2199.75,0.0043
2199.50,0.0041
2199.25,0.0037
2199.00,0.0034
2198.75,0.0033
2198.50,0.0034
2198.25,0.0035
2198.00,0.0037
2197.75,0.0039
2197.50,0.0039
2197.25,0.0037
2197.00,0.0035
2196.75,0.0033
2196.50,0.0033
2196.25,0.0035
2196.00,0.0038
2195.75,0.0040
2195.50,0.0040
2195.25,0.0040
2195.00,0.0039
2194.75,0.0038
2194.50,0.0035
2194.25,0.0032
2194.00,0.0028
2193.75,0.0025
2193.50,0.0025
2193.25,0.0028
2193.00,0.0030
2192.75,0.0032
2192.50,0.0031
2192.25,0.0031
2192.00,0.0034
2191.75,0.0039
2191.50,0.0044
2191.25,0.0046
2191.00,0.0044
2190.75,0.0042
2190.50,0.0040
2190.25,0.0039
2190.00,0.0038
2189.75,0.0036
2189.50,0.0035
2189.25,0.0035
2189.00,0.0036
2188.75,0.0038
2188.50,0.0038
2188.25,0.0037
2188.00,0.0035
2187.75,0.0033
2187.50,0.0031
2187.25,0.0031
2187.00,0.0031
2186.75,0.0031
2186.50,0.0030
2186.25,0.0028
2186.00,0.0025
2185.75,0.0023
2185.50,0.0024
2185.25,0.0024
2185.00,0.0025
2184.75,0.0025
2184.50,0.0026
2184.25,0.0028
2184.00,0.0031
2183.75,0.0034
2183.50,0.0035
2183.25,0.0033
2183.00,0.0030
2182.75,0.0029
2182.50,0.0031
2182.25,0.0035
2182.00,0.0037
2181.75,0.0036
2181.50,0.0032
2181.25,0.0028
2181.00,0.0026
2180.75,0.0025
2180.50,0.0025
2180.25,0.0026
2180.00,0.0026
2179.75,0.0027
2179.50,0.0028
2179.25,0.0030
2179.00,0.0033
2178.75,0.0035
2178.50,0.0035
2178.25,0.0033
2178.00,0.0031
2177.75,0.0032
2177.50,0.0035
2177.25,0.0039
2177.00,0.0043
2176.75,0.0045
2176.50,0.0045
2176.25,0.0042
2176.00,0.0037
2175.75,0.0031
2175.50,0.0026
2175.25,0.0026
2175.00,0.0029
2174.75,0.0034
2174.50,0.0038
2174.25,0.0041
2174.00,0.0040
2173.75,0.0036
2173.50,0.0031
2173.25,0.0027
2173.00,0.0025
2172.75,0.0027
2172.50,0.0032
2172.25,0.0037
2172.00,0.0040
2171.75,0.0040
2171.50,0.0037
2171.25,0.0034
2171.00,0.0031
2170.75,0.0030
2170.50,0.0030
2170.25,0.0029
2170.00,0.0029
2169.75,0.0033
2169.50,0.0039
2169.25,0.0045
2169.00,0.0048
2168.75,0.0047
2168.50,0.0043
2168.25,0.0040
2168.00,0.0037
2167.75,0.0035
2167.50,0.0032
2167.25,0.0030
2167.00,0.0028
2166.75,0.0026
2166.50,0.0025
2166.25,0.0025
2166.00,0.0028
2165.75,0.0032
2165.50,0.0037
2165.25,0.0043
2165.00,0.0047
2164.75,0.0050
2164.50,0.0052
2164.25,0.0052
2164.00,0.0049
2163.75,0.0041
2163.50,0.0032
2163.25,0.0023
2163.00,0.0018
2162.75,0.0018
2162.50,0.0023
2162.25,0.0031
2162.00,0.0038
2161.75,0.0041
2161.50,0.0039
2161.25,0.0030
2161.00,0.0018
2160.75,0.0008
2160.50,0.0003
2160.25,0.0005
2160.00,0.0011
2159.75,0.0018
2159.50,0.0022
2159.25,0.0022
2159.00,0.0021
2158.75,0.0021
2158.50,0.0024
2158.25,0.0029
2158.00,0.0032
2157.75,0.0032
2157.50,0.0029
2157.25,0.0024
2157.00,0.0022
2156.75,0.0022
2156.50,0.0024
2156.25,0.0027
2156.00,0.0029
2155.75,0.0029
2155.50,0.0026
2155.25,0.0022
2155.00,0.0019
2154.75,0.0016
2154.50,0.0017
2154.25,0.0020
2154.00,0.0027
2153.75,0.0033
2153.50,0.0037
2153.25,0.0037
2153.00,0.0033
2152.75,0.0026
2152.50,0.0020
2152.25,0.0015
2152.00,0.0012
2151.75,0.0011
2151.50,0.0013
2151.25,0.0017
2151.00,0.0023
2150.75,0.0030
2150.50,0.0035
2150.25,0.0036
2150.00,0.0034
2149.75,0.0031
2149.50,0.0029
2149.25,0.0029
2149.00,0.0031
2148.75,0.0033
2148.50,0.0034
2148.25,0.0034
2148.00,0.0035
2147.75,0.0036
2147.50,0.0038
2147.25,0.0038
2147.00,0.0038
2146.75,0.0036
2146.50,0.0034
2146.25,0.0033
2146.00,0.0033
2145.75,0.0035
2145.50,0.0036
2145.25,0.0037
2145.00,0.0035
2144.75,0.0032
2144.50,0.0028
2144.25,0.0025
2144.00,0.0024
2143.75,0.0025
2143.50,0.0028
2143.25,0.0030
2143.00,0.0034
2142.75,0.0036
2142.50,0.0038
2142.25,0.0036
2142.00,0.0031
2141.75,0.0027
2141.50,0.0025
2141.25,0.0025
2141.00,0.0026
2140.75,0.0027
2140.50,0.0029
2140.25,0.0031
2140.00,0.0033
2139.75,0.0034
2139.50,0.0033
2139.25,0.0032
2139.00,0.0031
2138.75,0.0031
2138.50,0.0031
2138.25,0.0032
2138.00,0.0033
2137.75,0.0035
2137.50,0.0036
2137.25,0.0037
2137.00,0.0038
2136.75,0.0039
2136.50,0.0039
2136.25,0.0040
2136.00,0.0039
2135.75,0.0036
2135.50,0.0034
2135.25,0.0032
2135.00,0.0031
2134.75,0.0032
2134.50,0.0033
2134.25,0.0034
2134.00,0.0033
2133.75,0.0032
2133.50,0.0033
2133.25,0.0035
2133.00,0.0039
2132.75,0.0043
2132.50,0.0046
2132.25,0.0047
2132.00,0.0046
2131.75,0.0045
2131.50,0.0043
2131.25,0.0041
2131.00,0.0038
2130.75,0.0036
2130.50,0.0035
2130.25,0.0034
2130.00,0.0034
2129.75,0.0034
2129.50,0.0035
2129.25,0.0040
2129.00,0.0047
2128.75,0.0053
2128.50,0.0056
2128.25,0.0054
2128.00,0.0050
2127.75,0.0045
2127.50,0.0041
2127.25,0.0037
2127.00,0.0034
2126.75,0.0032
2126.50,0.0032
2126.25,0.0033
2126.00,0.0036
2125.75,0.0038
2125.50,0.0040
2125.25,0.0041
2125.00,0.0042
2124.75,0.0043
2124.50,0.0042
2124.25,0.0041
2124.00,0.0038
2123.75,0.0037
2123.50,0.0036
2123.25,0.0036
2123.00,0.0037
2122.75,0.0039
2122.50,0.0041
2122.25,0.0044
2122.00,0.0047
2121.75,0.0051
2121.50,0.0054
2121.25,0.0056
2121.00,0.0057
2120.75,0.0056
2120.50,0.0053
2120.25,0.0049
2120.00,0.0045
2119.75,0.0043
2119.50,0.0042
2119.25,0.0043
2119.00,0.0043
2118.75,0.0042
2118.50,0.0040
2118.25,0.0036
2118.00,0.0032
2117.75,0.0030
2117.50,0.0029
2117.25,0.0030
2117.00,0.0033
2116.75,0.0036
2116.50,0.0039
2116.25,0.0042
2116.00,0.0045
2115.75,0.0047
2115.50,0.0047
2115.25,0.0045
2115.00,0.0042
2114.75,0.0041
2114.50,0.0042
2114.25,0.0044
2114.00,0.0045
2113.75,0.0045
2113.50,0.0045
2113.25,0.0044
2113.00,0.0042
2112.75,0.0039
2112.50,0.0035
2112.25,0.0032
2112.00,0.0030
2111.75,0.0031
2111.50,0.0033
2111.25,0.0033
2111.00,0.0032
2110.75,0.0029
2110.50,0.0026
2110.25,0.0026
2110.00,0.0029
2109.75,0.0034
2109.50,0.0038
2109.25,0.0039
2109.00,0.0037
2108.75,0.0035
2108.50,0.0034
2108.25,0.0036
2108.00,0.0040
2107.75,0.0045
2107.50,0.0047
2107.25,0.0047
2107.00,0.0045
2106.75,0.0045
2106.50,0.0047
2106.25,0.0049
2106.00,0.0050
2105.75,0.0050
2105.50,0.0049
2105.25,0.0049
2105.00,0.0051
2104.75,0.0052
2104.50,0.0051
2104.25,0.0047
2104.00,0.0042
2103.75,0.0038
2103.50,0.0036
2103.25,0.0037
2103.00,0.0041
2102.75,0.0045
2102.50,0.0048
2102.25,0.0049
2102.00,0.0049
2101.75,0.0048
2101.50,0.0049
2101.25,0.0052
2101.00,0.0054
2100.75,0.0053
2100.50,0.0049
2100.25,0.0045
2100.00,0.0041
2099.75,0.0040
2099.50,0.0041
2099.25,0.0041
2099.00,0.0041
2098.75,0.0040
2098.50,0.0040
2098.25,0.0041
2098.00,0.0040
2097.75,0.0038
2097.50,0.0035
2097.25,0.0032
2097.00,0.0032
2096.75,0.0034
2096.50,0.0038
2096.25,0.0042
2096.00,0.0044
2095.75,0.0044
2095.50,0.0044
2095.25,0.0043
2095.00,0.0043
2094.75,0.0042
2094.50,0.0040
2094.25,0.0038
2094.00,0.0039
2093.75,0.0042
2093.50,0.0045
2093.25,0.0047
2093.00,0.0048
2092.75,0.0047
2092.50,0.0045
2092.25,0.0045
2092.00,0.0044
2091.75,0.0043
2091.50,0.0042
2091.25,0.0040
2091.00,0.0040
2090.75,0.0040
2090.50,0.0041
2090.25,0.0042
2090.00,0.0042
2089.75,0.0041
2089.50,0.0039
2089.25,0.0038
2089.00,0.0037
2088.75,0.0038
2088.50,0.0042
2088.25,0.0046
2088.00,0.0048
2087.75,0.0048
2087.50,0.0046
2087.25,0.0043
2087.00,0.0043
2086.75,0.0044
2086.50,0.0046
2086.25,0.0046
2086.00,0.0044
2085.75,0.0040
2085.50,0.0035
2085.25,0.0032
2085.00,0.0031
2084.75,0.0031
2084.50,0.0031
2084.25,0.0030
2084.00,0.0029
2083.75,0.0030
2083.50,0.0031
2083.25,0.0034
2083.00,0.0036
2082.75,0.0037
2082.50,0.0037
2082.25,0.0037
2082.00,0.0038
2081.75,0.0039
2081.50,0.0040
2081.25,0.0041
2081.00,0.0040
2080.75,0.0040
2080.50,0.0039
2080.25,0.0041
2080.00,0.0042
2079.75,0.0043
2079.50,0.0042
2079.25,0.0042
2079.00,0.0041
2078.75,0.0041
2078.50,0.0042
2078.25,0.0044
2078.00,0.0046
2077.75,0.0046
2077.50,0.0044
2077.25,0.0041
2077.00,0.0038
2076.75,0.0036
2076.50,0.0035
2076.25,0.0032
2076.00,0.0030
2075.75,0.0027
2075.50,0.0025
2075.25,0.0025
2075.00,0.0027
2074.75,0.0029
2074.50,0.0033
2074.25,0.0036
2074.00,0.0038
2073.75,0.0039
2073.50,0.0039
2073.25,0.0039
2073.00,0.0038
2072.75,0.0038
2072.50,0.0037
2072.25,0.0037
2072.00,0.0037
2071.75,0.0038
2071.50,0.0039
2071.25,0.0041
2071.00,0.0043
2070.75,0.0043
2070.50,0.0043
2070.25,0.0041
2070.00,0.0038
2069.75,0.0036
2069.50,0.0034
2069.25,0.0032
2069.00,0.0031
2068.75,0.0031
2068.50,0.0031
2068.25,0.0031
2068.00,0.0033
2067.75,0.0036
2067.50,0.0040
2067.25,0.0042
2067.00,0.0042
2066.75,0.0041
2066.50,0.0040
2066.25,0.0040
2066.00,0.0040
2065.75,0.0040
2065.50,0.0041
2065.25,0.0041
2065.00,0.0041
2064.75,0.0039
2064.50,0.0036
2064.25,0.0033
2064.00,0.0033
2063.75,0.0035
2063.50,0.0038
2063.25,0.0041
2063.00,0.0041
2062.75,0.0041
2062.50,0.0039
2062.25,0.0037
2062.00,0.0036
2061.75,0.0036
2061.50,0.0035
2061.25,0.0033
2061.00,0.0030
2060.75,0.0028
2060.50,0.0027
2060.25,0.0029
2060.00,0.0033
2059.75,0.0037
2059.50,0.0039
2059.25,0.0040
2059.00,0.0040
2058.75,0.0039
2058.50,0.0038
2058.25,0.0037
2058.00,0.0036
2057.75,0.0035
2057.50,0.0033
2057.25,0.0032
2057.00,0.0031
2056.75,0.0032
2056.50,0.0034
2056.25,0.0039
2056.00,0.0045
2055.75,0.0050
2055.50,0.0053
2055.25,0.0052
2055.00,0.0048
2054.75,0.0044
2054.50,0.0040
2054.25,0.0038
2054.00,0.0036
2053.75,0.0034
2053.50,0.0032
2053.25,0.0031
2053.00,0.0032
2052.75,0.0032
2052.50,0.0030
2052.25,0.0028
2052.00,0.0026
2051.75,0.0025
2051.50,0.0027
2051.25,0.0029
2051.00,0.0033
2050.75,0.0035
2050.50,0.0037
2050.25,0.0037
2050.00,0.0036
2049.75,0.0034
2049.50,0.0033
2049.25,0.0032
2049.00,0.0033
2048.75,0.0033
2048.50,0.0032
2048.25,0.0031
2048.00,0.0031
2047.75,0.0033
2047.50,0.0035
2047.25,0.0036
2047.00,0.0036
2046.75,0.0034
2046.50,0.0032
2046.25,0.0031
2046.00,0.0031
2045.75,0.0031
2045.50,0.0030
2045.25,0.0029
2045.00,0.0029
2044.75,0.0029
2044.50,0.0029
2044.25,0.0029
2044.00,0.0029
2043.75,0.0027
2043.50,0.0026
2043.25,0.0024
2043.00,0.0023
2042.75,0.0022
2042.50,0.0022
2042.25,0.0024
2042.00,0.0026
2041.75,0.0028
2041.50,0.0030
2041.25,0.0029
2041.00,0.0027
2040.75,0.0024
2040.50,0.0021
2040.25,0.0020
2040.00,0.0021
2039.75,0.0026
2039.50,0.0033
2039.25,0.0038
2039.00,0.0041
2038.75,0.0040
2038.50,0.0036
2038.25,0.0032
2038.00,0.0028
2037.75,0.0026
2037.50,0.0028
2037.25,0.0035
2037.00,0.0043
2036.75,0.0048
2036.50,0.0048
2036.25,0.0043
2036.00,0.0037
2035.75,0.0033
2035.50,0.0032
2035.25,0.0032
2035.00,0.0030
2034.75,0.0028
2034.50,0.0026
2034.25,0.0026
2034.00,0.0027
2033.75,0.0030
2033.50,0.0034
2033.25,0.0036
2033.00,0.0037
2032.75,0.0037
2032.50,0.0036
2032.25,0.0036
2032.00,0.0035
2031.75,0.0033
2031.50,0.0031
2031.25,0.0030
2031.00,0.0029
2030.75,0.0030
2030.50,0.0031
2030.25,0.0033
2030.00,0.0035
2029.75,0.0035
2029.50,0.0035
2029.25,0.0033
2029.00,0.0029
2028.75,0.0023
2028.50,0.0020
2028.25,0.0019
2028.00,0.0021
2027.75,0.0026
2027.50,0.0032
2027.25,0.0038
2027.00,0.0043
2026.75,0.0047
2026.50,0.0046
2026.25,0.0043
2026.00,0.0037
2025.75,0.0030
2025.50,0.0024
2025.25,0.0018
2025.00,0.0014
2024.75,0.0011
2024.50,0.0012
2024.25,0.0015
2024.00,0.0020
2023.75,0.0024
2023.50,0.0026
2023.25,0.0024
2023.00,0.0021
2022.75,0.0017
2022.50,0.0015
2022.25,0.0016
2022.00,0.0018
2021.75,0.0022
2021.50,0.0024
2021.25,0.0024
2021.00,0.0024
2020.75,0.0025
2020.50,0.0028
2020.25,0.0033
2020.00,0.0037
2019.75,0.0039
2019.50,0.0039
2019.25,0.0039
2019.00,0.0040
2018.75,0.0041
2018.50,0.0041
2018.25,0.0040
2018.00,0.0040
2017.75,0.0041
2017.50,0.0044
2017.25,0.0044
2017.00,0.0042
2016.75,0.0037
2016.50,0.0031
2016.25,0.0026
2016.00,0.0024
2015.75,0.0026
2015.50,0.0028
2015.25,0.0030
2015.00,0.0030
2014.75,0.0029
2014.50,0.0029
2014.25,0.0030
2014.00,0.0032
2013.75,0.0034
2013.50,0.0034
2013.25,0.0032
2013.00,0.0031
2012.75,0.0032
2012.50,0.0035
2012.25,0.0039
2012.00,0.0042
2011.75,0.0042
2011.50,0.0040
2011.25,0.0037
2011.00,0.0035
2010.75,0.0032
2010.50,0.0030
2010.25,0.0029
2010.00,0.0030
2009.75,0.0032
2009.50,0.0033
2009.25,0.0034
2009.00,0.0035
2008.75,0.0037
2008.50,0.0040
2008.25,0.0043
2008.00,0.0046
2007.75,0.0046
2007.50,0.0043
2007.25,0.0037
2007.00,0.0030
2006.75,0.0025
2006.50,0.0025
2006.25,0.0029
2006.00,0.0035
2005.75,0.0038
2005.50,0.0037
2005.25,0.0033
2005.00,0.0029
2004.75,0.0028
2004.50,0.0028
2004.25,0.0029
2004.00,0.0029
2003.75,0.0029
2003.50,0.0031
2003.25,0.0034
2003.00,0.0038
2002.75,0.0040
2002.50,0.0039
2002.25,0.0035
2002.00,0.0030
2001.75,0.0026
2001.50,0.0024
2001.25,0.0026
2001.00,0.0030
2000.75,0.0036
2000.50,0.0041
2000.25,0.0042
2000.00,0.0039
1999.75,0.0035
1999.50,0.0032
1999.25,0.0033
1999.00,0.0039
1998.75,0.0047
1998.50,0.0053
1998.25,0.0056
1998.00,0.0055
1997.75,0.0050
1997.50,0.0045
1997.25,0.0042
1997.00,0.0043
1996.75,0.0045
1996.50,0.0048
1996.25,0.0048
1996.00,0.0045
1995.75,0.0040
1995.50,0.0036
1995.25,0.0035
1995.00,0.0036
1994.75,0.0038
1994.50,0.0040
1994.25,0.0041
1994.00,0.0041
1993.75,0.0040
1993.50,0.0039
1993.25,0.0037
1993.00,0.0036
1992.75,0.0036
1992.50,0.0037
1992.25,0.0039
1992.00,0.0041
1991.75,0.0044
1991.50,0.0046
1991.25,0.0050
1991.00,0.0055
1990.75,0.0060
1990.50,0.0061
1990.25,0.0059
1990.00,0.0053
1989.75,0.0046
1989.50,0.0043
1989.25,0.0044
1989.00,0.0048
1988.75,0.0051
1988.50,0.0050
1988.25,0.0046
1988.00,0.0041
1987.75,0.0039
1987.50,0.0042
1987.25,0.0047
1987.00,0.0053
1986.75,0.0057
1986.50,0.0059
1986.25,0.0058
1986.00,0.0055
1985.75,0.0052
1985.50,0.0047
1985.25,0.0043
1985.00,0.0038
1984.75,0.0034
1984.50,0.0030
1984.25,0.0028
1984.00,0.0029
1983.75,0.0031
1983.50,0.0035
1983.25,0.0039
1983.00,0.0041
1982.75,0.0043
1982.50,0.0045
1982.25,0.0048
1982.00,0.0049
1981.75,0.0048
1981.50,0.0044
1981.25,0.0039
1981.00,0.0036
1980.75,0.0036
1980.50,0.0039
1980.25,0.0042
1980.00,0.0044
1979.75,0.0044
1979.50,0.0044
1979.25,0.0045
1979.00,0.0047
1978.75,0.0047
1978.50,0.0045
1978.25,0.0040
1978.00,0.0037
1977.75,0.0036
1977.50,0.0038
1977.25,0.0039
1977.00,0.0041
1976.75,0.0043
1976.50,0.0047
1976.25,0.0051
1976.00,0.0053
1975.75,0.0051
1975.50,0.0048
1975.25,0.0046
1975.00,0.0048
1974.75,0.0051
1974.50,0.0052
1974.25,0.0050
1974.00,0.0046
1973.75,0.0041
1973.50,0.0038
1973.25,0.0036
1973.00,0.0034
1972.75,0.0031
1972.50,0.0028
1972.25,0.0026
1972.00,0.0027
1971.75,0.0031
1971.50,0.0037
1971.25,0.0044
1971.00,0.0048
1970.75,0.0050
1970.50,0.0050
1970.25,0.0051
1970.00,0.0054
1969.75,0.0057
1969.50,0.0057
1969.25,0.0052
1969.00,0.0044
1968.75,0.0038
1968.50,0.0036
1968.25,0.0038
1968.00,0.0042
1967.75,0.0043
1967.50,0.0043
1967.25,0.0043
1967.00,0.0044
1966.75,0.0049
1966.50,0.0054
1966.25,0.0057
1966.00,0.0057
1965.75,0.0053
1965.50,0.0048
1965.25,0.0045
1965.00,0.0043
1964.75,0.0045
1964.50,0.0048
1964.25,0.0051
1964.00,0.0055
1963.75,0.0058
1963.50,0.0060
1963.25,0.0063
1963.00,0.0066
1962.75,0.0067
1962.50,0.0068
1962.25,0.0066
1962.00,0.0060
1961.75,0.0053
1961.50,0.0044
1961.25,0.0037
1961.00,0.0033
1960.75,0.0034
1960.50,0.0040
1960.25,0.0049
1960.00,0.0058
1959.75,0.0063
1959.50,0.0063
1959.25,0.0059
1959.00,0.0054
1958.75,0.0051
1958.50,0.0049
1958.25,0.0048
1958.00,0.0046
1957.75,0.0043
1957.50,0.0042
1957.25,0.0044
1957.00,0.0048
1956.75,0.0052
1956.50,0.0055
1956.25,0.0056
1956.00,0.0056
1955.75,0.0056
1955.50,0.0056
1955.25,0.0054
1955.00,0.0050
1954.75,0.0047
1954.50,0.0044
1954.25,0.0043
1954.00,0.0042
1953.75,0.0042
1953.50,0.0043
1953.25,0.0045
1953.00,0.0048
1952.75,0.0051
1952.50,0.0053
1952.25,0.0053
1952.00,0.0053
1951.75,0.0053
1951.50,0.0054
1951.25,0.0054
1951.00,0.0054
1950.75,0.0053
1950.50,0.0051
1950.25,0.0049
1950.00,0.0047
1949.75,0.0046
1949.50,0.0046
1949.25,0.0048
1949.00,0.0051
1948.75,0.0053
1948.50,0.0054
1948.25,0.0052
1948.00,0.0050
1947.75,0.0050
1947.50,0.0052
1947.25,0.0055
1947.00,0.0058
1946.75,0.0059
1946.50,0.0059
1946.25,0.0060
1946.00,0.0060
1945.75,0.0061
1945.50,0.0060
1945.25,0.0059
1945.00,0.0058
1944.75,0.0056
1944.50,0.0053
1944.25,0.0049
1944.00,0.0046
1943.75,0.0044
1943.50,0.0044
1943.25,0.0046
1943.00,0.0050
1942.75,0.0053
1942.50,0.0056
1942.25,0.0057
1942.00,0.0059
1941.75,0.0061
1941.50,0.0063
1941.25,0.0064
1941.00,0.0063
1940.75,0.0061
1940.50,0.0059
1940.25,0.0058
1940.00,0.0057
1939.75,0.0055
1939.50,0.0053
1939.25,0.0051
1939.00,0.0051
1938.75,0.0053
1938.50,0.0055
1938.25,0.0057
1938.00,0.0058
1937.75,0.0058
1937.50,0.0056
1937.25,0.0055
1937.00,0.0052
1936.75,0.0051
1936.50,0.0049
1936.25,0.0048
1936.00,0.0048
1935.75,0.0048
1935.50,0.0048
1935.25,0.0048
1935.00,0.0050
1934.75,0.0052
1934.50,0.0054
1934.25,0.0055
1934.00,0.0054
1933.75,0.0051
1933.50,0.0047
1933.25,0.0043
1933.00,0.0042
1932.75,0.0043
1932.50,0.0047
1932.25,0.0051
1932.00,0.0054
1931.75,0.0056
1931.50,0.0056
1931.25,0.0054
1931.00,0.0052
1930.75,0.0050
1930.50,0.0049
1930.25,0.0049
1930.00,0.0049
1929.75,0.0051
1929.50,0.0053
1929.25,0.0056
1929.00,0.0059
1928.75,0.0061
1928.50,0.0061
1928.25,0.0061
1928.00,0.0060
1927.75,0.0058
1927.50,0.0057
1927.25,0.0056
1927.00,0.0056
1926.75,0.0056
1926.50,0.0056
1926.25,0.0055
1926.00,0.0053
1925.75,0.0051
1925.50,0.0050
1925.25,0.0050
1925.00,0.0052
1924.75,0.0054
1924.50,0.0056
1924.25,0.0058
1924.00,0.0059
1923.75,0.0061
1923.50,0.0061
1923.25,0.0060
1923.00,0.0058
1922.75,0.0056
1922.50,0.0055
1922.25,0.0055
1922.00,0.0056
1921.75,0.0056
1921.50,0.0056
1921.25,0.0055
1921.00,0.0054
1920.75,0.0053
1920.50,0.0054
1920.25,0.0055
1920.00,0.0057
1919.75,0.0059
1919.50,0.0059
1919.25,0.0058
1919.00,0.0058
1918.75,0.0057
1918.50,0.0056
1918.25,0.0056
1918.00,0.0056
1917.75,0.0057
1917.50,0.0057
1917.25,0.0058
1917.00,0.0058
1916.75,0.0057
1916.50,0.0056
1916.25,0.0054
1916.00,0.0053
1915.75,0.0052
1915.50,0.0053
1915.25,0.0054
1915.00,0.0055
1914.75,0.0055
1914.50,0.0055
1914.25,0.0054
1914.00,0.0054
1913.75,0.0054
1913.50,0.0056
1913.25,0.0058
1913.00,0.0061
1912.75,0.0064
1912.50,0.0065
1912.25,0.0065
1912.00,0.0064
1911.75,0.0062
1911.50,0.0058
1911.25,0.0055
1911.00,0.0052
1910.75,0.0052
1910.50,0.0054
1910.25,0.0056
1910.00,0.0056
1909.75,0.0056
1909.50,0.0055
1909.25,0.0055
1909.00,0.0055
1908.75,0.0055
1908.50,0.0056
1908.25,0.0058
1908.00,0.0060
1907.75,0.0062
1907.50,0.0064
1907.25,0.0064
1907.00,0.0064
1906.75,0.0062
1906.50,0.0059
1906.25,0.0056
1906.00,0.0052
1905.75,0.0050
1905.50,0.0048
1905.25,0.0047
1905.00,0.0047
1904.75,0.0047
1904.50,0.0047
1904.25,0.0048
1904.00,0.0050
1903.75,0.0054
1903.50,0.0058
1903.25,0.0063
1903.00,0.0066
1902.75,0.0068
1902.50,0.0068
1902.25,0.0067
1902.00,0.0066
1901.75,0.0064
1901.50,0.0061
1901.25,0.0059
1901.00,0.0057
1900.75,0.0057
1900.50,0.0058
1900.25,0.0059
1900.00,0.0060
1899.75,0.0059
1899.50,0.0058
1899.25,0.0056
1899.00,0.0054
1898.75,0.0052
1898.50,0.0051
1898.25,0.0052
1898.00,0.0053
1897.75,0.0055
1897.50,0.0057
1897.25,0.0058
1897.00,0.0058
1896.75,0.0057
1896.50,0.0057
1896.25,0.0057
1896.00,0.0057
1895.75,0.0057
1895.50,0.0057
1895.25,0.0056
1895.00,0.0054
1894.75,0.0052
1894.50,0.0051
1894.25,0.0052
1894.00,0.0055
1893.75,0.0058
1893.50,0.0060
1893.25,0.0061
1893.00,0.0059
1892.75,0.0057
1892.50,0.0055
1892.25,0.0055
1892.00,0.0056
1891.75,0.0057
1891.50,0.0058
1891.25,0.0057
1891.00,0.0055
1890.75,0.0053
1890.50,0.0052
1890.25,0.0051
1890.00,0.0051
1889.75,0.0052
1889.50,0.0053
1889.25,0.0054
1889.00,0.0054
1888.75,0.0055
1888.50,0.0056
1888.25,0.0057
1888.00,0.0057
1887.75,0.0057
1887.50,0.0056
1887.25,0.0057
1887.00,0.0058
1886.75,0.0059
1886.50,0.0061
1886.25,0.0063
1886.00,0.0064
1885.75,0.0062
1885.50,0.0059
1885.25,0.0056
1885.00,0.0053
1884.75,0.0051
1884.50,0.0050
1884.25,0.0049
1884.00,0.0050
1883.75,0.0051
1883.50,0.0053
1883.25,0.0054
1883.00,0.0054
1882.75,0.0054
1882.50,0.0054
1882.25,0.0055
1882.00,0.0056
1881.75,0.0056
1881.50,0.0056
1881.25,0.0056
1881.00,0.0056
1880.75,0.0058
1880.50,0.0059
1880.25,0.0059
1880.00,0.0058
1879.75,0.0057
1879.50,0.0055
1879.25,0.0054
1879.00,0.0055
1878.75,0.0056
1878.50,0.0057
1878.25,0.0058
1878.00,0.0059
1877.75,0.0059
1877.50,0.0059
1877.25,0.0058
1877.00,0.0056
1876.75,0.0053
1876.50,0.0052
1876.25,0.0052
1876.00,0.0052
1875.75,0.0053
1875.50,0.0054
1875.25,0.0053
1875.00,0.0053
1874.75,0.0052
1874.50,0.0053
1874.25,0.0053
1874.00,0.0054
1873.75,0.0055
1873.50,0.0056
1873.25,0.0057
1873.00,0.0056
1872.75,0.0055
1872.50,0.0054
1872.25,0.0053
1872.00,0.0053
1871.75,0.0053
1871.50,0.0052
1871.25,0.0053
1871.00,0.0054
1870.75,0.0056
1870.50,0.0059
1870.25,0.0060
1870.00,0.0059
1869.75,0.0056
1869.50,0.0052
1869.25,0.0050
1869.00,0.0050
1868.75,0.0053
1868.50,0.0054
1868.25,0.0053
1868.00,0.0050
1867.75,0.0047
1867.50,0.0047
1867.25,0.0050
1867.00,0.0054
1866.75,0.0057
1866.50,0.0059
1866.25,0.0059
1866.00,0.0060
1865.75,0.0060
1865.50,0.0062
1865.25,0.0063
1865.00,0.0065
1864.75,0.0065
1864.50,0.0064
1864.25,0.0062
1864.00,0.0061
1863.75,0.0060
1863.50,0.0060
1863.25,0.0062
1863.00,0.0063
1862.75,0.0065
1862.50,0.0065
1862.25,0.0065
1862.00,0.0063
1861.75,0.0061
1861.50,0.0060
1861.25,0.0060
1861.00,0.0060
1860.75,0.0062
1860.50,0.0063
1860.25,0.0063
1860.00,0.0062
1859.75,0.0060
1859.50,0.0059
1859.25,0.0058
1859.00,0.0057
1858.75,0.0058
1858.50,0.0057
1858.25,0.0056
1858.00,0.0053
1857.75,0.0051
1857.50,0.0049
1857.25,0.0048
1857.00,0.0049
1856.75,0.0052
1856.50,0.0055
1856.25,0.0058
1856.00,0.0060
1855.75,0.0060
1855.50,0.0059
1855.25,0.0059
1855.00,0.0059
1854.75,0.0060
1854.50,0.0060
1854.25,0.0060
1854.00,0.0060
1853.75,0.0060
1853.50,0.0061
1853.25,0.0061
1853.00,0.0060
1852.75,0.0060
1852.50,0.0059
1852.25,0.0058
1852.00,0.0058
1851.75,0.0058
1851.50,0.0059
1851.25,0.0061
1851.00,0.0062
1850.75,0.0064
1850.50,0.0064
1850.25,0.0064
1850.00,0.0064
1849.75,0.0062
1849.50,0.0061
1849.25,0.0059
1849.00,0.0058
1848.75,0.0058
1848.50,0.0058
1848.25,0.0057
1848.00,0.0056
1847.75,0.0055
1847.50,0.0053
1847.25,0.0051
1847.00,0.0051
1846.75,0.0052
1846.50,0.0054
1846.25,0.0056
1846.00,0.0059
1845.75,0.0062
1845.50,0.0064
1845.25,0.0064
1845.00,0.0062
1844.75,0.0060
1844.50,0.0059
1844.25,0.0061
1844.00,0.0064
1843.75,0.0064
1843.50,0.0063
1843.25,0.0061
1843.00,0.0059
1842.75,0.0057
1842.50,0.0056
1842.25,0.0056
1842.00,0.0057
1841.75,0.0058
1841.50,0.0059
1841.25,0.0060
1841.00,0.0060
1840.75,0.0061
1840.50,0.0061
1840.25,0.0062
1840.00,0.0063
1839.75,0.0063
1839.50,0.0063
1839.25,0.0062
1839.00,0.0061
1838.75,0.0060
1838.50,0.0059
1838.25,0.0060
1838.00,0.0060
1837.75,0.0061
1837.50,0.0061
1837.25,0.0061
1837.00,0.0062
1836.75,0.0063
1836.50,0.0063
1836.25,0.0062
1836.00,0.0061
1835.75,0.0061
1835.50,0.0061
1835.25,0.0062
1835.00,0.0062
1834.75,0.0062
1834.50,0.0060
1834.25,0.0059
1834.00,0.0057
1833.75,0.0057
1833.50,0.0058
1833.25,0.0060
1833.00,0.0061
1832.75,0.0061
1832.50,0.0061
1832.25,0.0062
1832.00,0.0062
1831.75,0.0063
1831.50,0.0063
1831.25,0.0063
1831.00,0.0063
1830.75,0.0063
1830.50,0.0062
1830.25,0.0062
1830.00,0.0063
1829.75,0.0065
1829.50,0.0067
1829.25,0.0068
1829.00,0.0067
1828.75,0.0066
1828.50,0.0065
1828.25,0.0063
1828.00,0.0061
1827.75,0.0060
1827.50,0.0059
1827.25,0.0060
1827.00,0.0061
1826.75,0.0063
1826.50,0.0064
1826.25,0.0064
1826.00,0.0064
1825.75,0.0063
1825.50,0.0062
1825.25,0.0062
1825.00,0.0063
1824.75,0.0064
1824.50,0.0064
1824.25,0.0064
1824.00,0.0063
1823.75,0.0062
1823.50,0.0061
1823.25,0.0061
1823.00,0.0062
1822.75,0.0065
1822.50,0.0067
1822.25,0.0069
1822.00,0.0068
1821.75,0.0067
1821.50,0.0065
1821.25,0.0065
1821.00,0.0064
1820.75,0.0064
1820.50,0.0062
1820.25,0.0061
1820.00,0.0059
1819.75,0.0058
1819.50,0.0058
1819.25,0.0058
1819.00,0.0059
1818.75,0.0060
1818.50,0.0062
1818.25,0.0063
1818.00,0.0064
1817.75,0.0063
1817.50,0.0061
1817.25,0.0059
1817.00,0.0059
1816.75,0.0060
1816.50,0.0062
1816.25,0.0063
1816.00,0.0064
1815.75,0.0065
1815.50,0.0065
1815.25,0.0065
1815.00,0.0065
1814.75,0.0065
1814.50,0.0065
1814.25,0.0063
1814.00,0.0063
1813.75,0.0063
1813.50,0.0064
1813.25,0.0065
1813.00,0.0066
1812.75,0.0065
1812.50,0.0064
1812.25,0.0063
1812.00,0.0062
1811.75,0.0063
1811.50,0.0063
1811.25,0.0063
1811.00,0.0063
1810.75,0.0064
1810.50,0.0065
1810.25,0.0065
1810.00,0.0065
1809.75,0.0064
1809.50,0.0063
1809.25,0.0064
1809.00,0.0063
1808.75,0.0062
1808.50,0.0061
1808.25,0.0059
1808.00,0.0059
1807.75,0.0060
1807.50,0.0061
1807.25,0.0061
1807.00,0.0060
1806.75,0.0060
1806.50,0.0061
1806.25,0.0063
1806.00,0.0064
1805.75,0.0066
1805.50,0.0066
1805.25,0.0065
1805.00,0.0064
1804.75,0.0062
1804.50,0.0061
1804.25,0.0062
1804.00,0.0064
1803.75,0.0065
1803.50,0.0065
1803.25,0.0063
1803.00,0.0060
1802.75,0.0058
1802.50,0.0058
1802.25,0.0058
1802.00,0.0060
1801.75,0.0061
1801.50,0.0062
1801.25,0.0063
1801.00,0.0064
1800.75,0.0064
1800.50,0.0065
1800.25,0.0066
1800.00,0.0067
1799.75,0.0068
1799.50,0.0069
1799.25,0.0067
1799.00,0.0065
1798.75,0.0062
1798.50,0.0059
1798.25,0.0058
1798.00,0.0058
1797.75,0.0059
1797.50,0.0060
1797.25,0.0061
1797.00,0.0062
1796.75,0.0063
1796.50,0.0063
1796.25,0.0062
1796.00,0.0062
1795.75,0.0063
1795.50,0.0065
1795.25,0.0066
1795.00,0.0067
1794.75,0.0066
1794.50,0.0065
1794.25,0.0064
1794.00,0.0063
1793.75,0.0062
1793.50,0.0061
1793.25,0.0060
1793.00,0.0060
1792.75,0.0061
1792.50,0.0064
1792.25,0.0067
1792.00,0.0067
1791.75,0.0067
1791.50,0.0065
1791.25,0.0064
1791.00,0.0062
1790.75,0.0062
1790.50,0.0064
1790.25,0.0066
1790.00,0.0068
1789.75,0.0068
1789.50,0.0068
1789.25,0.0068
1789.00,0.0068
1788.75,0.0068
1788.50,0.0068
1788.25,0.0068
1788.00,0.0067
1787.75,0.0066
1787.50,0.0065
1787.25,0.0065
1787.00,0.0065
1786.75,0.0066
1786.50,0.0067
1786.25,0.0067
1786.00,0.0067
1785.75,0.0066
1785.50,0.0065
1785.25,0.0065
1785.00,0.0064
1784.75,0.0064
1784.50,0.0065
1784.25,0.0066
1784.00,0.0067
1783.75,0.0067
1783.50,0.0066
1783.25,0.0065
1783.00,0.0065
1782.75,0.0065
1782.50,0.0066
1782.25,0.0068
1782.00,0.0069
1781.75,0.0069
1781.50,0.0068
1781.25,0.0067
1781.00,0.0066
1780.75,0.0066
1780.50,0.0066
1780.25,0.0066
1780.00,0.0066
1779.75,0.0065
1779.50,0.0065
1779.25,0.0065
1779.00,0.0066
1778.75,0.0066
1778.50,0.0066
1778.25,0.0066
1778.00,0.0066
1777.75,0.0065
1777.50,0.0065
1777.25,0.0066
1777.00,0.0066
1776.75,0.0067
1776.50,0.0068
1776.25,0.0068
1776.00,0.0068
1775.75,0.0068
1775.50,0.0068
1775.25,0.0067
1775.00,0.0066
1774.75,0.0065
1774.50,0.0065
1774.25,0.0066
1774.00,0.0067
1773.75,0.0066
1773.50,0.0065
1773.25,0.0062
1773.00,0.0060
1772.75,0.0060
1772.50,0.0063
1772.25,0.0066
1772.00,0.0067
1771.75,0.0066
1771.50,0.0065
1771.25,0.0065
1771.00,0.0066
1770.75,0.0067
1770.50,0.0067
1770.25,0.0067
1770.00,0.0065
1769.75,0.0065
1769.50,0.0064
1769.25,0.0065
1769.00,0.0065
1768.75,0.0065
1768.50,0.0063
1768.25,0.0062
1768.00,0.0061
1767.75,0.0061
1767.50,0.0063
1767.25,0.0063
1767.00,0.0064
1766.75,0.0065
1766.50,0.0065
1766.25,0.0066
1766.00,0.0067
1765.75,0.0066
1765.50,0.0066
1765.25,0.0065
1765.00,0.0065
1764.75,0.0066
1764.50,0.0067
1764.25,0.0067
1764.00,0.0067
1763.75,0.0067
1763.50,0.0067
1763.25,0.0067
1763.00,0.0067
1762.75,0.0066
1762.50,0.0063
1762.25,0.0058
1762.00,0.0054
1761.75,0.0053
1761.50,0.0058
1761.25,0.0064
1761.00,0.0068
1760.75,0.0070
1760.50,0.0071
1760.25,0.0070
1760.00,0.0069
1759.75,0.0067
1759.50,0.0066
1759.25,0.0065
1759.00,0.0064
1758.75,0.0064
1758.50,0.0065
1758.25,0.0067
1758.00,0.0068
1757.75,0.0068
1757.50,0.0069
1757.25,0.0069
1757.00,0.0069
1756.75,0.0069
1756.50,0.0068
1756.25,0.0068
1756.00,0.0068
1755.75,0.0067
1755.50,0.0067
1755.25,0.0067
1755.00,0.0068
1754.75,0.0069
1754.50,0.0070
1754.25,0.0069
1754.00,0.0068
1753.75,0.0067
1753.50,0.0065
1753.25,0.0064
1753.00,0.0063
1752.75,0.0063
1752.50,0.0064
1752.25,0.0065
1752.00,0.0067
1751.75,0.0069
1751.50,0.0070
1751.25,0.0069
1751.00,0.0065
1750.75,0.0063
1750.50,0.0064
1750.25,0.0066
1750.00,0.0067
1749.75,0.0068
1749.50,0.0068
1749.25,0.0067
1749.00,0.0067
1748.75,0.0066
1748.50,0.0066
1748.25,0.0067
1748.00,0.0069
1747.75,0.0071
1747.50,0.0073
1747.25,0.0075
1747.00,0.0075
1746.75,0.0074
1746.50,0.0073
1746.25,0.0072
1746.00,0.0072
1745.75,0.0071
1745.50,0.0069
1745.25,0.0068
1745.00,0.0067
1744.75,0.0067
1744.50,0.0067
1744.25,0.0068
1744.00,0.0069
1743.75,0.0071
1743.50,0.0073
1743.25,0.0073
1743.00,0.0071
1742.75,0.0068
1742.50,0.0065
1742.25,0.0064
1742.00,0.0065
1741.75,0.0066
1741.50,0.0068
1741.25,0.0068
1741.00,0.0068
1740.75,0.0068
1740.50,0.0068
1740.25,0.0068
1740.00,0.0069
1739.75,0.0070
1739.50,0.0069
1739.25,0.0068
1739.00,0.0068
1738.75,0.0068
1738.50,0.0068
1738.25,0.0068
1738.00,0.0068
1737.75,0.0067
1737.50,0.0067
1737.25,0.0066
1737.00,0.0065
1736.75,0.0065
1736.50,0.0066
1736.25,0.0067
1736.00,0.0069
1735.75,0.0070
1735.50,0.0071
1735.25,0.0072
1735.00,0.0071
1734.75,0.0070
1734.50,0.0068
1734.25,0.0066
1734.00,0.0065
1733.75,0.0065
1733.50,0.0064
1733.25,0.0063
1733.00,0.0061
1732.75,0.0061
1732.50,0.0061
1732.25,0.0062
1732.00,0.0064
1731.75,0.0066
1731.50,0.0069
1731.25,0.0071
1731.00,0.0073
1730.75,0.0074
1730.50,0.0076
1730.25,0.0078
1730.00,0.0078
1729.75,0.0076
1729.50,0.0072
1729.25,0.0070
1729.00,0.0070
1728.75,0.0070
1728.50,0.0071
1728.25,0.0071
1728.00,0.0071
1727.75,0.0070
1727.50,0.0070
1727.25,0.0071
1727.00,0.0072
1726.75,0.0072
1726.50,0.0072
1726.25,0.0071
1726.00,0.0070
1725.75,0.0069
1725.50,0.0069
1725.25,0.0069
1725.00,0.0070
1724.75,0.0071
1724.50,0.0070
1724.25,0.0070
1724.00,0.0069
1723.75,0.0069
1723.50,0.0069
1723.25,0.0068
1723.00,0.0067
1722.75,0.0067
1722.50,0.0067
1722.25,0.0069
1722.00,0.0070
1721.75,0.0072
1721.50,0.0073
1721.25,0.0073
1721.00,0.0073
1720.75,0.0072
1720.50,0.0071
1720.25,0.0070
1720.00,0.0070
1719.75,0.0069
1719.50,0.0069
1719.25,0.0070
1719.00,0.0070
1718.75,0.0072
1718.50,0.0073
1718.25,0.0073
1718.00,0.0070
1717.75,0.0065
1717.50,0.0060
1717.25,0.0057
1717.00,0.0059
1716.75,0.0063
1716.50,0.0066
1716.25,0.0069
1716.00,0.0070
1715.75,0.0071
1715.50,0.0074
1715.25,0.0075
1715.00,0.0075
1714.75,0.0073
1714.50,0.0070
1714.25,0.0068
1714.00,0.0067
1713.75,0.0067
1713.50,0.0068
1713.25,0.0069
1713.00,0.0070
1712.75,0.0071
1712.50,0.0072
1712.25,0.0072
1712.00,0.0072
1711.75,0.0072
1711.50,0.0073
1711.25,0.0074
1711.00,0.0074
1710.75,0.0074
1710.50,0.0073
1710.25,0.0071
1710.00,0.0069
1709.75,0.0067
1709.50,0.0067
1709.25,0.0068
1709.00,0.0069
1708.75,0.0070
1708.50,0.0069
1708.25,0.0069
1708.00,0.0069
1707.75,0.0069
1707.50,0.0071
1707.25,0.0072
1707.00,0.0073
1706.75,0.0072
1706.50,0.0070
1706.25,0.0068
1706.00,0.0068
1705.75,0.0068
1705.50,0.0069
1705.25,0.0068
1705.00,0.0068
1704.75,0.0067
1704.50,0.0067
1704.25,0.0067
1704.00,0.0068
1703.75,0.0069
1703.50,0.0070
1703.25,0.0071
1703.00,0.0072
1702.75,0.0072
1702.50,0.0071
1702.25,0.0069
1702.00,0.0068
1701.75,0.0068
1701.50,0.0068
1701.25,0.0070
1701.00,0.0071
1700.75,0.0070
1700.50,0.0069
1700.25,0.0074
1700.00,0.0071
1699.75,0.0072
1699.50,0.0073
1699.25,0.0072
1699.00,0.0071
1698.75,0.0070
1698.50,0.0069
1698.25,0.0068
1698.00,0.0067
1697.75,0.0066
1697.50,0.0066
1697.25,0.0066
1697.00,0.0066
1696.75,0.0066
1696.50,0.0066
1696.25,0.0067
1696.00,0.0069
1695.75,0.0073
1695.50,0.0071
1695.25,0.0069
1695.00,0.0068
1694.75,0.0067
1694.50,0.0067
1694.25,0.0067
1694.00,0.0067
1693.75,0.0068
1693.50,0.0069
1693.25,0.0070
1693.00,0.0071
1692.75,0.0073
1692.50,0.0074
1692.25,0.0074
1692.00,0.0074
1691.75,0.0073
1691.50,0.0072
1691.25,0.0071
1691.00,0.0070
1690.75,0.0069
1690.50,0.0069
1690.25,0.0070
1690.00,0.0071
1689.75,0.0071
1689.50,0.0071
1689.25,0.0071
1689.00,0.0071
1688.75,0.0070
1688.50,0.0070
1688.25,0.0071
1688.00,0.0073
1687.75,0.0075
1687.50,0.0076
1687.25,0.0076
1687.00,0.0076
1686.75,0.0075
1686.50,0.0073
1686.25,0.0072
1686.00,0.0072
1685.75,0.0071
1685.50,0.0070
1685.25,0.0069
1685.00,0.0073
1684.75,0.0082
1684.50,0.0093
1684.25,0.0092
1684.00,0.0086
1683.75,0.0080
1683.50,0.0076
1683.25,0.0073
1683.00,0.0070
1682.75,0.0069
1682.50,0.0069
1682.25,0.0069
1682.00,0.0070
1681.75,0.0072
1681.50,0.0074
1681.25,0.0075
1681.00,0.0076
1680.75,0.0076
1680.50,0.0076
1680.25,0.0075
1680.00,0.0074
1679.75,0.0074
1679.50,0.0073
1679.25,0.0072
1679.00,0.0071
1678.75,0.0071
1678.50,0.0071
1678.25,0.0072
1678.00,0.0073
1677.75,0.0074
1677.50,0.0075
1677.25,0.0075
1677.00,0.0074
1676.75,0.0073
1676.50,0.0072
1676.25,0.0071
1676.00,0.0071
1675.75,0.0072
1675.50,0.0073
1675.25,0.0074
1675.00,0.0073
1674.75,0.0071
1674.50,0.0070
1674.25,0.0069
1674.00,0.0069
1673.75,0.0069
1673.50,0.0069
1673.25,0.0069
1673.00,0.0070
1672.75,0.0070
1672.50,0.0071
1672.25,0.0072
1672.00,0.0072
1671.75,0.0072
1671.50,0.0071
1671.25,0.0071
1671.00,0.0070
1670.75,0.0071
1670.50,0.0071
1670.25,0.0071
1670.00,0.0072
1669.75,0.0072
1669.50,0.0073
1669.25,0.0074
1669.00,0.0073
1668.75,0.0072
1668.50,0.0070
1668.25,0.0070
1668.00,0.0070
1667.75,0.0071
1667.50,0.0071
1667.25,0.0072
1667.00,0.0072
1666.75,0.0073
1666.50,0.0074
1666.25,0.0074
1666.00,0.0075
1665.75,0.0075
1665.50,0.0074
1665.25,0.0074
1665.00,0.0073
1664.75,0.0072
1664.50,0.0072
1664.25,0.0071
1664.00,0.0071
1663.75,0.0071
1663.50,0.0071
1663.25,0.0071
1663.00,0.0072
1662.75,0.0073
1662.50,0.0075
1662.25,0.0075
1662.00,0.0076
1661.75,0.0076
1661.50,0.0076
1661.25,0.0076
1661.00,0.0076
1660.75,0.0075
1660.50,0.0074
1660.25,0.0074
1660.00,0.0074
1659.75,0.0074
1659.50,0.0074
1659.25,0.0074
1659.00,0.0075
1658.75,0.0075
1658.50,0.0076
1658.25,0.0076
1658.00,0.0076
1657.75,0.0076
1657.50,0.0075
1657.25,0.0075
1657.00,0.0074
1656.75,0.0073
1656.50,0.0073
1656.25,0.0073
1656.00,0.0074
1655.75,0.0075
1655.50,0.0075
1655.25,0.0075
1655.00,0.0075
1654.75,0.0073
1654.50,0.0072
1654.25,0.0070
1654.00,0.0068
1653.75,0.0064
1653.50,0.0060
1653.25,0.0056
1653.00,0.0055
1652.75,0.0056
1652.50,0.0053
1652.25,0.0059
1652.00,0.0064
1651.75,0.0068
1651.50,0.0070
1651.25,0.0071
1651.00,0.0072
1650.75,0.0073
1650.50,0.0074
1650.25,0.0075
1650.00,0.0076
1649.75,0.0077
1649.50,0.0077
1649.25,0.0077
1649.00,0.0076
1648.75,0.0075
1648.50,0.0073
1648.25,0.0072
1648.00,0.0073
1647.75,0.0073
1647.50,0.0073
1647.25,0.0073
1647.00,0.0072
1646.75,0.0071
1646.50,0.0070
1646.25,0.0070
1646.00,0.0071
1645.75,0.0073
1645.50,0.0073
1645.25,0.0073
1645.00,0.0073
1644.75,0.0073
1644.50,0.0073
1644.25,0.0073
1644.00,0.0074
1643.75,0.0076
1643.50,0.0077
1643.25,0.0078
1643.00,0.0079
1642.75,0.0080
1642.50,0.0080
1642.25,0.0079
1642.00,0.0079
1641.75,0.0078
1641.50,0.0078
1641.25,0.0077
1641.00,0.0077
1640.75,0.0076
1640.50,0.0076
1640.25,0.0076
1640.00,0.0076
1639.75,0.0077
1639.50,0.0077
1639.25,0.0078
1639.00,0.0078
1638.75,0.0079
1638.50,0.0079
1638.25,0.0079
1638.00,0.0080
1637.75,0.0080
1637.50,0.0079
1637.25,0.0078
1637.00,0.0076
1636.75,0.0075
1636.50,0.0075
1636.25,0.0076
1636.00,0.0078
1635.75,0.0083
1635.50,0.0089
1635.25,0.0088
1635.00,0.0077
1634.75,0.0071
1634.50,0.0071
1634.25,0.0072
1634.00,0.0074
1633.75,0.0076
1633.50,0.0077
1633.25,0.0078
1633.00,0.0079
1632.75,0.0080
1632.50,0.0079
1632.25,0.0079
1632.00,0.0078
1631.75,0.0077
1631.50,0.0076
1631.25,0.0075
1631.00,0.0075
1630.75,0.0075
1630.50,0.0075
1630.25,0.0075
1630.00,0.0076
1629.75,0.0077
1629.50,0.0078
1629.25,0.0078
1629.00,0.0079
1628.75,0.0079
1628.50,0.0078
1628.25,0.0076
1628.00,0.0074
1627.75,0.0073
1627.50,0.0073
1627.25,0.0074
1627.00,0.0075
1626.75,0.0077
1626.50,0.0078
1626.25,0.0079
1626.00,0.0079
1625.75,0.0078
1625.50,0.0077
1625.25,0.0077
1625.00,0.0076
1624.75,0.0076
1624.50,0.0076
1624.25,0.0076
1624.00,0.0075
1623.75,0.0074
1623.50,0.0073
1623.25,0.0073
1623.00,0.0073
1622.75,0.0074
1622.50,0.0075
1622.25,0.0076
1622.00,0.0077
1621.75,0.0078
1621.50,0.0078
1621.25,0.0078
1621.00,0.0077
1620.75,0.0077
1620.50,0.0077
1620.25,0.0077
1620.00,0.0077
1619.75,0.0077
1619.50,0.0077
1619.25,0.0076
1619.00,0.0074
1618.75,0.0073
1618.50,0.0073
1618.25,0.0074
1618.00,0.0075
1617.75,0.0075
1617.50,0.0075
1617.25,0.0074
1617.00,0.0074
1616.75,0.0074
1616.50,0.0073
1616.25,0.0070
1616.00,0.0068
1615.75,0.0069
1615.50,0.0071
1615.25,0.0073
1615.00,0.0075
1614.75,0.0077
1614.50,0.0078
1614.25,0.0077
1614.00,0.0077
1613.75,0.0077
1613.50,0.0078
1613.25,0.0079
1613.00,0.0080
1612.75,0.0080
1612.50,0.0080
1612.25,0.0079
1612.00,0.0077
1611.75,0.0076
1611.50,0.0076
1611.25,0.0076
1611.00,0.0077
1610.75,0.0078
1610.50,0.0079
1610.25,0.0080
1610.00,0.0081
1609.75,0.0081
1609.50,0.0081
1609.25,0.0081
1609.00,0.0080
1608.75,0.0080
1608.50,0.0079
1608.25,0.0079
1608.00,0.0080
1607.75,0.0081
1607.50,0.0082
1607.25,0.0083
1607.00,0.0083
1606.75,0.0083
1606.50,0.0083
1606.25,0.0083
1606.00,0.0083
1605.75,0.0082
1605.50,0.0081
1605.25,0.0080
1605.00,0.0079
1604.75,0.0079
1604.50,0.0078
1604.25,0.0078
1604.00,0.0078
1603.75,0.0078
1603.50,0.0079
1603.25,0.0079
1603.00,0.0079
1602.75,0.0079
1602.50,0.0079
1602.25,0.0079
1602.00,0.0079
1601.75,0.0079
1601.50,0.0079
1601.25,0.0079
1601.00,0.0079
1600.75,0.0080
1600.50,0.0080
1600.25,0.0080
1600.00,0.0080
1599.75,0.0080
1599.50,0.0080
1599.25,0.0080
1599.00,0.0081
1598.75,0.0082
1598.50,0.0083
1598.25,0.0083
1598.00,0.0084
1597.75,0.0083
1597.50,0.0083
1597.25,0.0082
1597.00,0.0082
1596.75,0.0082
1596.50,0.0084
1596.25,0.0085
1596.00,0.0086
1595.75,0.0086
1595.50,0.0086
1595.25,0.0086
1595.00,0.0086
1594.75,0.0086
1594.50,0.0085
1594.25,0.0084
1594.00,0.0083
1593.75,0.0082
1593.50,0.0082
1593.25,0.0082
1593.00,0.0082
1592.75,0.0082
1592.50,0.0082
1592.25,0.0082
1592.00,0.0082
1591.75,0.0082
1591.50,0.0082
1591.25,0.0082
1591.00,0.0082
1590.75,0.0083
1590.50,0.0083
1590.25,0.0083
1590.00,0.0082
1589.75,0.0081
1589.50,0.0080
1589.25,0.0080
1589.00,0.0080
1588.75,0.0081
1588.50,0.0081
1588.25,0.0081
1588.00,0.0081
1587.75,0.0080
1587.50,0.0079
1587.25,0.0079
1587.00,0.0078
1586.75,0.0078
1586.50,0.0079
1586.25,0.0080
1586.00,0.0081
1585.75,0.0082
1585.50,0.0082
1585.25,0.0082
1585.00,0.0081
1584.75,0.0082
1584.50,0.0082
1584.25,0.0081
1584.00,0.0080
1583.75,0.0079
1583.50,0.0078
1583.25,0.0077
1583.00,0.0077
1582.75,0.0078
1582.50,0.0080
1582.25,0.0081
1582.00,0.0082
1581.75,0.0082
1581.50,0.0082
1581.25,0.0082
1581.00,0.0081
1580.75,0.0080
1580.50,0.0079
1580.25,0.0078
1580.00,0.0078
1579.75,0.0079
1579.50,0.0080
1579.25,0.0080
1579.00,0.0080
1578.75,0.0080
1578.50,0.0079
1578.25,0.0078
1578.00,0.0078
1577.75,0.0078
1577.50,0.0080
1577.25,0.0082
1577.00,0.0083
1576.75,0.0082
1576.50,0.0078
1576.25,0.0071
1576.00,0.0063
1575.75,0.0061
1575.50,0.0064
1575.25,0.0069
1575.00,0.0072
1574.75,0.0074
1574.50,0.0075
1574.25,0.0076
1574.00,0.0076
1573.75,0.0077
1573.50,0.0078
1573.25,0.0078
1573.00,0.0079
1572.75,0.0079
1572.50,0.0079
1572.25,0.0079
1572.00,0.0078
1571.75,0.0078
1571.50,0.0079
1571.25,0.0080
1571.00,0.0080
1570.75,0.0079
1570.50,0.0078
1570.25,0.0077
1570.00,0.0075
1569.75,0.0074
1569.50,0.0074
1569.25,0.0074
1569.00,0.0074
1568.75,0.0074
1568.50,0.0075
1568.25,0.0076
1568.00,0.0077
1567.75,0.0077
1567.50,0.0078
1567.25,0.0078
1567.00,0.0077
1566.75,0.0077
1566.50,0.0078
1566.25,0.0079
1566.00,0.0081
1565.75,0.0082
1565.50,0.0083
1565.25,0.0083
1565.00,0.0082
1564.75,0.0080
1564.50,0.0078
1564.25,0.0078
1564.00,0.0078
1563.75,0.0078
1563.50,0.0078
1563.25,0.0078
1563.00,0.0077
1562.75,0.0076
1562.50,0.0075
1562.25,0.0075
1562.00,0.0075
1561.75,0.0075
1561.50,0.0075
1561.25,0.0075
1561.00,0.0074
1560.75,0.0072
1560.50,0.0070
1560.25,0.0065
1560.00,0.0064
1559.75,0.0067
1559.50,0.0071
1559.25,0.0074
1559.00,0.0077
1558.75,0.0081
1558.50,0.0087
1558.25,0.0089
1558.00,0.0086
1557.75,0.0079
1557.50,0.0074
1557.25,0.0072
1557.00,0.0071
1556.75,0.0070
1556.50,0.0070
1556.25,0.0071
1556.00,0.0073
1555.75,0.0075
1555.50,0.0077
1555.25,0.0078
1555.00,0.0078
1554.75,0.0077
1554.50,0.0076
1554.25,0.0076
1554.00,0.0075
1553.75,0.0075
1553.50,0.0075
1553.25,0.0075
1553.00,0.0074
1552.75,0.0073
1552.50,0.0073
1552.25,0.0073
1552.00,0.0074
1551.75,0.0075
1551.50,0.0076
1551.25,0.0077
1551.00,0.0077
1550.75,0.0077
1550.50,0.0077
1550.25,0.0076
1550.00,0.0075
1549.75,0.0074
1549.50,0.0074
1549.25,0.0075
1549.00,0.0076
1548.75,0.0076
1548.50,0.0076
1548.25,0.0076
1548.00,0.0075
1547.75,0.0075
1547.50,0.0076
1547.25,0.0076
1547.00,0.0076
1546.75,0.0077
1546.50,0.0077
1546.25,0.0078
1546.00,0.0079
1545.75,0.0081
1545.50,0.0082
1545.25,0.0081
1545.00,0.0079
1544.75,0.0077
1544.50,0.0075
1544.25,0.0074
1544.00,0.0071
1543.75,0.0068
1543.50,0.0066
1543.25,0.0065
1543.00,0.0066
1542.75,0.0068
1542.50,0.0071
1542.25,0.0075
1542.00,0.0078
1541.75,0.0079
1541.50,0.0079
1541.25,0.0078
1541.00,0.0078
1540.75,0.0078
1540.50,0.0077
1540.25,0.0075
1540.00,0.0074
1539.75,0.0074
1539.50,0.0075
1539.25,0.0078
1539.00,0.0080
1538.75,0.0078
1538.50,0.0075
1538.25,0.0072
1538.00,0.0071
1537.75,0.0071
1537.50,0.0071
1537.25,0.0072
1537.00,0.0073
1536.75,0.0073
1536.50,0.0073
1536.25,0.0074
1536.00,0.0075
1535.75,0.0077
1535.50,0.0078
1535.25,0.0078
1535.00,0.0077
1534.75,0.0075
1534.50,0.0073
1534.25,0.0069
1534.00,0.0066
1533.75,0.0063
1533.50,0.0064
1533.25,0.0066
1533.00,0.0069
1532.75,0.0071
1532.50,0.0073
1532.25,0.0074
1532.00,0.0074
1531.75,0.0075
1531.50,0.0074
1531.25,0.0074
1531.00,0.0074
1530.75,0.0074
1530.50,0.0075
1530.25,0.0076
1530.00,0.0076
1529.75,0.0075
1529.50,0.0074
1529.25,0.0073
1529.00,0.0073
1528.75,0.0072
1528.50,0.0073
1528.25,0.0074
1528.00,0.0075
1527.75,0.0076
1527.50,0.0076
1527.25,0.0074
1527.00,0.0072
1526.75,0.0071
1526.50,0.0071
1526.25,0.0071
1526.00,0.0072
1525.75,0.0072
1525.50,0.0072
1525.25,0.0072
1525.00,0.0073
1524.75,0.0074
1524.50,0.0076
1524.25,0.0076
1524.00,0.0076
1523.75,0.0076
1523.50,0.0076
1523.25,0.0076
1523.00,0.0076
1522.75,0.0077
1522.50,0.0078
1522.25,0.0079
1522.00,0.0080
1521.75,0.0080
1521.50,0.0079
1521.25,0.0076
1521.00,0.0071
1520.75,0.0068
1520.50,0.0068
1520.25,0.0068
1520.00,0.0069
1519.75,0.0069
1519.50,0.0070
1519.25,0.0070
1519.00,0.0071
1518.75,0.0072
1518.50,0.0073
1518.25,0.0073
1518.00,0.0073
1517.75,0.0073
1517.50,0.0073
1517.25,0.0073
1517.00,0.0074
1516.75,0.0075
1516.50,0.0076
1516.25,0.0076
1516.00,0.0076
1515.75,0.0075
1515.50,0.0075
1515.25,0.0075
1515.00,0.0076
1514.75,0.0077
1514.50,0.0076
1514.25,0.0076
1514.00,0.0075
1513.75,0.0075
1513.50,0.0075
1513.25,0.0075
1513.00,0.0074
1512.75,0.0073
1512.50,0.0072
1512.25,0.0071
1512.00,0.0070
1511.75,0.0070
1511.50,0.0070
1511.25,0.0070
1511.00,0.0070
1510.75,0.0071
1510.50,0.0072
1510.25,0.0072
1510.00,0.0071
1509.75,0.0071
1509.50,0.0071
1509.25,0.0071
1509.00,0.0069
1508.75,0.0068
1508.50,0.0068
1508.25,0.0069
1508.00,0.0069
1507.75,0.0068
1507.50,0.0064
1507.25,0.0060
1507.00,0.0059
1506.75,0.0063
1506.50,0.0065
1506.25,0.0066
1506.00,0.0063
1505.75,0.0059
1505.50,0.0057
1505.25,0.0059
1505.00,0.0063
1504.75,0.0066
1504.50,0.0068
1504.25,0.0070
1504.00,0.0071
1503.75,0.0071
1503.50,0.0072
1503.25,0.0073
1503.00,0.0073
1502.75,0.0072
1502.50,0.0072
1502.25,0.0071
1502.00,0.0071
1501.75,0.0073
1501.50,0.0074
1501.25,0.0074
1501.00,0.0073
1500.75,0.0071
1500.50,0.0069
1500.25,0.0068
1500.00,0.0067
1499.75,0.0068
1499.50,0.0068
1499.25,0.0068
1499.00,0.0068
1498.75,0.0069
1498.50,0.0070
1498.25,0.0070
1498.00,0.0069
1497.75,0.0069
1497.50,0.0069
1497.25,0.0069
1497.00,0.0069
1496.75,0.0070
1496.50,0.0070
1496.25,0.0071
1496.00,0.0071
1495.75,0.0069
1495.50,0.0068
1495.25,0.0068
1495.00,0.0069
1494.75,0.0070
1494.50,0.0071
1494.25,0.0071
1494.00,0.0072
1493.75,0.0072
1493.50,0.0073
1493.25,0.0073
1493.00,0.0073
1492.75,0.0073
1492.50,0.0074
1492.25,0.0074
1492.00,0.0075
1491.75,0.0076
1491.50,0.0077
1491.25,0.0077
1491.00,0.0077
1490.75,0.0075
1490.50,0.0073
1490.25,0.0070
1490.00,0.0069
1489.75,0.0070
1489.50,0.0071
1489.25,0.0072
1489.00,0.0071
1488.75,0.0071
1488.50,0.0071
1488.25,0.0071
1488.00,0.0072
1487.75,0.0073
1487.50,0.0073
1487.25,0.0075
1487.00,0.0076
1486.75,0.0077
1486.50,0.0078
1486.25,0.0078
1486.00,0.0076
1485.75,0.0075
1485.50,0.0073
1485.25,0.0072
1485.00,0.0072
1484.75,0.0073
1484.50,0.0074
1484.25,0.0076
1484.00,0.0078
1483.75,0.0079
1483.50,0.0080
1483.25,0.0080
1483.00,0.0080
1482.75,0.0080
1482.50,0.0080
1482.25,0.0080
1482.00,0.0079
1481.75,0.0079
1481.50,0.0079
1481.25,0.0080
1481.00,0.0080
1480.75,0.0080
1480.50,0.0080
1480.25,0.0079
1480.00,0.0079
1479.75,0.0079
1479.50,0.0079
1479.25,0.0079
1479.00,0.0079
1478.75,0.0079
1478.50,0.0079
1478.25,0.0079
1478.00,0.0079
1477.75,0.0079
1477.50,0.0078
1477.25,0.0078
1477.00,0.0078
1476.75,0.0078
1476.50,0.0078
1476.25,0.0079
1476.00,0.0078
1475.75,0.0077
1475.50,0.0076
1475.25,0.0075
1475.00,0.0076
1474.75,0.0076
1474.50,0.0077
1474.25,0.0078
1474.00,0.0079
1473.75,0.0078
1473.50,0.0078
1473.25,0.0078
1473.00,0.0078
1472.75,0.0078
1472.50,0.0079
1472.25,0.0079
1472.00,0.0079
1471.75,0.0078
1471.50,0.0078
1471.25,0.0078
1471.00,0.0078
1470.75,0.0078
1470.50,0.0078
1470.25,0.0078
1470.00,0.0078
1469.75,0.0079
1469.50,0.0080
1469.25,0.0081
1469.00,0.0080
1468.75,0.0080
1468.50,0.0079
1468.25,0.0080
1468.00,0.0081
1467.75,0.0082
1467.50,0.0082
1467.25,0.0082
1467.00,0.0082
1466.75,0.0081
1466.50,0.0081
1466.25,0.0081
1466.00,0.0081
1465.75,0.0083
1465.50,0.0084
1465.25,0.0087
1465.00,0.0090
1464.75,0.0091
1464.50,0.0090
1464.25,0.0087
1464.00,0.0086
1463.75,0.0084
1463.50,0.0084
1463.25,0.0084
1463.00,0.0084
1462.75,0.0085
1462.50,0.0086
1462.25,0.0087
1462.00,0.0088
1461.75,0.0089
1461.50,0.0088
1461.25,0.0086
1461.00,0.0084
1460.75,0.0083
1460.50,0.0082
1460.25,0.0082
1460.00,0.0082
1459.75,0.0083
1459.50,0.0084
1459.25,0.0086
1459.00,0.0088
1458.75,0.0089
1458.50,0.0088
1458.25,0.0087
1458.00,0.0086
1457.75,0.0086
1457.50,0.0086
1457.25,0.0087
1457.00,0.0088
1456.75,0.0090
1456.50,0.0091
1456.25,0.0091
1456.00,0.0091
1455.75,0.0091
1455.50,0.0092
1455.25,0.0093
1455.00,0.0094
1454.75,0.0095
1454.50,0.0096
1454.25,0.0096
1454.00,0.0095
1453.75,0.0095
1453.50,0.0095
1453.25,0.0096
1453.00,0.0098
1452.75,0.0100
1452.50,0.0101
1452.25,0.0102
1452.00,0.0102
1451.75,0.0102
1451.50,0.0102
1451.25,0.0102
1451.00,0.0103
1450.75,0.0103
1450.50,0.0102
1450.25,0.0101
1450.00,0.0099
1449.75,0.0098
1449.50,0.0097
1449.25,0.0097
1449.00,0.0097
1448.75,0.0097
1448.50,0.0097
1448.25,0.0096
1448.00,0.0096
1447.75,0.0097
1447.50,0.0099
1447.25,0.0101
1447.00,0.0103
1446.75,0.0105
1446.50,0.0106
1446.25,0.0106
1446.00,0.0106
1445.75,0.0106
1445.50,0.0107
1445.25,0.0107
1445.00,0.0107
1444.75,0.0106
1444.50,0.0106
1444.25,0.0106
1444.00,0.0106
1443.75,0.0106
1443.50,0.0107
1443.25,0.0107
1443.00,0.0108
1442.75,0.0108
1442.50,0.0108
1442.25,0.0108
1442.00,0.0107
1441.75,0.0105
1441.50,0.0104
1441.25,0.0102
1441.00,0.0101
1440.75,0.0101
1440.50,0.0102
1440.25,0.0102
1440.00,0.0102
1439.75,0.0102
1439.50,0.0102
1439.25,0.0102
1439.00,0.0101
1438.75,0.0099
1438.50,0.0098
1438.25,0.0098
1438.00,0.0099
1437.75,0.0100
1437.50,0.0102
1437.25,0.0103
1437.00,0.0103
1436.75,0.0102
1436.50,0.0100
1436.25,0.0098
1436.00,0.0096
1435.75,0.0096
1435.50,0.0096
1435.25,0.0096
1435.00,0.0095
1434.75,0.0095
1434.50,0.0095
1434.25,0.0095
1434.00,0.0096
1433.75,0.0098
1433.50,0.0099
1433.25,0.0099
1433.00,0.0099
1432.75,0.0098
1432.50,0.0097
1432.25,0.0096
1432.00,0.0095
1431.75,0.0096
1431.50,0.0097
1431.25,0.0098
1431.00,0.0099
1430.75,0.0099
1430.50,0.0099
1430.25,0.0098
1430.00,0.0099
1429.75,0.0099
1429.50,0.0099
1429.25,0.0099
1429.00,0.0099
1428.75,0.0099
1428.50,0.0101
1428.25,0.0103
1428.00,0.0104
1427.75,0.0105
1427.50,0.0105
1427.25,0.0105
1427.00,0.0105
1426.75,0.0105
1426.50,0.0106
1426.25,0.0107
1426.00,0.0108
1425.75,0.0110
1425.50,0.0110
1425.25,0.0110
1425.00,0.0108
1424.75,0.0107
1424.50,0.0107
1424.25,0.0107
1424.00,0.0110
1423.75,0.0113
1423.50,0.0115
1423.25,0.0116
1423.00,0.0116
1422.75,0.0116
1422.50,0.0117
1422.25,0.0118
1422.00,0.0120
1421.75,0.0122
1421.50,0.0124
1421.25,0.0126
1421.00,0.0127
1420.75,0.0128
1420.50,0.0128
1420.25,0.0129
1420.00,0.0129
1419.75,0.0128
1419.50,0.0128
1419.25,0.0130
1419.00,0.0132
1418.75,0.0134
1418.50,0.0135
1418.25,0.0137
1418.00,0.0138
1417.75,0.0140
1417.50,0.0142
1417.25,0.0144
1417.00,0.0146
1416.75,0.0149
1416.50,0.0152
1416.25,0.0154
1416.00,0.0155
1415.75,0.0156
1415.50,0.0155
1415.25,0.0155
1415.00,0.0155
1414.75,0.0155
1414.50,0.0156
1414.25,0.0157
1414.00,0.0159
1413.75,0.0161
1413.50,0.0163
1413.25,0.0165
1413.00,0.0165
1412.75,0.0165
1412.50,0.0163
1412.25,0.0163
1412.00,0.0163
1411.75,0.0164
1411.50,0.0165
1411.25,0.0165
1411.00,0.0165
1410.75,0.0164
1410.50,0.0163
1410.25,0.0162
1410.00,0.0161
1409.75,0.0161
1409.50,0.0160
1409.25,0.0159
1409.00,0.0159
1408.75,0.0159
1408.50,0.0158
1408.25,0.0158
1408.00,0.0158
1407.75,0.0159
1407.50,0.0158
1407.25,0.0158
1407.00,0.0158
1406.75,0.0158
1406.50,0.0159
1406.25,0.0159
1406.00,0.0158
1405.75,0.0156
1405.50,0.0154
1405.25,0.0152
1405.00,0.0151
1404.75,0.0151
1404.50,0.0151
1404.25,0.0152
1404.00,0.0152
1403.75,0.0152
1403.50,0.0152
1403.25,0.0151
1403.00,0.0150
1402.75,0.0149
1402.50,0.0149
1402.25,0.0148
1402.00,0.0148
1401.75,0.0148
1401.50,0.0148
1401.25,0.0148
1401.00,0.0147
1400.75,0.0147
1400.50,0.0146
1400.25,0.0146
1400.00,0.0145
1399.75,0.0145
1399.50,0.0144
1399.25,0.0143
1399.00,0.0140
1398.75,0.0137
1398.50,0.0136
1398.25,0.0135
1398.00,0.0135
1397.75,0.0135
1397.50,0.0135
1397.25,0.0134
1397.00,0.0132
1396.75,0.0130
1396.50,0.0129
1396.25,0.0129
1396.00,0.0129
1395.75,0.0128
1395.50,0.0126
1395.25,0.0124
1395.00,0.0122
1394.75,0.0121
1394.50,0.0121
1394.25,0.0120
1394.00,0.0119
1393.75,0.0118
1393.50,0.0117
1393.25,0.0116
1393.00,0.0115
1392.75,0.0114
1392.50,0.0113
1392.25,0.0112
1392.00,0.0111
1391.75,0.0110
1391.50,0.0110
1391.25,0.0110
1391.00,0.0109
1390.75,0.0108
1390.50,0.0106
1390.25,0.0105
1390.00,0.0104
1389.75,0.0104
1389.50,0.0103
1389.25,0.0103
1389.00,0.0102
1388.75,0.0101
1388.50,0.0099
1388.25,0.0098
1388.00,0.0097
1387.75,0.0097
1387.50,0.0098
1387.25,0.0100
1387.00,0.0101
1386.75,0.0101
1386.50,0.0100
1386.25,0.0099
1386.00,0.0098
1385.75,0.0098
1385.50,0.0099
1385.25,0.0099
1385.00,0.0099
1384.75,0.0099
1384.50,0.0098
1384.25,0.0097
1384.00,0.0097
1383.75,0.0096
1383.50,0.0096
1383.25,0.0097
1383.00,0.0098
1382.75,0.0099
1382.50,0.0100
1382.25,0.0100
1382.00,0.0099
1381.75,0.0097
1381.50,0.0096
1381.25,0.0095
1381.00,0.0095
1380.75,0.0095
1380.50,0.0095
1380.25,0.0094
1380.00,0.0093
1379.75,0.0092
1379.50,0.0092
1379.25,0.0092
1379.00,0.0092
1378.75,0.0093
1378.50,0.0093
1378.25,0.0093
1378.00,0.0092
1377.75,0.0092
1377.50,0.0093
1377.25,0.0094
1377.00,0.0094
1376.75,0.0095
1376.50,0.0095
1376.25,0.0095
1376.00,0.0094
1375.75,0.0093
1375.50,0.0092
1375.25,0.0091
1375.00,0.0091
1374.75,0.0092
1374.50,0.0093
1374.25,0.0093
1374.00,0.0093
1373.75,0.0093
1373.50,0.0092
1373.25,0.0092
1373.00,0.0093
1372.75,0.0094
1372.50,0.0094
1372.25,0.0094
1372.00,0.0093
1371.75,0.0092
1371.50,0.0092
1371.25,0.0093
1371.00,0.0094
1370.75,0.0095
1370.50,0.0094
1370.25,0.0093
1370.00,0.0092
1369.75,0.0091
1369.50,0.0091
1369.25,0.0091
1369.00,0.0092
1368.75,0.0093
1368.50,0.0094
1368.25,0.0094
1368.00,0.0093
1367.75,0.0091
1367.50,0.0090
1367.25,0.0089
1367.00,0.0089
1366.75,0.0089
1366.50,0.0089
1366.25,0.0089
1366.00,0.0089
1365.75,0.0089
1365.50,0.0089
1365.25,0.0089
1365.00,0.0089
1364.75,0.0089
1364.50,0.0090
1364.25,0.0089
1364.00,0.0088
1363.75,0.0087
1363.50,0.0085
1363.25,0.0085
1363.00,0.0086
1362.75,0.0086
1362.50,0.0087
1362.25,0.0086
1362.00,0.0086
1361.75,0.0085
1361.50,0.0085
1361.25,0.0084
1361.00,0.0084
1360.75,0.0085
1360.50,0.0086
1360.25,0.0088
1360.00,0.0089
1359.75,0.0090
1359.50,0.0090
1359.25,0.0091
1359.00,0.0091
1358.75,0.0091
1358.50,0.0091
1358.25,0.0089
1358.00,0.0088
1357.75,0.0086
1357.50,0.0085
1357.25,0.0085
1357.00,0.0085
1356.75,0.0085
1356.50,0.0086
1356.25,0.0086
1356.00,0.0086
1355.75,0.0087
1355.50,0.0087
1355.25,0.0088
1355.00,0.0089
1354.75,0.0089
1354.50,0.0090
1354.25,0.0090
1354.00,0.0091
1353.75,0.0091
1353.50,0.0091
1353.25,0.0091
1353.00,0.0091
1352.75,0.0090
1352.50,0.0090
1352.25,0.0090
1352.00,0.0090
1351.75,0.0090
1351.50,0.0089
1351.25,0.0088
1351.00,0.0087
1350.75,0.0086
1350.50,0.0086
1350.25,0.0086
1350.00,0.0087
1349.75,0.0088
1349.50,0.0089
1349.25,0.0089
1349.00,0.0090
1348.75,0.0089
1348.50,0.0088
1348.25,0.0087
1348.00,0.0087
1347.75,0.0086
1347.50,0.0087
1347.25,0.0087
1347.00,0.0088
1346.75,0.0088
1346.50,0.0089
1346.25,0.0090
1346.00,0.0090
1345.75,0.0091
1345.50,0.0091
1345.25,0.0091
1345.00,0.0091
1344.75,0.0089
1344.50,0.0088
1344.25,0.0087
1344.00,0.0087
1343.75,0.0087
1343.50,0.0087
1343.25,0.0087
1343.00,0.0087
1342.75,0.0088
1342.50,0.0089
1342.25,0.0090
1342.00,0.0091
1341.75,0.0091
1341.50,0.0090
1341.25,0.0089
1341.00,0.0089
1340.75,0.0088
1340.50,0.0089
1340.25,0.0089
1340.00,0.0089
1339.75,0.0089
1339.50,0.0089
1339.25,0.0089
1339.00,0.0089
1338.75,0.0090
1338.50,0.0090
1338.25,0.0090
1338.00,0.0089
1337.75,0.0087
1337.50,0.0086
1337.25,0.0086
1337.00,0.0086
1336.75,0.0087
1336.50,0.0088
1336.25,0.0088
1336.00,0.0089
1335.75,0.0088
1335.50,0.0088
1335.25,0.0088
1335.00,0.0088
1334.75,0.0088
1334.50,0.0089
1334.25,0.0090
1334.00,0.0091
1333.75,0.0092
1333.50,0.0092
1333.25,0.0091
1333.00,0.0090
1332.75,0.0089
1332.50,0.0089
1332.25,0.0089
1332.00,0.0090
1331.75,0.0090
1331.50,0.0090
1331.25,0.0090
1331.00,0.0090
1330.75,0.0090
1330.50,0.0091
1330.25,0.0091
1330.00,0.0091
1329.75,0.0090
1329.50,0.0089
1329.25,0.0088
1329.00,0.0088
1328.75,0.0088
1328.50,0.0088
1328.25,0.0088
1328.00,0.0089
1327.75,0.0089
1327.50,0.0089
1327.25,0.0090
1327.00,0.0090
1326.75,0.0090
1326.50,0.0091
1326.25,0.0090
1326.00,0.0090
1325.75,0.0089
1325.50,0.0089
1325.25,0.0088
1325.00,0.0088
1324.75,0.0088
1324.50,0.0089
1324.25,0.0090
1324.00,0.0091
1323.75,0.0091
1323.50,0.0092
1323.25,0.0093
1323.00,0.0094
1322.75,0.0095
1322.50,0.0095
1322.25,0.0096
1322.00,0.0097
1321.75,0.0097
1321.50,0.0097
1321.25,0.0097
1321.00,0.0096
1320.75,0.0095
1320.50,0.0095
1320.25,0.0095
1320.00,0.0095
1319.75,0.0096
1319.50,0.0097
1319.25,0.0098
1319.00,0.0098
1318.75,0.0098
1318.50,0.0098
1318.25,0.0098
1318.00,0.0098
1317.75,0.0098
1317.50,0.0097
1317.25,0.0096
1317.00,0.0095
1316.75,0.0095
1316.50,0.0095
1316.25,0.0095
1316.00,0.0095
1315.75,0.0096
1315.50,0.0096
1315.25,0.0097
1315.00,0.0097
1314.75,0.0097
1314.50,0.0096
1314.25,0.0096
1314.00,0.0096
1313.75,0.0097
1313.50,0.0098
1313.25,0.0099
1313.00,0.0101
1312.75,0.0101
1312.50,0.0100
1312.25,0.0098
1312.00,0.0095
1311.75,0.0094
1311.50,0.0093
1311.25,0.0094
1311.00,0.0096
1310.75,0.0097
1310.50,0.0099
1310.25,0.0100
1310.00,0.0101
1309.75,0.0101
1309.50,0.0102
1309.25,0.0102
1309.00,0.0103
1308.75,0.0103
1308.50,0.0103
1308.25,0.0103
1308.00,0.0103
1307.75,0.0102
1307.50,0.0101
1307.25,0.0101
1307.00,0.0101
1306.75,0.0102
1306.50,0.0103
1306.25,0.0103
1306.00,0.0103
1305.75,0.0103
1305.50,0.0103
1305.25,0.0103
1305.00,0.0103
1304.75,0.0103
1304.50,0.0103
1304.25,0.0103
1304.00,0.0104
1303.75,0.0105
1303.50,0.0106
1303.25,0.0107
1303.00,0.0108
1302.75,0.0108
1302.50,0.0107
1302.25,0.0106
1302.00,0.0107
1301.75,0.0108
1301.50,0.0109
1301.25,0.0110
1301.00,0.0110
1300.75,0.0109
1300.50,0.0107
1300.25,0.0106
1300.00,0.0107
1299.75,0.0107
1299.50,0.0108
1299.25,0.0109
1299.00,0.0110
1298.75,0.0110
1298.50,0.0111
1298.25,0.0112
1298.00,0.0114
1297.75,0.0115
1297.50,0.0116
1297.25,0.0117
1297.00,0.0117
1296.75,0.0117
1296.50,0.0117
1296.25,0.0117
1296.00,0.0116
1295.75,0.0116
1295.50,0.0115
1295.25,0.0114
1295.00,0.0113
1294.75,0.0114
1294.50,0.0115
1294.25,0.0116
1294.00,0.0117
1293.75,0.0118
1293.50,0.0119
1293.25,0.0120
1293.00,0.0121
1292.75,0.0122
1292.50,0.0123
1292.25,0.0123
1292.00,0.0123
1291.75,0.0124
1291.50,0.0124
1291.25,0.0125
1291.00,0.0125
1290.75,0.0124
1290.50,0.0124
1290.25,0.0124
1290.00,0.0124
1289.75,0.0126
1289.50,0.0128
1289.25,0.0130
1289.00,0.0131
1288.75,0.0131
1288.50,0.0131
1288.25,0.0131
1288.00,0.0132
1287.75,0.0132
1287.50,0.0133
1287.25,0.0133
1287.00,0.0132
1286.75,0.0132
1286.50,0.0132
1286.25,0.0132
1286.00,0.0134
1285.75,0.0136
1285.50,0.0138
1285.25,0.0141
1285.00,0.0143
1284.75,0.0145
1284.50,0.0145
1284.25,0.0145
1284.00,0.0145
1283.75,0.0144
1283.50,0.0143
1283.25,0.0143
1283.00,0.0143
1282.75,0.0144
1282.50,0.0145
1282.25,0.0148
1282.00,0.0150
1281.75,0.0152
1281.50,0.0154
1281.25,0.0155
1281.00,0.0156
1280.75,0.0158
1280.50,0.0159
1280.25,0.0160
1280.00,0.0161
1279.75,0.0161
1279.50,0.0162
1279.25,0.0163
1279.00,0.0166
1278.75,0.0170
1278.50,0.0174
1278.25,0.0177
1278.00,0.0180
1277.75,0.0182
1277.50,0.0183
1277.25,0.0184
1277.00,0.0186
1276.75,0.0189
1276.50,0.0192
1276.25,0.0194
1276.00,0.0197
1275.75,0.0199
1275.50,0.0202
1275.25,0.0205
1275.00,0.0208
1274.75,0.0211
1274.50,0.0214
1274.25,0.0219
1274.00,0.0225
1273.75,0.0231
1273.50,0.0238
1273.25,0.0244
1273.00,0.0250
1272.75,0.0255
1272.50,0.0261
1272.25,0.0267
1272.00,0.0273
1271.75,0.0281
1271.50,0.0289
1271.25,0.0297
1271.00,0.0306
1270.75,0.0316
1270.50,0.0327
1270.25,0.0339
1270.00,0.0352
1269.75,0.0365
1269.50,0.0379
1269.25,0.0393
1269.00,0.0409
1268.75,0.0426
1268.50,0.0445
1268.25,0.0466
1268.00,0.0488
1267.75,0.0511
1267.50,0.0536
1267.25,0.0561
1267.00,0.0587
1266.75,0.0615
1266.50,0.0645
1266.25,0.0677
1266.00,0.0711
1265.75,0.0747
1265.50,0.0784
1265.25,0.0822
1265.00,0.0861
1264.75,0.0902
1264.50,0.0943
1264.25,0.0986
1264.00,0.1028
1263.75,0.1071
1263.50,0.1115
1263.25,0.1159
1263.00,0.1203
1262.75,0.1246
1262.50,0.1288
1262.25,0.1328
1262.00,0.1367
1261.75,0.1404
1261.50,0.1440
1261.25,0.1474
1261.00,0.1506
1260.75,0.1536
1260.50,0.1563
1260.25,0.1588
1260.00,0.1608
1259.75,0.1626
1259.50,0.1639
1259.25,0.1649
1259.00,0.1656
1258.75,0.1660
1258.50,0.1662
1258.25,0.1661
1258.00,0.1656
1257.75,0.1648
1257.50,0.1637
1257.25,0.1623
1257.00,0.1607
1256.75,0.1589
1256.50,0.1569
1256.25,0.1547
1256.00,0.1524
1255.75,0.1501
1255.50,0.1477
1255.25,0.1452
1255.00,0.1426
1254.75,0.1400
1254.50,0.1375
1254.25,0.1349
1254.00,0.1322
1253.75,0.1295
1253.50,0.1267
1253.25,0.1238
1253.00,0.1209
1252.75,0.1178
1252.50,0.1147
1252.25,0.1115
1252.00,0.1081
1251.75,0.1046
1251.50,0.1010
1251.25,0.0973
1251.00,0.0937
1250.75,0.0900
1250.50,0.0864
1250.25,0.0828
1250.00,0.0793
1249.75,0.0759
1249.50,0.0727
1249.25,0.0695
1249.00,0.0664
1248.75,0.0634
1248.50,0.0606
1248.25,0.0578
1248.00,0.0553
1247.75,0.0528
1247.50,0.0506
1247.25,0.0486
1247.00,0.0467
1246.75,0.0450
1246.50,0.0433
1246.25,0.0416
1246.00,0.0401
1245.75,0.0386
1245.50,0.0373
1245.25,0.0361
1245.00,0.0351
1244.75,0.0341
1244.50,0.0332
1244.25,0.0323
1244.00,0.0315
1243.75,0.0309
1243.50,0.0302
1243.25,0.0296
1243.00,0.0289
1242.75,0.0283
1242.50,0.0277
1242.25,0.0271
1242.00,0.0266
1241.75,0.0262
1241.50,0.0258
1241.25,0.0254
1241.00,0.0252
1240.75,0.0249
1240.50,0.0246
1240.25,0.0242
1240.00,0.0238
1239.75,0.0233
1239.50,0.0229
1239.25,0.0226
1239.00,0.0224
1238.75,0.0221
1238.50,0.0219
1238.25,0.0218
1238.00,0.0216
1237.75,0.0214
1237.50,0.0213
1237.25,0.0211
1237.00,0.0210
1236.75,0.0208
1236.50,0.0207
1236.25,0.0206
1236.00,0.0204
1235.75,0.0203
1235.50,0.0202
1235.25,0.0201
1235.00,0.0201
1234.75,0.0199
1234.50,0.0197
1234.25,0.0195
1234.00,0.0192
1233.75,0.0190
1233.50,0.0189
1233.25,0.0190
1233.00,0.0191
1232.75,0.0192
1232.50,0.0192
1232.25,0.0192
1232.00,0.0191
1231.75,0.0192
1231.50,0.0192
1231.25,0.0192
1231.00,0.0192
1230.75,0.0191
1230.50,0.0190
1230.25,0.0189
1230.00,0.0189
1229.75,0.0190
1229.50,0.0191
1229.25,0.0191
1229.00,0.0191
1228.75,0.0190
1228.50,0.0189
1228.25,0.0190
1228.00,0.0190
1227.75,0.0191
1227.50,0.0192
1227.25,0.0191
1227.00,0.0190
1226.75,0.0189
1226.50,0.0188
1226.25,0.0188
1226.00,0.0189
1225.75,0.0190
1225.50,0.0191
1225.25,0.0192
1225.00,0.0192
1224.75,0.0193
1224.50,0.0193
1224.25,0.0194
1224.00,0.0194
1223.75,0.0194
1223.50,0.0195
1223.25,0.0196
1223.00,0.0197
1222.75,0.0197
1222.50,0.0198
1222.25,0.0198
1222.00,0.0199
1221.75,0.0200
1221.50,0.0202
1221.25,0.0203
1221.00,0.0204
1220.75,0.0204
1220.50,0.0203
1220.25,0.0203
1220.00,0.0202
1219.75,0.0202
1219.50,0.0204
1219.25,0.0206
1219.00,0.0209
1218.75,0.0211
1218.50,0.0213
1218.25,0.0215
1218.00,0.0216
1217.75,0.0217
1217.50,0.0217
1217.25,0.0216
1217.00,0.0215
1216.75,0.0215
1216.50,0.0215
1216.25,0.0217
1216.00,0.0219
1215.75,0.0222
1215.50,0.0225
1215.25,0.0227
1215.00,0.0228
1214.75,0.0229
1214.50,0.0229
1214.25,0.0231
1214.00,0.0232
1213.75,0.0234
1213.50,0.0236
1213.25,0.0237
1213.00,0.0238
1212.75,0.0239
1212.50,0.0239
1212.25,0.0240
1212.00,0.0240
1211.75,0.0241
1211.50,0.0242
1211.25,0.0244
1211.00,0.0247
1210.75,0.0249
1210.50,0.0250
1210.25,0.0251
1210.00,0.0251
1209.75,0.0251
1209.50,0.0251
1209.25,0.0252
1209.00,0.0253
1208.75,0.0253
1208.50,0.0254
1208.25,0.0254
1208.00,0.0256
1207.75,0.0257
1207.50,0.0258
1207.25,0.0260
1207.00,0.0262
1206.75,0.0265
1206.50,0.0267
1206.25,0.0269
1206.00,0.0269
1205.75,0.0269
1205.50,0.0269
1205.25,0.0269
1205.00,0.0271
1204.75,0.0273
1204.50,0.0276
1204.25,0.0277
1204.00,0.0279
1203.75,0.0281
1203.50,0.0282
1203.25,0.0283
1203.00,0.0283
1202.75,0.0284
1202.50,0.0285
1202.25,0.0285
1202.00,0.0285
1201.75,0.0286
1201.50,0.0286
1201.25,0.0287
1201.00,0.0287
1200.75,0.0288
1200.50,0.0289
1200.25,0.0290
1200.00,0.0291
1199.75,0.0294
1199.50,0.0296
1199.25,0.0298
1199.00,0.0299
1198.75,0.0300
1198.50,0.0301
1198.25,0.0302
1198.00,0.0303
1197.75,0.0304
1197.50,0.0305
1197.25,0.0305
1197.00,0.0304
1196.75,0.0304
1196.50,0.0305
1196.25,0.0306
1196.00,0.0307
1195.75,0.0307
1195.50,0.0306
1195.25,0.0307
1195.00,0.0308
1194.75,0.0310
1194.50,0.0311
1194.25,0.0312
1194.00,0.0312
1193.75,0.0311
1193.50,0.0310
1193.25,0.0310
1193.00,0.0311
1192.75,0.0312
1192.50,0.0314
1192.25,0.0315
1192.00,0.0316
1191.75,0.0317
1191.50,0.0317
1191.25,0.0318
1191.00,0.0318
1190.75,0.0318
1190.50,0.0317
1190.25,0.0317
1190.00,0.0317
1189.75,0.0317
1189.50,0.0318
1189.25,0.0318
1189.00,0.0318
1188.75,0.0319
1188.50,0.0320
1188.25,0.0321
1188.00,0.0323
1187.75,0.0325
1187.50,0.0326
1187.25,0.0327
1187.00,0.0327
1186.75,0.0327
1186.50,0.0327
1186.25,0.0326
1186.00,0.0326
1185.75,0.0327
1185.50,0.0327
1185.25,0.0328
1185.00,0.0329
1184.75,0.0330
1184.50,0.0331
1184.25,0.0331
1184.00,0.0332
1183.75,0.0333
1183.50,0.0333
1183.25,0.0334
1183.00,0.0333
1182.75,0.0332
1182.50,0.0330
1182.25,0.0328
1182.00,0.0328
1181.75,0.0328
1181.50,0.0330
1181.25,0.0331
1181.00,0.0331
1180.75,0.0331
1180.50,0.0330
1180.25,0.0329
1180.00,0.0329
1179.75,0.0331
1179.50,0.0333
1179.25,0.0334
1179.00,0.0335
1178.75,0.0336
1178.50,0.0335
1178.25,0.0334
1178.00,0.0333
1177.75,0.0332
1177.50,0.0332
1177.25,0.0333
1177.00,0.0335
1176.75,0.0337
1176.50,0.0338
1176.25,0.0339
1176.00,0.0339
1175.75,0.0338
1175.50,0.0338
1175.25,0.0337
1175.00,0.0337
1174.75,0.0337
1174.50,0.0338
1174.25,0.0339
1174.00,0.0341
1173.75,0.0341
1173.50,0.0342
1173.25,0.0342
1173.00,0.0342
1172.75,0.0343
1172.50,0.0344
1172.25,0.0344
1172.00,0.0343
1171.75,0.0343
1171.50,0.0342
1171.25,0.0342
1171.00,0.0342
1170.75,0.0342
1170.50,0.0343
1170.25,0.0344
1170.00,0.0345
1169.75,0.0346
1169.50,0.0347
1169.25,0.0347
1169.00,0.0347
1168.75,0.0346
1168.50,0.0345
1168.25,0.0345
1168.00,0.0345
1167.75,0.0345
1167.50,0.0346
1167.25,0.0347
1167.00,0.0348
1166.75,0.0348
1166.50,0.0348
1166.25,0.0348
1166.00,0.0348
1165.75,0.0348
1165.50,0.0349
1165.25,0.0349
1165.00,0.0349
1164.75,0.0350
1164.50,0.0350
1164.25,0.0349
1164.00,0.0349
1163.75,0.0349
1163.50,0.0350
1163.25,0.0352
1163.00,0.0352
1162.75,0.0352
1162.50,0.0351
1162.25,0.0350
1162.00,0.0349
1161.75,0.0349
1161.50,0.0350
1161.25,0.0350
1161.00,0.0350
1160.75,0.0351
1160.50,0.0351
1160.25,0.0352
1160.00,0.0352
1159.75,0.0353
1159.50,0.0354
1159.25,0.0356
1159.00,0.0358
1158.75,0.0359
1158.50,0.0360
1158.25,0.0361
1158.00,0.0362
1157.75,0.0362
1157.50,0.0362
1157.25,0.0362
1157.00,0.0362
1156.75,0.0362
1156.50,0.0361
1156.25,0.0361
1156.00,0.0361
1155.75,0.0362
1155.50,0.0363
1155.25,0.0364
1155.00,0.0366
1154.75,0.0368
1154.50,0.0370
1154.25,0.0372
1154.00,0.0374
1153.75,0.0374
1153.50,0.0375
1153.25,0.0375
1153.00,0.0374
1152.75,0.0373
1152.50,0.0372
1152.25,0.0371
1152.00,0.0373
1151.75,0.0376
1151.50,0.0378
1151.25,0.0381
1151.00,0.0382
1150.75,0.0382
1150.50,0.0383
1150.25,0.0383
1150.00,0.0384
1149.75,0.0385
1149.50,0.0386
1149.25,0.0387
1149.00,0.0389
1148.75,0.0390
1148.50,0.0393
1148.25,0.0395
1148.00,0.0397
1147.75,0.0398
1147.50,0.0398
1147.25,0.0397
1147.00,0.0396
1146.75,0.0396
1146.50,0.0396
1146.25,0.0398
1146.00,0.0401
1145.75,0.0404
1145.50,0.0406
1145.25,0.0409
1145.00,0.0411
1144.75,0.0412
1144.50,0.0413
1144.25,0.0414
1144.00,0.0415
1143.75,0.0416
1143.50,0.0417
1143.25,0.0417
1143.00,0.0419
1142.75,0.0421
1142.50,0.0424
1142.25,0.0427
1142.00,0.0430
1141.75,0.0432
1141.50,0.0433
1141.25,0.0434
1141.00,0.0435
1140.75,0.0436
1140.50,0.0437
1140.25,0.0438
1140.00,0.0440
1139.75,0.0442
1139.50,0.0445
1139.25,0.0449
1139.00,0.0452
1138.75,0.0455
1138.50,0.0457
1138.25,0.0458
1138.00,0.0459
1137.75,0.0460
1137.50,0.0462
1137.25,0.0464
1137.00,0.0466
1136.75,0.0469
1136.50,0.0470
1136.25,0.0471
1136.00,0.0471
1135.75,0.0472
1135.50,0.0473
1135.25,0.0476
1135.00,0.0479
1134.75,0.0481
1134.50,0.0483
1134.25,0.0484
1134.00,0.0484
1133.75,0.0486
1133.50,0.0488
1133.25,0.0491
1133.00,0.0494
1132.75,0.0497
1132.50,0.0499
1132.25,0.0501
1132.00,0.0503
1131.75,0.0505
1131.50,0.0509
1131.25,0.0514
1131.00,0.0519
1130.75,0.0524
1130.50,0.0527
1130.25,0.0530
1130.00,0.0531
1129.75,0.0532
1129.50,0.0534
1129.25,0.0536
1129.00,0.0539
1128.75,0.0544
1128.50,0.0549
1128.25,0.0553
1128.00,0.0558
1127.75,0.0561
1127.50,0.0564
1127.25,0.0566
1127.00,0.0570
1126.75,0.0573
1126.50,0.0576
1126.25,0.0579
1126.00,0.0581
1125.75,0.0585
1125.50,0.0590
1125.25,0.0596
1125.00,0.0602
1124.75,0.0607
1124.50,0.0611
1124.25,0.0615
1124.00,0.0619
1123.75,0.0624
1123.50,0.0630
1123.25,0.0637
1123.00,0.0643
1122.75,0.0649
1122.50,0.0653
1122.25,0.0657
1122.00,0.0661
1121.75,0.0665
1121.50,0.0669
1121.25,0.0674
1121.00,0.0679
1120.75,0.0685
1120.50,0.0693
1120.25,0.0702
1120.00,0.0711
1119.75,0.0719
1119.50,0.0725
1119.25,0.0729
1119.00,0.0733
1118.75,0.0735
1118.50,0.0739
1118.25,0.0744
1118.00,0.0751
1117.75,0.0759
1117.50,0.0768
1117.25,0.0777
1117.00,0.0785
1116.75,0.0792
1116.50,0.0800
1116.25,0.0808
1116.00,0.0818
1115.75,0.0829
1115.50,0.0839
1115.25,0.0849
1115.00,0.0857
1114.75,0.0863
1114.50,0.0869
1114.25,0.0876
1114.00,0.0884
1113.75,0.0892
1113.50,0.0901
1113.25,0.0909
1113.00,0.0918
1112.75,0.0928
1112.50,0.0938
1112.25,0.0948
1112.00,0.0958
1111.75,0.0969
1111.50,0.0980
1111.25,0.0992
1111.00,0.1002
1110.75,0.1012
1110.50,0.1022
1110.25,0.1031
1110.00,0.1040
1109.75,0.1050
1109.50,0.1060
1109.25,0.1070
1109.00,0.1078
1108.75,0.1087
1108.50,0.1097
1108.25,0.1108
1108.00,0.1120
1107.75,0.1132
1107.50,0.1144
1107.25,0.1156
1107.00,0.1166
1106.75,0.1177
1106.50,0.1189
1106.25,0.1202
1106.00,0.1216
1105.75,0.1230
1105.50,0.1245
1105.25,0.1259
1105.00,0.1272
1104.75,0.1284
1104.50,0.1295
1104.25,0.1306
1104.00,0.1317
1103.75,0.1328
1103.50,0.1340
1103.25,0.1353
1103.00,0.1367
1102.75,0.1380
1102.50,0.1394
1102.25,0.1408
1102.00,0.1421
1101.75,0.1434
1101.50,0.1447
1101.25,0.1459
1101.00,0.1471
1100.75,0.1483
1100.50,0.1495
1100.25,0.1510
1100.00,0.1526
1099.75,0.1543
1099.50,0.1558
1099.25,0.1571
1099.00,0.1583
1098.75,0.1596
1098.50,0.1610
1098.25,0.1625
1098.00,0.1639
1097.75,0.1653
1097.50,0.1667
1097.25,0.1681
1097.00,0.1695
1096.75,0.1710
1096.50,0.1724
1096.25,0.1737
1096.00,0.1750
1095.75,0.1763
1095.50,0.1777
1095.25,0.1792
1095.00,0.1809
1094.75,0.1826
1094.50,0.1843
1094.25,0.1859
1094.00,0.1874
1093.75,0.1887
1093.50,0.1899
1093.25,0.1913
1093.00,0.1927
1092.75,0.1941
1092.50,0.1955
1092.25,0.1969
1092.00,0.1983
1091.75,0.1996
1091.50,0.2010
1091.25,0.2022
1091.00,0.2035
1090.75,0.2048
1090.50,0.2064
1090.25,0.2081
1090.00,0.2097
1089.75,0.2113
1089.50,0.2126
1089.25,0.2136
1089.00,0.2146
1088.75,0.2156
1088.50,0.2168
1088.25,0.2181
1088.00,0.2195
1087.75,0.2209
1087.50,0.2223
1087.25,0.2237
1087.00,0.2252
1086.75,0.2266
1086.50,0.2279
1086.25,0.2293
1086.00,0.2306
1085.75,0.2317
1085.50,0.2327
1085.25,0.2335
1085.00,0.2343
1084.75,0.2351
1084.50,0.2360
1084.25,0.2369
1084.00,0.2379
1083.75,0.2389
1083.50,0.2399
1083.25,0.2410
1083.00,0.2421
1082.75,0.2432
1082.50,0.2442
1082.25,0.2452
1082.00,0.2460
1081.75,0.2467
1081.50,0.2475
1081.25,0.2484
1081.00,0.2494
1080.75,0.2504
1080.50,0.2513
1080.25,0.2521
1080.00,0.2530
1079.75,0.2538
1079.50,0.2545
1079.25,0.2550
1079.00,0.2553
1078.75,0.2557
1078.50,0.2561
1078.25,0.2566
1078.00,0.2572
1077.75,0.2578
1077.50,0.2585
1077.25,0.2591
1077.00,0.2596
1076.75,0.2600
1076.50,0.2605
1076.25,0.2612
1076.00,0.2619
1075.75,0.2627
1075.50,0.2635
1075.25,0.2642
1075.00,0.2648
1074.75,0.2651
1074.50,0.2653
1074.25,0.2656
1074.00,0.2659
1073.75,0.2663
1073.50,0.2668
1073.25,0.2671
1073.00,0.2674
1072.75,0.2677
1072.50,0.2681
1072.25,0.2685
1072.00,0.2689
1071.75,0.2692
1071.50,0.2693
1071.25,0.2694
1071.00,0.2695
1070.75,0.2699
1070.50,0.2705
1070.25,0.2713
1070.00,0.2720
1069.75,0.2724
1069.50,0.2727
1069.25,0.2727
1069.00,0.2728
1068.75,0.2729
1068.50,0.2731
1068.25,0.2733
1068.00,0.2735
1067.75,0.2737
1067.50,0.2740
1067.25,0.2743
1067.00,0.2746
1066.75,0.2748
1066.50,0.2749
1066.25,0.2749
1066.00,0.2748
1065.75,0.2749
1065.50,0.2751
1065.25,0.2754
1065.00,0.2759
1064.75,0.2763
1064.50,0.2765
1064.25,0.2766
1064.00,0.2765
1063.75,0.2764
1063.50,0.2763
1063.25,0.2762
1063.00,0.2762
1062.75,0.2763
1062.50,0.2765
1062.25,0.2768
1062.00,0.2771
1061.75,0.2771
1061.50,0.2769
1061.25,0.2766
1061.00,0.2763
1060.75,0.2762
1060.50,0.2761
1060.25,0.2760
1060.00,0.2758
1059.75,0.2757
1059.50,0.2758
1059.25,0.2760
1059.00,0.2764
1058.75,0.2769
1058.50,0.2772
1058.25,0.2772
1058.00,0.2770
1057.75,0.2766
1057.50,0.2762
1057.25,0.2759
1057.00,0.2756
1056.75,0.2753
1056.50,0.2751
1056.25,0.2750
1056.00,0.2751
1055.75,0.2753
1055.50,0.2752
1055.25,0.2750
1055.00,0.2747
1054.75,0.2743
1054.50,0.2739
1054.25,0.2736
1054.00,0.2733
1053.75,0.2731
1053.50,0.2730
1053.25,0.2728
1053.00,0.2724
1052.75,0.2719
1052.50,0.2714
1052.25,0.2710
1052.00,0.2706
1051.75,0.2704
1051.50,0.2701
1051.25,0.2699
1051.00,0.2698
1050.75,0.2698
1050.50,0.2699
1050.25,0.2701
1050.00,0.2701
1049.75,0.2699
1049.50,0.2693
1049.25,0.2687
1049.00,0.2683
1048.75,0.2681
1048.50,0.2680
1048.25,0.2679
1048.00,0.2679
1047.75,0.2679
1047.50,0.2678
1047.25,0.2676
1047.00,0.2673
1046.75,0.2670
1046.50,0.2669
1046.25,0.2669
1046.00,0.2670
1045.75,0.2670
1045.50,0.2669
1045.25,0.2666
1045.00,0.2662
1044.75,0.2658
1044.50,0.2654
1044.25,0.2651
1044.00,0.2650
1043.75,0.2649
1043.50,0.2648
1043.25,0.2647
1043.00,0.2646
1042.75,0.2647
1042.50,0.2648
1042.25,0.2651
1042.00,0.2653
1041.75,0.2656
1041.50,0.2657
1041.25,0.2659
1041.00,0.2659
1040.75,0.2660
1040.50,0.2662
1040.25,0.2663
1040.00,0.2665
1039.75,0.2667
1039.50,0.2667
1039.25,0.2667
1039.00,0.2667
1038.75,0.2666
1038.50,0.2665
1038.25,0.2663
1038.00,0.2662
1037.75,0.2662
1037.50,0.2663
1037.25,0.2666
1037.00,0.2670
1036.75,0.2675
1036.50,0.2682
1036.25,0.2689
1036.00,0.2696
1035.75,0.2703
1035.50,0.2709
1035.25,0.2714
1035.00,0.2720
1034.75,0.2724
1034.50,0.2727
1034.25,0.2729
1034.00,0.2729
1033.75,0.2731
1033.50,0.2734
1033.25,0.2739
1033.00,0.2744
1032.75,0.2750
1032.50,0.2755
1032.25,0.2761
1032.00,0.2768
1031.75,0.2777
1031.50,0.2786
1031.25,0.2797
1031.00,0.2807
1030.75,0.2817
1030.50,0.2825
1030.25,0.2832
1030.00,0.2838
1029.75,0.2846
1029.50,0.2854
1029.25,0.2865
1029.00,0.2875
1028.75,0.2886
1028.50,0.2895
1028.25,0.2903
1028.00,0.2910
1027.75,0.2915
1027.50,0.2921
1027.25,0.2928
1027.00,0.2938
1026.75,0.2952
1026.50,0.2967
1026.25,0.2981
1026.00,0.2994
1025.75,0.3005
1025.50,0.3016
1025.25,0.3028
1025.00,0.3040
1024.75,0.3053
1024.50,0.3067
1024.25,0.3081
1024.00,0.3094
1023.75,0.3107
1023.50,0.3121
1023.25,0.3136
1023.00,0.3151
1022.75,0.3168
1022.50,0.3183
1022.25,0.3197
1022.00,0.3210
1021.75,0.3223
1021.50,0.3235
1021.25,0.3249
1021.00,0.3264
1020.75,0.3281
1020.50,0.3298
1020.25,0.3314
1020.00,0.3331
1019.75,0.3347
1019.50,0.3363
1019.25,0.3381
1019.00,0.3399
1018.75,0.3417
1018.50,0.3433
1018.25,0.3449
1018.00,0.3465
1017.75,0.3483
1017.50,0.3502
1017.25,0.3520
1017.00,0.3538
1016.75,0.3554
1016.50,0.3568
1016.25,0.3582
1016.00,0.3597
1015.75,0.3613
1015.50,0.3628
1015.25,0.3641
1015.00,0.3650
1014.75,0.3657
1014.50,0.3663
1014.25,0.3670
1014.00,0.3679
1013.75,0.3689
1013.50,0.3698
1013.25,0.3704
1013.00,0.3706
1012.75,0.3702
1012.50,0.3696
1012.25,0.3687
1012.00,0.3678
1011.75,0.3668
1011.50,0.3658
1011.25,0.3646
1011.00,0.3632
1010.75,0.3617
1010.50,0.3601
1010.25,0.3582
1010.00,0.3561
1009.75,0.3538
1009.50,0.3512
1009.25,0.3483
1009.00,0.3451
1008.75,0.3416
1008.50,0.3381
1008.25,0.3344
1008.00,0.3307
1007.75,0.3269
1007.50,0.3229
1007.25,0.3187
1007.00,0.3143
1006.75,0.3097
1006.50,0.3049
1006.25,0.3001
1006.00,0.2953
1005.75,0.2904
1005.50,0.2855
1005.25,0.2804
1005.00,0.2754
1004.75,0.2705
1004.50,0.2657
1004.25,0.2611
1004.00,0.2565
1003.75,0.2520
1003.50,0.2473
1003.25,0.2426
1003.00,0.2376
1002.75,0.2325
1002.50,0.2273
1002.25,0.2222
1002.00,0.2171
1001.75,0.2121
1001.50,0.2074
1001.25,0.2028
1001.00,0.1985
1000.75,0.1943
1000.50,0.1902
1000.25,0.1862
1000.00,0.1824
999.75,0.1786
999.50,0.1749
999.25,0.1711
999.00,0.1673
998.75,0.1635
998.50,0.1598
998.25,0.1562
998.00,0.1528
997.75,0.1494
997.50,0.1461
997.25,0.1430
997.00,0.1400
996.75,0.1373
996.50,0.1348
996.25,0.1323
996.00,0.1297
995.75,0.1270
995.50,0.1243
995.25,0.1217
995.00,0.1193
994.75,0.1169
994.50,0.1146
994.25,0.1123
994.00,0.1100
993.75,0.1078
993.50,0.1056
993.25,0.1036
993.00,0.1017
992.75,0.0999
992.50,0.0982
992.25,0.0964
992.00,0.0946
991.75,0.0928
991.50,0.0910
991.25,0.0895
991.00,0.0880
990.75,0.0867
990.50,0.0854
990.25,0.0841
990.00,0.0827
989.75,0.0814
989.50,0.0801
989.25,0.0788
989.00,0.0775
988.75,0.0761
988.50,0.0747
988.25,0.0733
988.00,0.0721
987.75,0.0709
987.50,0.0698
987.25,0.0688
987.00,0.0678
986.75,0.0668
986.50,0.0659
986.25,0.0651
986.00,0.0643
985.75,0.0634
985.50,0.0624
985.25,0.0614
985.00,0.0606
984.75,0.0598
984.50,0.0593
984.25,0.0588
984.00,0.0582
983.75,0.0574
983.50,0.0566
983.25,0.0557
983.00,0.0549
982.75,0.0541
982.50,0.0532
982.25,0.0524
982.00,0.0516
981.75,0.0509
981.50,0.0503
981.25,0.0499
981.00,0.0495
980.75,0.0491
980.50,0.0486
980.25,0.0481
980.00,0.0475
979.75,0.0469
979.50,0.0463
979.25,0.0458
979.00,0.0452
978.75,0.0447
978.50,0.0442
978.25,0.0438
978.00,0.0434
977.75,0.0430
977.50,0.0425
977.25,0.0419
977.00,0.0413
976.75,0.0408
976.50,0.0403
976.25,0.0400
976.00,0.0398
975.75,0.0395
975.50,0.0392
975.25,0.0387
975.00,0.0383
974.75,0.0379
974.50,0.0376
974.25,0.0374
974.00,0.0372
973.75,0.0370
973.50,0.0367
973.25,0.0364
973.00,0.0359
972.75,0.0355
972.50,0.0351
972.25,0.0348
972.00,0.0345
971.75,0.0344
971.50,0.0343
971.25,0.0343
971.00,0.0343
970.75,0.0342
970.50,0.0340
970.25,0.0337
970.00,0.0333
969.75,0.0329
969.50,0.0325
969.25,0.0322
969.00,0.0319
968.75,0.0317
968.50,0.0315
968.25,0.0313
968.00,0.0312
967.75,0.0311
967.50,0.0312
967.25,0.0312
967.00,0.0312
966.75,0.0310
966.50,0.0307
966.25,0.0303
966.00,0.0300
965.75,0.0298
965.50,0.0296
965.25,0.0295
965.00,0.0293
964.75,0.0291
964.50,0.0288
964.25,0.0286
964.00,0.0284
963.75,0.0283
963.50,0.0283
963.25,0.0282
963.00,0.0281
962.75,0.0279
962.50,0.0277
962.25,0.0274
962.00,0.0272
961.75,0.0271
961.50,0.0271
961.25,0.0271
961.00,0.0271
960.75,0.0272
960.50,0.0273
960.25,0.0274
960.00,0.0274
959.75,0.0274
959.50,0.0273
959.25,0.0272
959.00,0.0270
958.75,0.0268
958.50,0.0267
958.25,0.0267
958.00,0.0266
957.75,0.0265
957.50,0.0264
957.25,0.0263
957.00,0.0262
956.75,0.0262
956.50,0.0262
956.25,0.0263
956.00,0.0263
955.75,0.0262
955.50,0.0260
955.25,0.0258
955.00,0.0257
954.75,0.0256
954.50,0.0255
954.25,0.0253
954.00,0.0251
953.75,0.0250
953.50,0.0250
953.25,0.0250
953.00,0.0250
952.75,0.0249
952.50,0.0247
952.25,0.0245
952.00,0.0242
951.75,0.0239
951.50,0.0236
951.25,0.0233
951.00,0.0229
950.75,0.0226
950.50,0.0224
950.25,0.0224
950.00,0.0226
949.75,0.0229
949.50,0.0231
949.25,0.0231
949.00,0.0229
948.75,0.0226
948.50,0.0224
948.25,0.0222
948.00,0.0221
947.75,0.0219
947.50,0.0217
947.25,0.0215
947.00,0.0214
946.75,0.0215
946.50,0.0215
946.25,0.0215
946.00,0.0214
945.75,0.0212
945.50,0.0211
945.25,0.0210
945.00,0.0210
944.75,0.0209
944.50,0.0208
944.25,0.0207
944.00,0.0207
943.75,0.0208
943.50,0.0209
943.25,0.0210
943.00,0.0211
942.75,0.0212
942.50,0.0212
942.25,0.0212
942.00,0.0211
941.75,0.0210
941.50,0.0210
941.25,0.0209
941.00,0.0209
940.75,0.0209
940.50,0.0209
940.25,0.0209
940.00,0.0208
939.75,0.0207
939.50,0.0207
939.25,0.0208
939.00,0.0211
938.75,0.0212
938.50,0.0212
938.25,0.0209
938.00,0.0205
937.75,0.0202
937.50,0.0200
937.25,0.0199
937.00,0.0200
936.75,0.0200
936.50,0.0201
936.25,0.0201
936.00,0.0201
935.75,0.0201
935.50,0.0201
935.25,0.0201
935.00,0.0200
934.75,0.0201
934.50,0.0202
934.25,0.0205
934.00,0.0207
933.75,0.0208
933.50,0.0209
933.25,0.0209
933.00,0.0208
932.75,0.0208
932.50,0.0207
932.25,0.0206
932.00,0.0207
931.75,0.0208
931.50,0.0210
931.25,0.0212
931.00,0.0213
930.75,0.0213
930.50,0.0213
930.25,0.0212
930.00,0.0213
929.75,0.0215
929.50,0.0217
929.25,0.0219
929.00,0.0219
928.75,0.0217
928.50,0.0216
928.25,0.0216
928.00,0.0216
927.75,0.0218
927.50,0.0220
927.25,0.0223
927.00,0.0225
926.75,0.0228
926.50,0.0229
926.25,0.0230
926.00,0.0231
925.75,0.0232
925.50,0.0232
925.25,0.0234
925.00,0.0235
924.75,0.0236
924.50,0.0235
924.25,0.0234
924.00,0.0231
923.75,0.0229
923.50,0.0228
923.25,0.0230
923.00,0.0233
922.75,0.0237
922.50,0.0240
922.25,0.0243
922.00,0.0246
921.75,0.0248
921.50,0.0249
921.25,0.0252
921.00,0.0254
920.75,0.0257
920.50,0.0258
920.25,0.0260
920.00,0.0262
919.75,0.0265
919.50,0.0269
919.25,0.0271
919.00,0.0271
918.75,0.0270
918.50,0.0271
918.25,0.0275
918.00,0.0281
917.75,0.0287
917.50,0.0293
917.25,0.0296
917.00,0.0297
916.75,0.0298
916.50,0.0300
916.25,0.0303
916.00,0.0305
915.75,0.0307
915.50,0.0307
915.25,0.0308
915.00,0.0309
914.75,0.0311
914.50,0.0314
914.25,0.0316
914.00,0.0318
913.75,0.0318
913.50,0.0319
913.25,0.0319
913.00,0.0320
912.75,0.0320
912.50,0.0321
912.25,0.0322
912.00,0.0324
911.75,0.0324
911.50,0.0324
911.25,0.0324
911.00,0.0324
910.75,0.0323
910.50,0.0323
910.25,0.0323
910.00,0.0322
909.75,0.0320
909.50,0.0319
909.25,0.0319
909.00,0.0319
908.75,0.0319
908.50,0.0318
908.25,0.0318
908.00,0.0316
907.75,0.0313
907.50,0.0309
907.25,0.0306
907.00,0.0303
906.75,0.0301
906.50,0.0301
906.25,0.0301
906.00,0.0302
905.75,0.0303
905.50,0.0302
905.25,0.0299
905.00,0.0295
904.75,0.0292
904.50,0.0290
904.25,0.0289
904.00,0.0289
903.75,0.0290
903.50,0.0290
903.25,0.0290
903.00,0.0291
902.75,0.0292
902.50,0.0294
902.25,0.0296
902.00,0.0297
901.75,0.0299
901.50,0.0300
901.25,0.0301
901.00,0.0300
900.75,0.0299
900.50,0.0298
900.25,0.0297
900.00,0.0298
899.75,0.0300
899.50,0.0300
899.25,0.0301
899.00,0.0302
898.75,0.0304
898.50,0.0307
898.25,0.0309
898.00,0.0311
897.75,0.0312
897.50,0.0314
897.25,0.0315
897.00,0.0315
896.75,0.0316
896.50,0.0318
896.25,0.0321
896.00,0.0324
895.75,0.0328
895.50,0.0330
895.25,0.0334
895.00,0.0338
894.75,0.0342
894.50,0.0345
894.25,0.0346
894.00,0.0345
893.75,0.0344
893.50,0.0344
893.25,0.0346
893.00,0.0348
892.75,0.0351
892.50,0.0353
892.25,0.0355
892.00,0.0356
891.75,0.0357
891.50,0.0358
891.25,0.0361
891.00,0.0364
890.75,0.0368
890.50,0.0371
890.25,0.0372
890.00,0.0372
889.75,0.0372
889.50,0.0373
889.25,0.0376
889.00,0.0383
888.75,0.0392
888.50,0.0400
888.25,0.0407
888.00,0.0410
887.75,0.0410
887.50,0.0410
887.25,0.0412
887.00,0.0416
886.75,0.0421
886.50,0.0425
886.25,0.0428
886.00,0.0429
885.75,0.0431
885.50,0.0435
885.25,0.0440
885.00,0.0447
884.75,0.0454
884.50,0.0460
884.25,0.0466
884.00,0.0471
883.75,0.0477
883.50,0.0483
883.25,0.0490
883.00,0.0496
882.75,0.0500
882.50,0.0505
882.25,0.0510
882.00,0.0517
881.75,0.0523
881.50,0.0527
881.25,0.0531
881.00,0.0534
880.75,0.0539
880.50,0.0546
880.25,0.0553
880.00,0.0559
879.75,0.0565
879.50,0.0571
879.25,0.0578
879.00,0.0585
878.75,0.0593
878.50,0.0601
878.25,0.0610
878.00,0.0620
877.75,0.0631
877.50,0.0641
877.25,0.0651
877.00,0.0660
876.75,0.0669
876.50,0.0677
876.25,0.0684
876.00,0.0691
875.75,0.0698
875.50,0.0707
875.25,0.0718
875.00,0.0729
874.75,0.0738
874.50,0.0746
874.25,0.0754
874.00,0.0762
873.75,0.0773
873.50,0.0786
873.25,0.0799
873.00,0.0813
872.75,0.0826
872.50,0.0839
872.25,0.0853
872.00,0.0866
871.75,0.0877
871.50,0.0888
871.25,0.0900
871.00,0.0913
870.75,0.0926
870.50,0.0941
870.25,0.0956
870.00,0.0971
869.75,0.0985
869.50,0.0997
869.25,0.1007
869.00,0.1014
868.75,0.1021
868.50,0.1030
868.25,0.1040
868.00,0.1052
867.75,0.1063
867.50,0.1073
867.25,0.1080
867.00,0.1085
866.75,0.1088
866.50,0.1091
866.25,0.1094
866.00,0.1098
865.75,0.1101
865.50,0.1106
865.25,0.1111
865.00,0.1116
864.75,0.1120
864.50,0.1123
864.25,0.1124
864.00,0.1122
863.75,0.1119
863.50,0.1115
863.25,0.1112
863.00,0.1111
862.75,0.1110
862.50,0.1109
862.25,0.1108
862.00,0.1106
861.75,0.1101
861.50,0.1095
861.25,0.1089
861.00,0.1084
860.75,0.1080
860.50,0.1078
860.25,0.1075
860.00,0.1072
859.75,0.1067
859.50,0.1059
859.25,0.1050
859.00,0.1042
858.75,0.1036
858.50,0.1033
858.25,0.1032
858.00,0.1032
857.75,0.1031
857.50,0.1028
857.25,0.1024
857.00,0.1020
856.75,0.1019
856.50,0.1018
856.25,0.1018
856.00,0.1020
855.75,0.1022
855.50,0.1027
855.25,0.1031
855.00,0.1035
854.75,0.1037
854.50,0.1037
854.25,0.1037
854.00,0.1038
853.75,0.1041
853.50,0.1046
853.25,0.1052
853.00,0.1060
852.75,0.1068
852.50,0.1076
852.25,0.1085
852.00,0.1093
851.75,0.1101
851.50,0.1109
851.25,0.1118
851.00,0.1129
850.75,0.1140
850.50,0.1150
850.25,0.1158
850.00,0.1165
849.75,0.1174
849.50,0.1184
849.25,0.1197
849.00,0.1212
848.75,0.1226
848.50,0.1240
848.25,0.1251
848.00,0.1262
847.75,0.1270
847.50,0.1278
847.25,0.1287
847.00,0.1296
846.75,0.1306
846.50,0.1315
846.25,0.1324
846.00,0.1335
845.75,0.1345
845.50,0.1355
845.25,0.1364
845.00,0.1370
844.75,0.1375
844.50,0.1380
844.25,0.1386
844.00,0.1392
843.75,0.1396
843.50,0.1397
843.25,0.1395
843.00,0.1391
842.75,0.1385
842.50,0.1380
842.25,0.1375
842.00,0.1372
841.75,0.1369
841.50,0.1366
841.25,0.1361
841.00,0.1353
840.75,0.1345
840.50,0.1338
840.25,0.1331
840.00,0.1324
839.75,0.1317
839.50,0.1307
839.25,0.1296
839.00,0.1283
838.75,0.1271
838.50,0.1261
838.25,0.1252
838.00,0.1243
837.75,0.1233
837.50,0.1220
837.25,0.1207
837.00,0.1195
836.75,0.1186
836.50,0.1178
836.25,0.1171
836.00,0.1161
835.75,0.1147
835.50,0.1130
835.25,0.1114
835.00,0.1102
834.75,0.1095
834.50,0.1090
834.25,0.1086
834.00,0.1080
833.75,0.1072
833.50,0.1065
833.25,0.1060
833.00,0.1057
832.75,0.1058
832.50,0.1061
832.25,0.1065
832.00,0.1068
831.75,0.1069
831.50,0.1068
831.25,0.1066
831.00,0.1063
830.75,0.1060
830.50,0.1058
830.25,0.1058
830.00,0.1063
829.75,0.1072
829.50,0.1082
829.25,0.1092
829.00,0.1099
828.75,0.1105
828.50,0.1108
828.25,0.1112
828.00,0.1117
827.75,0.1124
827.50,0.1134
827.25,0.1145
827.00,0.1156
826.75,0.1168
826.50,0.1181
826.25,0.1197
826.00,0.1214
825.75,0.1231
825.50,0.1246
825.25,0.1262
825.00,0.1279
824.75,0.1301
824.50,0.1325
824.25,0.1349
824.00,0.1371
823.75,0.1389
823.50,0.1405
823.25,0.1423
823.00,0.1442
822.75,0.1465
822.50,0.1489
822.25,0.1513
822.00,0.1535
821.75,0.1555
821.50,0.1573
821.25,0.1590
821.00,0.1605
820.75,0.1622
820.50,0.1639
820.25,0.1658
820.00,0.1676
819.75,0.1692
819.50,0.1706
819.25,0.1722
819.00,0.1741
818.75,0.1760
818.50,0.1776
818.25,0.1788
818.00,0.1797
817.75,0.1806
817.50,0.1817
817.25,0.1830
817.00,0.1844
816.75,0.1860
816.50,0.1877
816.25,0.1894
816.00,0.1911
815.75,0.1925
815.50,0.1936
815.25,0.1945
815.00,0.1954
814.75,0.1962
814.50,0.1970
814.25,0.1978
814.00,0.1986
813.75,0.1996
813.50,0.2007
813.25,0.2021
813.00,0.2037
812.75,0.2055
812.50,0.2073
812.25,0.2092
812.00,0.2112
811.75,0.2130
811.50,0.2149
811.25,0.2168
811.00,0.2188
810.75,0.2212
810.50,0.2238
810.25,0.2265
810.00,0.2292
809.75,0.2316
809.50,0.2339
809.25,0.2360
809.00,0.2381
808.75,0.2404
808.50,0.2428
808.25,0.2454
808.00,0.2479
807.75,0.2507
807.50,0.2537
807.25,0.2570
807.00,0.2606
806.75,0.2643
806.50,0.2680
806.25,0.2717
806.00,0.2753
805.75,0.2786
805.50,0.2818
805.25,0.2849
805.00,0.2883
804.75,0.2923
804.50,0.2969
804.25,0.3019
804.00,0.3069
803.75,0.3115
803.50,0.3155
803.25,0.3192
803.00,0.3228
802.75,0.3263
802.50,0.3298
802.25,0.3335
802.00,0.3373
801.75,0.3416
801.50,0.3462
801.25,0.3510
801.00,0.3558
800.75,0.3606
800.50,0.3651
800.25,0.3694
800.00,0.3735
