Created as New Dataset,Sample 029 By irlear Date Wednesday, December 31 2008
cm-1,A
4000.00,0.0050
3999.75,0.0049
3999.50,0.0047
3999.25,0.0046
3999.00,0.0044
3998.75,0.0043
3998.50,0.0042
3998.25,0.0042
3998.00,0.0042
3997.75,0.0043
3997.50,0.0044
3997.25,0.0046
3997.00,0.0047
3996.75,0.0047
3996.50,0.0048
3996.25,0.0049
3996.00,0.0050
3995.75,0.0051
3995.50,0.0051
3995.25,0.0051
3995.00,0.0051
3994.75,0.0051
3994.50,0.0051
3994.25,0.0052
3994.00,0.0052
3993.75,0.0051
3993.50,0.0049
3993.25,0.0047
3993.00,0.0046
3992.75,0.0046
3992.50,0.0045
3992.25,0.0045
3992.00,0.0046
3991.75,0.0046
3991.50,0.0047
3991.25,0.0047
3991.00,0.0047
3990.75,0.0046
3990.50,0.0046
3990.25,0.0046
3990.00,0.0047
3989.75,0.0048
3989.50,0.0048
3989.25,0.0049
3989.00,0.0049
3988.75,0.0049
3988.50,0.0048
3988.25,0.0047
3988.00,0.0047
3987.75,0.0046
3987.50,0.0047
3987.25,0.0047
3987.00,0.0047
3986.75,0.0048
3986.50,0.0048
3986.25,0.0049
3986.00,0.0049
3985.75,0.0048
3985.50,0.0048
3985.25,0.0048
3985.00,0.0048
3984.75,0.0050
3984.50,0.0051
3984.25,0.0052
3984.00,0.0052
3983.75,0.0053
3983.50,0.0053
3983.25,0.0053
3983.00,0.0053
3982.75,0.0052
3982.50,0.0052
3982.25,0.0051
3982.00,0.0050
3981.75,0.0049
3981.50,0.0049
3981.25,0.0048
3981.00,0.0048
3980.75,0.0048
3980.50,0.0048
3980.25,0.0048
3980.00,0.0047
3979.75,0.0046
3979.50,0.0046
3979.25,0.0046
3979.00,0.0046
3978.75,0.0046
3978.50,0.0046
3978.25,0.0046
3978.00,0.0046
3977.75,0.0046
3977.50,0.0047
3977.25,0.0047
3977.00,0.0047
3976.75,0.0047
3976.50,0.0048
3976.25,0.0048
3976.00,0.0048
3975.75,0.0048
3975.50,0.0048
3975.25,0.0047
3975.00,0.0047
3974.75,0.0046
3974.50,0.0045
3974.25,0.0044
3974.00,0.0044
3973.75,0.0044
3973.50,0.0045
3973.25,0.0046
3973.00,0.0048
3972.75,0.0049
3972.50,0.0049
3972.25,0.0050
3972.00,0.0049
3971.75,0.0048
3971.50,0.0047
3971.25,0.0046
3971.00,0.0046
3970.75,0.0046
3970.50,0.0047
3970.25,0.0048
3970.00,0.0049
3969.75,0.0050
3969.50,0.0049
3969.25,0.0048
3969.00,0.0047
3968.75,0.0045
3968.50,0.0044
3968.25,0.0043
3968.00,0.0043
3967.75,0.0044
3967.50,0.0046
3967.25,0.0048
3967.00,0.0049
3966.75,0.0050
3966.50,0.0050
3966.25,0.0050
3966.00,0.0049
3965.75,0.0049
3965.50,0.0049
3965.25,0.0048
3965.00,0.0048
3964.75,0.0047
3964.50,0.0046
3964.25,0.0046
3964.00,0.0046
3963.75,0.0045
3963.50,0.0045
3963.25,0.0046
3963.00,0.0046
3962.75,0.0047
3962.50,0.0048
3962.25,0.0048
3962.00,0.0048
3961.75,0.0048
3961.50,0.0047
3961.25,0.0046
3961.00,0.0045
3960.75,0.0045
3960.50,0.0045
3960.25,0.0046
3960.00,0.0047
3959.75,0.0047
3959.50,0.0047
3959.25,0.0047
3959.00,0.0047
3958.75,0.0047
3958.50,0.0047
3958.25,0.0048
3958.00,0.0048
3957.75,0.0049
3957.50,0.0050
3957.25,0.0050
3957.00,0.0050
3956.75,0.0049
3956.50,0.0048
3956.25,0.0048
3956.00,0.0047
3955.75,0.0047
3955.50,0.0047
3955.25,0.0047
3955.00,0.0047
3954.75,0.0047
3954.50,0.0048
3954.25,0.0048
3954.00,0.0049
3953.75,0.0049
3953.50,0.0049
3953.25,0.0049
3953.00,0.0048
3952.75,0.0047
3952.50,0.0047
3952.25,0.0046
3952.00,0.0045
3951.75,0.0045
3951.50,0.0045
3951.25,0.0046
3951.00,0.0047
3950.75,0.0048
3950.50,0.0048
3950.25,0.0048
3950.00,0.0047
3949.75,0.0047
3949.50,0.0047
3949.25,0.0048
3949.00,0.0049
3948.75,0.0050
3948.50,0.0050
3948.25,0.0049
3948.00,0.0048
3947.75,0.0047
3947.50,0.0046
3947.25,0.0045
3947.00,0.0045
3946.75,0.0045
3946.50,0.0045
3946.25,0.0045
3946.00,0.0045
3945.75,0.0045
3945.50,0.0046
3945.25,0.0047
3945.00,0.0049
3944.75,0.0050
3944.50,0.0051
3944.25,0.0051
3944.00,0.0050
3943.75,0.0049
3943.50,0.0047
3943.25,0.0046
3943.00,0.0046
3942.75,0.0047
3942.50,0.0048
3942.25,0.0048
3942.00,0.0048
3941.75,0.0048
3941.50,0.0048
3941.25,0.0048
3941.00,0.0049
3940.75,0.0049
3940.50,0.0049
3940.25,0.0049
3940.00,0.0048
3939.75,0.0047
3939.50,0.0047
3939.25,0.0046
3939.00,0.0046
3938.75,0.0047
3938.50,0.0047
3938.25,0.0046
3938.00,0.0045
3937.75,0.0045
3937.50,0.0045
3937.25,0.0046
3937.00,0.0046
3936.75,0.0046
3936.50,0.0046
3936.25,0.0046
3936.00,0.0045
3935.75,0.0045
3935.50,0.0044
3935.25,0.0043
3935.00,0.0044
3934.75,0.0045
3934.50,0.0047
3934.25,0.0049
3934.00,0.0050
3933.75,0.0050
3933.50,0.0049
3933.25,0.0047
3933.00,0.0046
3932.75,0.0046
3932.50,0.0046
3932.25,0.0046
3932.00,0.0046
3931.75,0.0046
3931.50,0.0046
3931.25,0.0046
3931.00,0.0047
3930.75,0.0048
3930.50,0.0048
3930.25,0.0047
3930.00,0.0046
3929.75,0.0045
3929.50,0.0044
3929.25,0.0045
3929.00,0.0046
3928.75,0.0048
3928.50,0.0050
3928.25,0.0051
3928.00,0.0051
3927.75,0.0051
3927.50,0.0050
3927.25,0.0049
3927.00,0.0048
3926.75,0.0047
3926.50,0.0046
3926.25,0.0045
3926.00,0.0044
3925.75,0.0044
3925.50,0.0044
3925.25,0.0046
3925.00,0.0047
3924.75,0.0048
3924.50,0.0049
3924.25,0.0049
3924.00,0.0049
3923.75,0.0048
3923.50,0.0047
3923.25,0.0048
3923.00,0.0048
3922.75,0.0049
3922.50,0.0050
3922.25,0.0050
3922.00,0.0050
3921.75,0.0049
3921.50,0.0049
3921.25,0.0048
3921.00,0.0048
3920.75,0.0047
3920.50,0.0047
3920.25,0.0048
3920.00,0.0047
3919.75,0.0046
3919.50,0.0044
3919.25,0.0042
3919.00,0.0042
3918.75,0.0042
3918.50,0.0043
3918.25,0.0045
3918.00,0.0046
3917.75,0.0047
3917.50,0.0047
3917.25,0.0047
3917.00,0.0047
3916.75,0.0048
3916.50,0.0048
3916.25,0.0048
3916.00,0.0047
3915.75,0.0047
3915.50,0.0047
3915.25,0.0048
3915.00,0.0049
3914.75,0.0050
3914.50,0.0051
3914.25,0.0051
3914.00,0.0051
3913.75,0.0050
3913.50,0.0049
3913.25,0.0047
3913.00,0.0046
3912.75,0.0046
3912.50,0.0046
3912.25,0.0047
3912.00,0.0048
3911.75,0.0048
3911.50,0.0048
3911.25,0.0047
3911.00,0.0047
3910.75,0.0048
3910.50,0.0048
3910.25,0.0049
3910.00,0.0048
3909.75,0.0048
3909.50,0.0047
3909.25,0.0046
3909.00,0.0046
3908.75,0.0048
3908.50,0.0049
3908.25,0.0050
3908.00,0.0051
3907.75,0.0051
3907.50,0.0050
3907.25,0.0049
3907.00,0.0048
3906.75,0.0047
3906.50,0.0046
3906.25,0.0046
3906.00,0.0047
3905.75,0.0048
3905.50,0.0049
3905.25,0.0050
3905.00,0.0049
3904.75,0.0047
3904.50,0.0044
3904.25,0.0041
3904.00,0.0041
3903.75,0.0042
3903.50,0.0043
3903.25,0.0044
3903.00,0.0044
3902.75,0.0044
3902.50,0.0044
3902.25,0.0044
3902.00,0.0044
3901.75,0.0044
3901.50,0.0043
3901.25,0.0042
3901.00,0.0042
3900.75,0.0043
3900.50,0.0045
3900.25,0.0047
3900.00,0.0049
3899.75,0.0049
3899.50,0.0047
3899.25,0.0044
3899.00,0.0040
3898.75,0.0039
3898.50,0.0041
3898.25,0.0044
3898.00,0.0047
3897.75,0.0050
3897.50,0.0052
3897.25,0.0054
3897.00,0.0054
3896.75,0.0053
3896.50,0.0052
3896.25,0.0051
3896.00,0.0051
3895.75,0.0051
3895.50,0.0051
3895.25,0.0051
3895.00,0.0050
3894.75,0.0049
3894.50,0.0047
3894.25,0.0046
3894.00,0.0046
3893.75,0.0045
3893.50,0.0045
3893.25,0.0046
3893.00,0.0047
3892.75,0.0048
3892.50,0.0051
3892.25,0.0053
3892.00,0.0054
3891.75,0.0052
3891.50,0.0050
3891.25,0.0046
3891.00,0.0044
3890.75,0.0043
3890.50,0.0043
3890.25,0.0043
3890.00,0.0043
3889.75,0.0044
3889.50,0.0045
3889.25,0.0046
3889.00,0.0047
3888.75,0.0048
3888.50,0.0049
3888.25,0.0049
3888.00,0.0049
3887.75,0.0049
3887.50,0.0048
3887.25,0.0047
3887.00,0.0047
3886.75,0.0048
3886.50,0.0049
3886.25,0.0049
3886.00,0.0049
3885.75,0.0048
3885.50,0.0045
3885.25,0.0043
3885.00,0.0044
3884.75,0.0045
3884.50,0.0047
3884.25,0.0048
3884.00,0.0049
3883.75,0.0049
3883.50,0.0049
3883.25,0.0047
3883.00,0.0046
3882.75,0.0045
3882.50,0.0046
3882.25,0.0047
3882.00,0.0048
3881.75,0.0049
3881.50,0.0050
3881.25,0.0050
3881.00,0.0049
3880.75,0.0049
3880.50,0.0048
3880.25,0.0047
3880.00,0.0045
3879.75,0.0044
3879.50,0.0043
3879.25,0.0043
3879.00,0.0043
3878.75,0.0044
3878.50,0.0044
3878.25,0.0044
3878.00,0.0045
3877.75,0.0045
3877.50,0.0046
3877.25,0.0046
3877.00,0.0046
3876.75,0.0045
3876.50,0.0046
3876.25,0.0046
3876.00,0.0047
3875.75,0.0048
3875.50,0.0049
3875.25,0.0048
3875.00,0.0048
3874.75,0.0047
3874.50,0.0046
3874.25,0.0047
3874.00,0.0048
3873.75,0.0048
3873.50,0.0047
3873.25,0.0047
3873.00,0.0047
3872.75,0.0047
3872.50,0.0047
3872.25,0.0047
3872.00,0.0048
3871.75,0.0049
3871.50,0.0050
3871.25,0.0050
3871.00,0.0049
3870.75,0.0047
3870.50,0.0044
3870.25,0.0042
3870.00,0.0042
3869.75,0.0044
3869.50,0.0047
3869.25,0.0048
3869.00,0.0047
3868.75,0.0046
3868.50,0.0044
3868.25,0.0043
3868.00,0.0042
3867.75,0.0042
3867.50,0.0042
3867.25,0.0044
3867.00,0.0045
3866.75,0.0046
3866.50,0.0047
3866.25,0.0048
3866.00,0.0049
3865.75,0.0049
3865.50,0.0047
3865.25,0.0045
3865.00,0.0044
3864.75,0.0043
3864.50,0.0043
3864.25,0.0043
3864.00,0.0044
3863.75,0.0045
3863.50,0.0046
3863.25,0.0047
3863.00,0.0048
3862.75,0.0047
3862.50,0.0046
3862.25,0.0044
3862.00,0.0042
3861.75,0.0042
3861.50,0.0043
3861.25,0.0043
3861.00,0.0043
3860.75,0.0042
3860.50,0.0041
3860.25,0.0041
3860.00,0.0042
3859.75,0.0044
3859.50,0.0047
3859.25,0.0048
3859.00,0.0048
3858.75,0.0048
3858.50,0.0049
3858.25,0.0049
3858.00,0.0049
3857.75,0.0049
3857.50,0.0047
3857.25,0.0044
3857.00,0.0042
3856.75,0.0041
3856.50,0.0041
3856.25,0.0042
3856.00,0.0044
3855.75,0.0045
3855.50,0.0047
3855.25,0.0048
3855.00,0.0049
3854.75,0.0049
3854.50,0.0049
3854.25,0.0049
3854.00,0.0054
3853.75,0.0053
3853.50,0.0050
3853.25,0.0047
3853.00,0.0045
3852.75,0.0042
3852.50,0.0041
3852.25,0.0040
3852.00,0.0042
3851.75,0.0044
3851.50,0.0045
3851.25,0.0045
3851.00,0.0044
3850.75,0.0044
3850.50,0.0044
3850.25,0.0044
3850.00,0.0045
3849.75,0.0046
3849.50,0.0047
3849.25,0.0048
3849.00,0.0049
3848.75,0.0049
3848.50,0.0049
3848.25,0.0049
3848.00,0.0049
3847.75,0.0050
3847.50,0.0050
3847.25,0.0050
3847.00,0.0048
3846.75,0.0046
3846.50,0.0046
3846.25,0.0046
3846.00,0.0047
3845.75,0.0048
3845.50,0.0049
3845.25,0.0049
3845.00,0.0050
3844.75,0.0050
3844.50,0.0051
3844.25,0.0051
3844.00,0.0051
3843.75,0.0051
3843.50,0.0050
3843.25,0.0048
3843.00,0.0047
3842.75,0.0047
3842.50,0.0047
3842.25,0.0048
3842.00,0.0049
3841.75,0.0049
3841.50,0.0047
3841.25,0.0044
3841.00,0.0041
3840.75,0.0039
3840.50,0.0037
3840.25,0.0037
3840.00,0.0037
3839.75,0.0039
3839.50,0.0042
3839.25,0.0045
3839.00,0.0046
3838.75,0.0047
3838.50,0.0046
3838.25,0.0044
3838.00,0.0042
3837.75,0.0041
3837.50,0.0042
3837.25,0.0044
3837.00,0.0045
3836.75,0.0046
3836.50,0.0045
3836.25,0.0045
3836.00,0.0045
3835.75,0.0045
3835.50,0.0044
3835.25,0.0043
3835.00,0.0043
3834.75,0.0043
3834.50,0.0044
3834.25,0.0043
3834.00,0.0043
3833.75,0.0043
3833.50,0.0044
3833.25,0.0045
3833.00,0.0047
3832.75,0.0049
3832.50,0.0050
3832.25,0.0049
3832.00,0.0048
3831.75,0.0047
3831.50,0.0047
3831.25,0.0047
3831.00,0.0047
3830.75,0.0046
3830.50,0.0045
3830.25,0.0045
3830.00,0.0045
3829.75,0.0045
3829.50,0.0046
3829.25,0.0045
3829.00,0.0045
3828.75,0.0044
3828.50,0.0044
3828.25,0.0045
3828.00,0.0046
3827.75,0.0047
3827.50,0.0048
3827.25,0.0048
3827.00,0.0048
3826.75,0.0049
3826.50,0.0050
3826.25,0.0050
3826.00,0.0048
3825.75,0.0047
3825.50,0.0046
3825.25,0.0045
3825.00,0.0046
3824.75,0.0048
3824.50,0.0050
3824.25,0.0052
3824.00,0.0053
3823.75,0.0052
3823.50,0.0051
3823.25,0.0049
3823.00,0.0047
3822.75,0.0046
3822.50,0.0045
3822.25,0.0043
3822.00,0.0041
3821.75,0.0039
3821.50,0.0039
3821.25,0.0040
3821.00,0.0040
3820.75,0.0040
3820.50,0.0041
3820.25,0.0043
3820.00,0.0045
3819.75,0.0047
3819.50,0.0047
3819.25,0.0047
3819.00,0.0047
3818.75,0.0047
3818.50,0.0047
3818.25,0.0048
3818.00,0.0048
3817.75,0.0048
3817.50,0.0048
3817.25,0.0049
3817.00,0.0051
3816.75,0.0053
3816.50,0.0054
3816.25,0.0056
3816.00,0.0058
3815.75,0.0057
3815.50,0.0055
3815.25,0.0053
3815.00,0.0051
3814.75,0.0050
3814.50,0.0049
3814.25,0.0049
3814.00,0.0049
3813.75,0.0050
3813.50,0.0050
3813.25,0.0050
3813.00,0.0050
3812.75,0.0050
3812.50,0.0050
3812.25,0.0050
3812.00,0.0049
3811.75,0.0049
3811.50,0.0048
3811.25,0.0047
3811.00,0.0046
3810.75,0.0046
3810.50,0.0047
3810.25,0.0048
3810.00,0.0049
3809.75,0.0050
3809.50,0.0050
3809.25,0.0049
3809.00,0.0048
3808.75,0.0047
3808.50,0.0047
3808.25,0.0047
3808.00,0.0049
3807.75,0.0052
3807.50,0.0054
3807.25,0.0055
3807.00,0.0054
3806.75,0.0051
3806.50,0.0045
3806.25,0.0041
3806.00,0.0039
3805.75,0.0039
3805.50,0.0041
3805.25,0.0043
3805.00,0.0046
3804.75,0.0048
3804.50,0.0048
3804.25,0.0048
3804.00,0.0048
3803.75,0.0047
3803.50,0.0045
3803.25,0.0044
3803.00,0.0044
3802.75,0.0044
3802.50,0.0044
3802.25,0.0044
3802.00,0.0042
3801.75,0.0039
3801.50,0.0039
3801.25,0.0043
3801.00,0.0048
3800.75,0.0051
3800.50,0.0051
3800.25,0.0049
3800.00,0.0046
3799.75,0.0044
3799.50,0.0043
3799.25,0.0043
3799.00,0.0044
3798.75,0.0046
3798.50,0.0049
3798.25,0.0051
3798.00,0.0053
3797.75,0.0054
3797.50,0.0054
3797.25,0.0054
3797.00,0.0051
3796.75,0.0049
3796.50,0.0047
3796.25,0.0047
3796.00,0.0047
3795.75,0.0047
3795.50,0.0046
3795.25,0.0046
3795.00,0.0046
3794.75,0.0046
3794.50,0.0047
3794.25,0.0049
3794.00,0.0050
3793.75,0.0051
3793.50,0.0051
3793.25,0.0050
3793.00,0.0049
3792.75,0.0047
3792.50,0.0046
3792.25,0.0046
3792.00,0.0046
3791.75,0.0046
3791.50,0.0046
3791.25,0.0046
3791.00,0.0046
3790.75,0.0047
3790.50,0.0048
3790.25,0.0048
3790.00,0.0048
3789.75,0.0047
3789.50,0.0046
3789.25,0.0045
3789.00,0.0045
3788.75,0.0045
3788.50,0.0045
3788.25,0.0046
3788.00,0.0048
3787.75,0.0050
3787.50,0.0051
3787.25,0.0052
3787.00,0.0053
3786.75,0.0053
3786.50,0.0054
3786.25,0.0055
3786.00,0.0055
3785.75,0.0055
3785.50,0.0054
3785.25,0.0053
3785.00,0.0052
3784.75,0.0051
3784.50,0.0050
3784.25,0.0050
3784.00,0.0050
3783.75,0.0050
3783.50,0.0050
3783.25,0.0050
3783.00,0.0050
3782.75,0.0051
3782.50,0.0051
3782.25,0.0051
3782.00,0.0052
3781.75,0.0053
3781.50,0.0053
3781.25,0.0053
3781.00,0.0053
3780.75,0.0052
3780.50,0.0051
3780.25,0.0050
3780.00,0.0048
3779.75,0.0045
3779.50,0.0043
3779.25,0.0041
3779.00,0.0041
3778.75,0.0042
3778.50,0.0044
3778.25,0.0046
3778.00,0.0047
3777.75,0.0048
3777.50,0.0048
3777.25,0.0047
3777.00,0.0047
3776.75,0.0047
3776.50,0.0048
3776.25,0.0049
3776.00,0.0050
3775.75,0.0050
3775.50,0.0051
3775.25,0.0051
3775.00,0.0051
3774.75,0.0051
3774.50,0.0050
3774.25,0.0050
3774.00,0.0049
3773.75,0.0048
3773.50,0.0048
3773.25,0.0048
3773.00,0.0048
3772.75,0.0049
3772.50,0.0050
3772.25,0.0051
3772.00,0.0052
3771.75,0.0053
3771.50,0.0054
3771.25,0.0054
3771.00,0.0053
3770.75,0.0052
3770.50,0.0050
3770.25,0.0049
3770.00,0.0049
3769.75,0.0049
3769.50,0.0049
3769.25,0.0048
3769.00,0.0048
3768.75,0.0049
3768.50,0.0050
3768.25,0.0051
3768.00,0.0052
3767.75,0.0051
3767.50,0.0050
3767.25,0.0050
3767.00,0.0050
3766.75,0.0050
3766.50,0.0051
3766.25,0.0052
3766.00,0.0052
3765.75,0.0052
3765.50,0.0051
3765.25,0.0049
3765.00,0.0048
3764.75,0.0048
3764.50,0.0048
3764.25,0.0049
3764.00,0.0050
3763.75,0.0052
3763.50,0.0052
3763.25,0.0052
3763.00,0.0052
3762.75,0.0051
3762.50,0.0049
3762.25,0.0049
3762.00,0.0049
3761.75,0.0050
3761.50,0.0051
3761.25,0.0052
3761.00,0.0053
3760.75,0.0053
3760.50,0.0052
3760.25,0.0050
3760.00,0.0049
3759.75,0.0049
3759.50,0.0049
3759.25,0.0050
3759.00,0.0051
3758.75,0.0051
3758.50,0.0051
3758.25,0.0051
3758.00,0.0051
3757.75,0.0051
3757.50,0.0051
3757.25,0.0052
3757.00,0.0052
3756.75,0.0052
3756.50,0.0051
3756.25,0.0049
3756.00,0.0047
3755.75,0.0047
3755.50,0.0048
3755.25,0.0049
3755.00,0.0051
3754.75,0.0051
3754.50,0.0051
3754.25,0.0050
3754.00,0.0048
3753.75,0.0048
3753.50,0.0049
3753.25,0.0053
3753.00,0.0057
3752.75,0.0060
3752.50,0.0061
3752.25,0.0058
3752.00,0.0052
3751.75,0.0046
3751.50,0.0045
3751.25,0.0045
3751.00,0.0045
3750.75,0.0046
3750.50,0.0048
3750.25,0.0051
3750.00,0.0054
3749.75,0.0057
3749.50,0.0058
3749.25,0.0057
3749.00,0.0054
3748.75,0.0052
3748.50,0.0050
3748.25,0.0049
3748.00,0.0049
3747.75,0.0049
3747.50,0.0050
3747.25,0.0052
3747.00,0.0052
3746.75,0.0052
3746.50,0.0050
3746.25,0.0049
3746.00,0.0049
3745.75,0.0049
3745.50,0.0050
3745.25,0.0050
3745.00,0.0048
3744.75,0.0044
3744.50,0.0042
3744.25,0.0038
3744.00,0.0036
3743.75,0.0038
3743.50,0.0040
3743.25,0.0042
3743.00,0.0043
3742.75,0.0046
3742.50,0.0048
3742.25,0.0051
3742.00,0.0052
3741.75,0.0053
3741.50,0.0053
3741.25,0.0054
3741.00,0.0054
3740.75,0.0054
3740.50,0.0054
3740.25,0.0054
3740.00,0.0053
3739.75,0.0051
3739.50,0.0049
3739.25,0.0047
3739.00,0.0045
3738.75,0.0044
3738.50,0.0044
3738.25,0.0045
3738.00,0.0048
3737.75,0.0051
3737.50,0.0052
3737.25,0.0053
3737.00,0.0052
3736.75,0.0053
3736.50,0.0054
3736.25,0.0054
3736.00,0.0053
3735.75,0.0050
3735.50,0.0048
3735.25,0.0046
3735.00,0.0048
3734.75,0.0050
3734.50,0.0049
3734.25,0.0048
3734.00,0.0046
3733.75,0.0046
3733.50,0.0047
3733.25,0.0049
3733.00,0.0051
3732.75,0.0055
3732.50,0.0059
3732.25,0.0063
3732.00,0.0066
3731.75,0.0063
3731.50,0.0057
3731.25,0.0053
3731.00,0.0049
3730.75,0.0047
3730.50,0.0045
3730.25,0.0044
3730.00,0.0044
3729.75,0.0044
3729.50,0.0045
3729.25,0.0047
3729.00,0.0049
3728.75,0.0051
3728.50,0.0052
3728.25,0.0053
3728.00,0.0054
3727.75,0.0054
3727.50,0.0053
3727.25,0.0051
3727.00,0.0049
3726.75,0.0047
3726.50,0.0046
3726.25,0.0046
3726.00,0.0046
3725.75,0.0046
3725.50,0.0046
3725.25,0.0047
3725.00,0.0049
3724.75,0.0051
3724.50,0.0053
3724.25,0.0053
3724.00,0.0052
3723.75,0.0051
3723.50,0.0051
3723.25,0.0052
3723.00,0.0054
3722.75,0.0055
3722.50,0.0055
3722.25,0.0053
3722.00,0.0049
3721.75,0.0046
3721.50,0.0045
3721.25,0.0046
3721.00,0.0048
3720.75,0.0050
3720.50,0.0052
3720.25,0.0053
3720.00,0.0052
3719.75,0.0049
3719.50,0.0046
3719.25,0.0044
3719.00,0.0045
3718.75,0.0046
3718.50,0.0048
3718.25,0.0049
3718.00,0.0049
3717.75,0.0049
3717.50,0.0049
3717.25,0.0050
3717.00,0.0050
3716.75,0.0050
3716.50,0.0051
3716.25,0.0052
3716.00,0.0053
3715.75,0.0054
3715.50,0.0054
3715.25,0.0054
3715.00,0.0055
3714.75,0.0055
3714.50,0.0055
3714.25,0.0054
3714.00,0.0052
3713.75,0.0050
3713.50,0.0050
3713.25,0.0051
3713.00,0.0053
3712.75,0.0055
3712.50,0.0057
3712.25,0.0060
3712.00,0.0061
3711.75,0.0058
3711.50,0.0053
3711.25,0.0050
3711.00,0.0048
3710.75,0.0047
3710.50,0.0049
3710.25,0.0051
3710.00,0.0052
3709.75,0.0052
3709.50,0.0051
3709.25,0.0050
3709.00,0.0048
3708.75,0.0047
3708.50,0.0048
3708.25,0.0049
3708.00,0.0050
3707.75,0.0052
3707.50,0.0054
3707.25,0.0054
3707.00,0.0054
3706.75,0.0053
3706.50,0.0053
3706.25,0.0053
3706.00,0.0053
3705.75,0.0053
3705.50,0.0052
3705.25,0.0052
3705.00,0.0052
3704.75,0.0053
3704.50,0.0053
3704.25,0.0053
3704.00,0.0052
3703.75,0.0051
3703.50,0.0051
3703.25,0.0051
3703.00,0.0051
3702.75,0.0051
3702.50,0.0050
3702.25,0.0049
3702.00,0.0047
3701.75,0.0046
3701.50,0.0046
3701.25,0.0048
3701.00,0.0050
3700.75,0.0052
3700.50,0.0054
3700.25,0.0055
3700.00,0.0055
3699.75,0.0055
3699.50,0.0054
3699.25,0.0053
3699.00,0.0053
3698.75,0.0053
3698.50,0.0053
3698.25,0.0053
3698.00,0.0053
3697.75,0.0053
3697.50,0.0052
3697.25,0.0051
3697.00,0.0050
3696.75,0.0050
3696.50,0.0049
3696.25,0.0049
3696.00,0.0049
3695.75,0.0050
3695.50,0.0050
3695.25,0.0050
3695.00,0.0051
3694.75,0.0051
3694.50,0.0052
3694.25,0.0053
3694.00,0.0054
3693.75,0.0054
3693.50,0.0054
3693.25,0.0053
3693.00,0.0051
3692.75,0.0050
3692.50,0.0049
3692.25,0.0049
3692.00,0.0048
3691.75,0.0047
3691.50,0.0046
3691.25,0.0047
3691.00,0.0049
3690.75,0.0051
3690.50,0.0052
3690.25,0.0052
3690.00,0.0051
3689.75,0.0050
3689.50,0.0050
3689.25,0.0050
3689.00,0.0050
3688.75,0.0049
3688.50,0.0049
3688.25,0.0049
3688.00,0.0048
3687.75,0.0048
3687.50,0.0048
3687.25,0.0047
3687.00,0.0048
3686.75,0.0049
3686.50,0.0049
3686.25,0.0049
3686.00,0.0048
3685.75,0.0047
3685.50,0.0047
3685.25,0.0047
3685.00,0.0048
3684.75,0.0049
3684.50,0.0050
3684.25,0.0051
3684.00,0.0052
3683.75,0.0053
3683.50,0.0054
3683.25,0.0055
3683.00,0.0056
3682.75,0.0058
3682.50,0.0058
3682.25,0.0058
3682.00,0.0057
3681.75,0.0055
3681.50,0.0052
3681.25,0.0051
3681.00,0.0049
3680.75,0.0049
3680.50,0.0048
3680.25,0.0048
3680.00,0.0048
3679.75,0.0048
3679.50,0.0048
3679.25,0.0047
3679.00,0.0046
3678.75,0.0046
3678.50,0.0045
3678.25,0.0046
3678.00,0.0046
3677.75,0.0047
3677.50,0.0049
3677.25,0.0051
3677.00,0.0052
3676.75,0.0052
3676.50,0.0051
3676.25,0.0048
3676.00,0.0047
3675.75,0.0049
3675.50,0.0052
3675.25,0.0053
3675.00,0.0051
3674.75,0.0048
3674.50,0.0047
3674.25,0.0047
3674.00,0.0048
3673.75,0.0049
3673.50,0.0051
3673.25,0.0052
3673.00,0.0053
3672.75,0.0052
3672.50,0.0051
3672.25,0.0049
3672.00,0.0048
3671.75,0.0048
3671.50,0.0047
3671.25,0.0046
3671.00,0.0044
3670.75,0.0045
3670.50,0.0050
3670.25,0.0055
3670.00,0.0057
3669.75,0.0056
3669.50,0.0054
3669.25,0.0053
3669.00,0.0051
3668.75,0.0051
3668.50,0.0050
3668.25,0.0048
3668.00,0.0046
3667.75,0.0045
3667.50,0.0044
3667.25,0.0044
3667.00,0.0046
3666.75,0.0047
3666.50,0.0049
3666.25,0.0051
3666.00,0.0053
3665.75,0.0055
3665.50,0.0057
3665.25,0.0058
3665.00,0.0058
3664.75,0.0058
3664.50,0.0057
3664.25,0.0055
3664.00,0.0054
3663.75,0.0053
3663.50,0.0053
3663.25,0.0053
3663.00,0.0053
3662.75,0.0052
3662.50,0.0051
3662.25,0.0049
3662.00,0.0048
3661.75,0.0047
3661.50,0.0047
3661.25,0.0048
3661.00,0.0049
3660.75,0.0050
3660.50,0.0052
3660.25,0.0054
3660.00,0.0054
3659.75,0.0053
3659.50,0.0052
3659.25,0.0052
3659.00,0.0052
3658.75,0.0053
3658.50,0.0053
3658.25,0.0053
3658.00,0.0051
3657.75,0.0050
3657.50,0.0049
3657.25,0.0050
3657.00,0.0050
3656.75,0.0049
3656.50,0.0047
3656.25,0.0044
3656.00,0.0044
3655.75,0.0048
3655.50,0.0052
3655.25,0.0055
3655.00,0.0056
3654.75,0.0055
3654.50,0.0054
3654.25,0.0052
3654.00,0.0051
3653.75,0.0050
3653.50,0.0050
3653.25,0.0050
3653.00,0.0050
3652.75,0.0051
3652.50,0.0051
3652.25,0.0050
3652.00,0.0048
3651.75,0.0046
3651.50,0.0044
3651.25,0.0042
3651.00,0.0043
3650.75,0.0044
3650.50,0.0047
3650.25,0.0050
3650.00,0.0054
3649.75,0.0055
3649.50,0.0053
3649.25,0.0051
3649.00,0.0049
3648.75,0.0050
3648.50,0.0051
3648.25,0.0051
3648.00,0.0050
3647.75,0.0048
3647.50,0.0048
3647.25,0.0049
3647.00,0.0050
3646.75,0.0050
3646.50,0.0050
3646.25,0.0051
3646.00,0.0052
3645.75,0.0053
3645.50,0.0054
3645.25,0.0053
3645.00,0.0052
3644.75,0.0051
3644.50,0.0051
3644.25,0.0052
3644.00,0.0054
3643.75,0.0055
3643.50,0.0056
3643.25,0.0055
3643.00,0.0054
3642.75,0.0054
3642.50,0.0054
3642.25,0.0054
3642.00,0.0055
3641.75,0.0054
3641.50,0.0052
3641.25,0.0051
3641.00,0.0050
3640.75,0.0050
3640.50,0.0050
3640.25,0.0051
3640.00,0.0052
3639.75,0.0053
3639.50,0.0053
3639.25,0.0053
3639.00,0.0052
3638.75,0.0051
3638.50,0.0050
3638.25,0.0051
3638.00,0.0052
3637.75,0.0054
3637.50,0.0055
3637.25,0.0054
3637.00,0.0052
3636.75,0.0052
3636.50,0.0052
3636.25,0.0053
3636.00,0.0054
3635.75,0.0055
3635.50,0.0055
3635.25,0.0055
3635.00,0.0054
3634.75,0.0053
3634.50,0.0053
3634.25,0.0054
3634.00,0.0055
3633.75,0.0056
3633.50,0.0056
3633.25,0.0054
3633.00,0.0052
3632.75,0.0051
3632.50,0.0052
3632.25,0.0053
3632.00,0.0055
3631.75,0.0057
3631.50,0.0058
3631.25,0.0059
3631.00,0.0059
3630.75,0.0059
3630.50,0.0057
3630.25,0.0055
3630.00,0.0052
3629.75,0.0049
3629.50,0.0047
3629.25,0.0044
3629.00,0.0040
3628.75,0.0035
3628.50,0.0033
3628.25,0.0035
3628.00,0.0039
3627.75,0.0045
3627.50,0.0049
3627.25,0.0053
3627.00,0.0055
3626.75,0.0057
3626.50,0.0057
3626.25,0.0057
3626.00,0.0055
3625.75,0.0053
3625.50,0.0051
3625.25,0.0050
3625.00,0.0049
3624.75,0.0048
3624.50,0.0049
3624.25,0.0050
3624.00,0.0051
3623.75,0.0052
3623.50,0.0053
3623.25,0.0053
3623.00,0.0053
3622.75,0.0054
3622.50,0.0054
3622.25,0.0055
3622.00,0.0055
3621.75,0.0055
3621.50,0.0055
3621.25,0.0055
3621.00,0.0055
3620.75,0.0055
3620.50,0.0053
3620.25,0.0051
3620.00,0.0048
3619.75,0.0045
3619.50,0.0044
3619.25,0.0047
3619.00,0.0052
3618.75,0.0056
3618.50,0.0058
3618.25,0.0058
3618.00,0.0057
3617.75,0.0057
3617.50,0.0056
3617.25,0.0054
3617.00,0.0052
3616.75,0.0050
3616.50,0.0049
3616.25,0.0049
3616.00,0.0050
3615.75,0.0054
3615.50,0.0057
3615.25,0.0060
3615.00,0.0061
3614.75,0.0059
3614.50,0.0057
3614.25,0.0055
3614.00,0.0054
3613.75,0.0055
3613.50,0.0055
3613.25,0.0056
3613.00,0.0055
3612.75,0.0054
3612.50,0.0052
3612.25,0.0051
3612.00,0.0049
3611.75,0.0049
3611.50,0.0050
3611.25,0.0050
3611.00,0.0051
3610.75,0.0053
3610.50,0.0054
3610.25,0.0054
3610.00,0.0054
3609.75,0.0054
3609.50,0.0053
3609.25,0.0054
3609.00,0.0055
3608.75,0.0056
3608.50,0.0056
3608.25,0.0055
3608.00,0.0054
3607.75,0.0054
3607.50,0.0055
3607.25,0.0057
3607.00,0.0058
3606.75,0.0056
3606.50,0.0054
3606.25,0.0051
3606.00,0.0049
3605.75,0.0049
3605.50,0.0049
3605.25,0.0049
3605.00,0.0050
3604.75,0.0051
3604.50,0.0053
3604.25,0.0054
3604.00,0.0056
3603.75,0.0057
3603.50,0.0057
3603.25,0.0057
3603.00,0.0057
3602.75,0.0057
3602.50,0.0056
3602.25,0.0055
3602.00,0.0054
3601.75,0.0054
3601.50,0.0054
3601.25,0.0054
3601.00,0.0055
3600.75,0.0054
3600.50,0.0053
3600.25,0.0053
3600.00,0.0053
3599.75,0.0054
3599.50,0.0055
3599.25,0.0056
3599.00,0.0056
3598.75,0.0056
3598.50,0.0054
3598.25,0.0053
3598.00,0.0052
3597.75,0.0051
3597.50,0.0052
3597.25,0.0053
3597.00,0.0054
3596.75,0.0055
3596.50,0.0056
3596.25,0.0055
3596.00,0.0052
3595.75,0.0050
3595.50,0.0048
3595.25,0.0048
3595.00,0.0049
3594.75,0.0050
3594.50,0.0050
3594.25,0.0050
3594.00,0.0051
3593.75,0.0050
3593.50,0.0051
3593.25,0.0051
3593.00,0.0052
3592.75,0.0053
3592.50,0.0054
3592.25,0.0054
3592.00,0.0054
3591.75,0.0053
3591.50,0.0052
3591.25,0.0052
3591.00,0.0053
3590.75,0.0053
3590.50,0.0054
3590.25,0.0054
3590.00,0.0054
3589.75,0.0054
3589.50,0.0054
3589.25,0.0054
3589.00,0.0054
3588.75,0.0054
3588.50,0.0054
3588.25,0.0054
3588.00,0.0054
3587.75,0.0053
3587.50,0.0051
3587.25,0.0050
3587.00,0.0049
3586.75,0.0048
3586.50,0.0047
3586.25,0.0045
3586.00,0.0045
3585.75,0.0047
3585.50,0.0049
3585.25,0.0050
3585.00,0.0051
3584.75,0.0051
3584.50,0.0051
3584.25,0.0051
3584.00,0.0053
3583.75,0.0055
3583.50,0.0056
3583.25,0.0056
3583.00,0.0055
3582.75,0.0054
3582.50,0.0053
3582.25,0.0053
3582.00,0.0053
3581.75,0.0052
3581.50,0.0051
3581.25,0.0050
3581.00,0.0049
3580.75,0.0049
3580.50,0.0049
3580.25,0.0050
3580.00,0.0051
3579.75,0.0053
3579.50,0.0056
3579.25,0.0057
3579.00,0.0057
3578.75,0.0055
3578.50,0.0053
3578.25,0.0052
3578.00,0.0051
3577.75,0.0052
3577.50,0.0053
3577.25,0.0054
3577.00,0.0055
3576.75,0.0055
3576.50,0.0054
3576.25,0.0053
3576.00,0.0052
3575.75,0.0052
3575.50,0.0053
3575.25,0.0053
3575.00,0.0053
3574.75,0.0053
3574.50,0.0053
3574.25,0.0054
3574.00,0.0055
3573.75,0.0057
3573.50,0.0058
3573.25,0.0058
3573.00,0.0057
3572.75,0.0055
3572.50,0.0054
3572.25,0.0052
3572.00,0.0051
3571.75,0.0051
3571.50,0.0051
3571.25,0.0052
3571.00,0.0053
3570.75,0.0053
3570.50,0.0052
3570.25,0.0051
3570.00,0.0050
3569.75,0.0050
3569.50,0.0050
3569.25,0.0051
3569.00,0.0052
3568.75,0.0053
3568.50,0.0053
3568.25,0.0053
3568.00,0.0051
3567.75,0.0049
3567.50,0.0048
3567.25,0.0049
3567.00,0.0051
3566.75,0.0054
3566.50,0.0056
3566.25,0.0056
3566.00,0.0054
3565.75,0.0051
3565.50,0.0049
3565.25,0.0049
3565.00,0.0049
3564.75,0.0049
3564.50,0.0049
3564.25,0.0049
3564.00,0.0050
3563.75,0.0052
3563.50,0.0054
3563.25,0.0056
3563.00,0.0056
3562.75,0.0056
3562.50,0.0055
3562.25,0.0054
3562.00,0.0054
3561.75,0.0055
3561.50,0.0056
3561.25,0.0056
3561.00,0.0056
3560.75,0.0056
3560.50,0.0055
3560.25,0.0055
3560.00,0.0054
3559.75,0.0054
3559.50,0.0053
3559.25,0.0052
3559.00,0.0052
3558.75,0.0053
3558.50,0.0053
3558.25,0.0053
3558.00,0.0053
3557.75,0.0053
3557.50,0.0052
3557.25,0.0052
3557.00,0.0052
3556.75,0.0052
3556.50,0.0052
3556.25,0.0053
3556.00,0.0053
3555.75,0.0054
3555.50,0.0053
3555.25,0.0052
3555.00,0.0051
3554.75,0.0050
3554.50,0.0049
3554.25,0.0049
3554.00,0.0050
3553.75,0.0050
3553.50,0.0051
3553.25,0.0052
3553.00,0.0053
3552.75,0.0054
3552.50,0.0056
3552.25,0.0056
3552.00,0.0056
3551.75,0.0055
3551.50,0.0054
3551.25,0.0052
3551.00,0.0051
3550.75,0.0050
3550.50,0.0050
3550.25,0.0052
3550.00,0.0054
3549.75,0.0055
3549.50,0.0056
3549.25,0.0056
3549.00,0.0055
3548.75,0.0055
3548.50,0.0055
3548.25,0.0055
3548.00,0.0055
3547.75,0.0054
3547.50,0.0051
3547.25,0.0048
3547.00,0.0044
3546.75,0.0042
3546.50,0.0043
3546.25,0.0047
3546.00,0.0052
3545.75,0.0056
3545.50,0.0059
3545.25,0.0060
3545.00,0.0060
3544.75,0.0057
3544.50,0.0055
3544.25,0.0053
3544.00,0.0052
3543.75,0.0052
3543.50,0.0051
3543.25,0.0051
3543.00,0.0050
3542.75,0.0050
3542.50,0.0051
3542.25,0.0051
3542.00,0.0052
3541.75,0.0052
3541.50,0.0052
3541.25,0.0051
3541.00,0.0051
3540.75,0.0050
3540.50,0.0050
3540.25,0.0050
3540.00,0.0049
3539.75,0.0049
3539.50,0.0049
3539.25,0.0049
3539.00,0.0050
3538.75,0.0050
3538.50,0.0051
3538.25,0.0052
3538.00,0.0052
3537.75,0.0053
3537.50,0.0053
3537.25,0.0054
3537.00,0.0054
3536.75,0.0053
3536.50,0.0051
3536.25,0.0049
3536.00,0.0048
3535.75,0.0048
3535.50,0.0049
3535.25,0.0049
3535.00,0.0050
3534.75,0.0050
3534.50,0.0050
3534.25,0.0051
3534.00,0.0051
3533.75,0.0052
3533.50,0.0053
3533.25,0.0054
3533.00,0.0055
3532.75,0.0056
3532.50,0.0057
3532.25,0.0058
3532.00,0.0059
3531.75,0.0059
3531.50,0.0058
3531.25,0.0057
3531.00,0.0055
3530.75,0.0053
3530.50,0.0052
3530.25,0.0051
3530.00,0.0051
3529.75,0.0052
3529.50,0.0053
3529.25,0.0053
3529.00,0.0053
3528.75,0.0052
3528.50,0.0050
3528.25,0.0048
3528.00,0.0046
3527.75,0.0045
3527.50,0.0045
3527.25,0.0046
3527.00,0.0048
3526.75,0.0050
3526.50,0.0052
3526.25,0.0053
3526.00,0.0052
3525.75,0.0052
3525.50,0.0052
3525.25,0.0052
3525.00,0.0054
3524.75,0.0055
3524.50,0.0057
3524.25,0.0057
3524.00,0.0056
3523.75,0.0055
3523.50,0.0054
3523.25,0.0054
3523.00,0.0054
3522.75,0.0055
3522.50,0.0054
3522.25,0.0054
3522.00,0.0053
3521.75,0.0053
3521.50,0.0053
3521.25,0.0053
3521.00,0.0053
3520.75,0.0053
3520.50,0.0052
3520.25,0.0051
3520.00,0.0050
3519.75,0.0049
3519.50,0.0049
3519.25,0.0050
3519.00,0.0051
3518.75,0.0052
3518.50,0.0052
3518.25,0.0051
3518.00,0.0050
3517.75,0.0049
3517.50,0.0049
3517.25,0.0049
3517.00,0.0049
3516.75,0.0049
3516.50,0.0050
3516.25,0.0051
3516.00,0.0053
3515.75,0.0054
3515.50,0.0054
3515.25,0.0054
3515.00,0.0054
3514.75,0.0054
3514.50,0.0054
3514.25,0.0054
3514.00,0.0054
3513.75,0.0054
3513.50,0.0054
3513.25,0.0053
3513.00,0.0053
3512.75,0.0053
3512.50,0.0054
3512.25,0.0054
3512.00,0.0054
3511.75,0.0054
3511.50,0.0055
3511.25,0.0055
3511.00,0.0054
3510.75,0.0053
3510.50,0.0051
3510.25,0.0049
3510.00,0.0049
3509.75,0.0049
3509.50,0.0051
3509.25,0.0053
3509.00,0.0054
3508.75,0.0054
3508.50,0.0053
3508.25,0.0053
3508.00,0.0053
3507.75,0.0055
3507.50,0.0057
3507.25,0.0059
3507.00,0.0060
3506.75,0.0060
3506.50,0.0058
3506.25,0.0056
3506.00,0.0052
3505.75,0.0049
3505.50,0.0047
3505.25,0.0047
3505.00,0.0048
3504.75,0.0050
3504.50,0.0051
3504.25,0.0052
3504.00,0.0052
3503.75,0.0052
3503.50,0.0052
3503.25,0.0052
3503.00,0.0054
3502.75,0.0055
3502.50,0.0056
3502.25,0.0056
3502.00,0.0056
3501.75,0.0055
3501.50,0.0054
3501.25,0.0054
3501.00,0.0053
3500.75,0.0053
3500.50,0.0053
3500.25,0.0054
3500.00,0.0055
3499.75,0.0056
3499.50,0.0057
3499.25,0.0057
3499.00,0.0056
3498.75,0.0056
3498.50,0.0055
3498.25,0.0054
3498.00,0.0053
3497.75,0.0052
3497.50,0.0050
3497.25,0.0049
3497.00,0.0048
3496.75,0.0048
3496.50,0.0049
3496.25,0.0050
3496.00,0.0052
3495.75,0.0053
3495.50,0.0053
3495.25,0.0053
3495.00,0.0052
3494.75,0.0052
3494.50,0.0052
3494.25,0.0052
3494.00,0.0052
3493.75,0.0052
3493.50,0.0053
3493.25,0.0054
3493.00,0.0055
3492.75,0.0055
3492.50,0.0054
3492.25,0.0054
3492.00,0.0054
3491.75,0.0054
3491.50,0.0054
3491.25,0.0054
3491.00,0.0053
3490.75,0.0053
3490.50,0.0052
3490.25,0.0051
3490.00,0.0050
3489.75,0.0049
3489.50,0.0049
3489.25,0.0048
3489.00,0.0049
3488.75,0.0050
3488.50,0.0050
3488.25,0.0051
3488.00,0.0052
3487.75,0.0052
3487.50,0.0052
3487.25,0.0051
3487.00,0.0051
3486.75,0.0051
3486.50,0.0052
3486.25,0.0052
3486.00,0.0052
3485.75,0.0053
3485.50,0.0052
3485.25,0.0052
3485.00,0.0051
3484.75,0.0051
3484.50,0.0052
3484.25,0.0052
3484.00,0.0053
3483.75,0.0052
3483.50,0.0052
3483.25,0.0051
3483.00,0.0052
3482.75,0.0052
3482.50,0.0052
3482.25,0.0053
3482.00,0.0053
3481.75,0.0053
3481.50,0.0052
3481.25,0.0052
3481.00,0.0052
3480.75,0.0052
3480.50,0.0053
3480.25,0.0054
3480.00,0.0055
3479.75,0.0056
3479.50,0.0056
3479.25,0.0055
3479.00,0.0054
3478.75,0.0053
3478.50,0.0053
3478.25,0.0052
3478.00,0.0052
3477.75,0.0052
3477.50,0.0053
3477.25,0.0055
3477.00,0.0055
3476.75,0.0055
3476.50,0.0055
3476.25,0.0055
3476.00,0.0055
3475.75,0.0054
3475.50,0.0053
3475.25,0.0051
3475.00,0.0049
3474.75,0.0047
3474.50,0.0047
3474.25,0.0048
3474.00,0.0049
3473.75,0.0050
3473.50,0.0050
3473.25,0.0051
3473.00,0.0051
3472.75,0.0051
3472.50,0.0052
3472.25,0.0054
3472.00,0.0056
3471.75,0.0057
3471.50,0.0057
3471.25,0.0057
3471.00,0.0055
3470.75,0.0054
3470.50,0.0053
3470.25,0.0052
3470.00,0.0053
3469.75,0.0053
3469.50,0.0054
3469.25,0.0053
3469.00,0.0053
3468.75,0.0052
3468.50,0.0052
3468.25,0.0052
3468.00,0.0054
3467.75,0.0055
3467.50,0.0057
3467.25,0.0057
3467.00,0.0057
3466.75,0.0057
3466.50,0.0056
3466.25,0.0055
3466.00,0.0054
3465.75,0.0054
3465.50,0.0054
3465.25,0.0053
3465.00,0.0052
3464.75,0.0050
3464.50,0.0049
3464.25,0.0048
3464.00,0.0049
3463.75,0.0051
3463.50,0.0052
3463.25,0.0053
3463.00,0.0053
3462.75,0.0051
3462.50,0.0050
3462.25,0.0050
3462.00,0.0050
3461.75,0.0052
3461.50,0.0054
3461.25,0.0056
3461.00,0.0057
3460.75,0.0056
3460.50,0.0055
3460.25,0.0055
3460.00,0.0055
3459.75,0.0055
3459.50,0.0055
3459.25,0.0055
3459.00,0.0055
3458.75,0.0055
3458.50,0.0054
3458.25,0.0053
3458.00,0.0052
3457.75,0.0051
3457.50,0.0052
3457.25,0.0052
3457.00,0.0052
3456.75,0.0052
3456.50,0.0052
3456.25,0.0051
3456.00,0.0051
3455.75,0.0050
3455.50,0.0049
3455.25,0.0049
3455.00,0.0049
3454.75,0.0050
3454.50,0.0051
3454.25,0.0051
3454.00,0.0052
3453.75,0.0053
3453.50,0.0054
3453.25,0.0054
3453.00,0.0053
3452.75,0.0052
3452.50,0.0050
3452.25,0.0048
3452.00,0.0047
3451.75,0.0047
3451.50,0.0049
3451.25,0.0050
3451.00,0.0052
3450.75,0.0053
3450.50,0.0054
3450.25,0.0054
3450.00,0.0055
3449.75,0.0055
3449.50,0.0056
3449.25,0.0057
3449.00,0.0056
3448.75,0.0054
3448.50,0.0052
3448.25,0.0050
3448.00,0.0049
3447.75,0.0049
3447.50,0.0051
3447.25,0.0054
3447.00,0.0058
3446.75,0.0060
3446.50,0.0059
3446.25,0.0057
3446.00,0.0055
3445.75,0.0054
3445.50,0.0054
3445.25,0.0054
3445.00,0.0055
3444.75,0.0056
3444.50,0.0056
3444.25,0.0056
3444.00,0.0056
3443.75,0.0055
3443.50,0.0053
3443.25,0.0053
3443.00,0.0053
3442.75,0.0054
3442.50,0.0054
3442.25,0.0054
3442.00,0.0053
3441.75,0.0053
3441.50,0.0052
3441.25,0.0051
3441.00,0.0050
3440.75,0.0049
3440.50,0.0049
3440.25,0.0050
3440.00,0.0051
3439.75,0.0052
3439.50,0.0053
3439.25,0.0054
3439.00,0.0054
3438.75,0.0054
3438.50,0.0053
3438.25,0.0052
3438.00,0.0051
3437.75,0.0051
3437.50,0.0051
3437.25,0.0050
3437.00,0.0049
3436.75,0.0049
3436.50,0.0049
3436.25,0.0050
3436.00,0.0051
3435.75,0.0052
3435.50,0.0053
3435.25,0.0054
3435.00,0.0054
3434.75,0.0055
3434.50,0.0054
3434.25,0.0054
3434.00,0.0053
3433.75,0.0053
3433.50,0.0052
3433.25,0.0052
3433.00,0.0053
3432.75,0.0053
3432.50,0.0053
3432.25,0.0052
3432.00,0.0051
3431.75,0.0050
3431.50,0.0049
3431.25,0.0050
3431.00,0.0051
3430.75,0.0051
3430.50,0.0052
3430.25,0.0051
3430.00,0.0051
3429.75,0.0050
3429.50,0.0050
3429.25,0.0050
3429.00,0.0051
3428.75,0.0052
3428.50,0.0052
3428.25,0.0052
3428.00,0.0051
3427.75,0.0051
3427.50,0.0051
3427.25,0.0051
3427.00,0.0051
3426.75,0.0051
3426.50,0.0052
3426.25,0.0052
3426.00,0.0054
3425.75,0.0055
3425.50,0.0056
3425.25,0.0056
3425.00,0.0056
3424.75,0.0056
3424.50,0.0055
3424.25,0.0055
3424.00,0.0055
3423.75,0.0054
3423.50,0.0053
3423.25,0.0052
3423.00,0.0050
3422.75,0.0050
3422.50,0.0049
3422.25,0.0049
3422.00,0.0049
3421.75,0.0049
3421.50,0.0050
3421.25,0.0051
3421.00,0.0052
3420.75,0.0053
3420.50,0.0053
3420.25,0.0052
3420.00,0.0050
3419.75,0.0048
3419.50,0.0047
3419.25,0.0047
3419.00,0.0047
3418.75,0.0048
3418.50,0.0049
3418.25,0.0049
3418.00,0.0048
3417.75,0.0048
3417.50,0.0049
3417.25,0.0050
3417.00,0.0052
3416.75,0.0053
3416.50,0.0054
3416.25,0.0054
3416.00,0.0054
3415.75,0.0053
3415.50,0.0052
3415.25,0.0052
3415.00,0.0053
3414.75,0.0054
3414.50,0.0054
3414.25,0.0054
3414.00,0.0052
3413.75,0.0051
3413.50,0.0049
3413.25,0.0049
3413.00,0.0048
3412.75,0.0048
3412.50,0.0048
3412.25,0.0048
3412.00,0.0049
3411.75,0.0050
3411.50,0.0052
3411.25,0.0054
3411.00,0.0056
3410.75,0.0056
3410.50,0.0055
3410.25,0.0054
3410.00,0.0052
3409.75,0.0052
3409.50,0.0053
3409.25,0.0053
3409.00,0.0053
3408.75,0.0052
3408.50,0.0051
3408.25,0.0049
3408.00,0.0048
3407.75,0.0047
3407.50,0.0046
3407.25,0.0046
3407.00,0.0047
3406.75,0.0047
3406.50,0.0048
3406.25,0.0050
3406.00,0.0051
3405.75,0.0051
3405.50,0.0052
3405.25,0.0053
3405.00,0.0053
3404.75,0.0053
3404.50,0.0053
3404.25,0.0054
3404.00,0.0054
3403.75,0.0055
3403.50,0.0055
3403.25,0.0055
3403.00,0.0054
3402.75,0.0052
3402.50,0.0050
3402.25,0.0049
3402.00,0.0049
3401.75,0.0049
3401.50,0.0050
3401.25,0.0051
3401.00,0.0051
3400.75,0.0052
3400.50,0.0052
3400.25,0.0052
3400.00,0.0051
3399.75,0.0050
3399.50,0.0049
3399.25,0.0049
3399.00,0.0049
3398.75,0.0050
3398.50,0.0051
3398.25,0.0052
3398.00,0.0053
3397.75,0.0053
3397.50,0.0053
3397.25,0.0054
3397.00,0.0055
3396.75,0.0056
3396.50,0.0057
3396.25,0.0057
3396.00,0.0057
3395.75,0.0056
3395.50,0.0054
3395.25,0.0052
3395.00,0.0051
3394.75,0.0049
3394.50,0.0049
3394.25,0.0049
3394.00,0.0051
3393.75,0.0052
3393.50,0.0054
3393.25,0.0054
3393.00,0.0054
3392.75,0.0054
3392.50,0.0054
3392.25,0.0054
3392.00,0.0055
3391.75,0.0055
3391.50,0.0055
3391.25,0.0054
3391.00,0.0052
3390.75,0.0051
3390.50,0.0051
3390.25,0.0053
3390.00,0.0054
3389.75,0.0056
3389.50,0.0057
3389.25,0.0058
3389.00,0.0058
3388.75,0.0057
3388.50,0.0056
3388.25,0.0055
3388.00,0.0054
3387.75,0.0054
3387.50,0.0054
3387.25,0.0053
3387.00,0.0053
3386.75,0.0053
3386.50,0.0054
3386.25,0.0054
3386.00,0.0053
3385.75,0.0053
3385.50,0.0053
3385.25,0.0054
3385.00,0.0056
3384.75,0.0056
3384.50,0.0056
3384.25,0.0055
3384.00,0.0052
3383.75,0.0050
3383.50,0.0048
3383.25,0.0047
3383.00,0.0048
3382.75,0.0049
3382.50,0.0050
3382.25,0.0051
3382.00,0.0051
3381.75,0.0051
3381.50,0.0052
3381.25,0.0054
3381.00,0.0056
3380.75,0.0056
3380.50,0.0055
3380.25,0.0053
3380.00,0.0051
3379.75,0.0049
3379.50,0.0048
3379.25,0.0048
3379.00,0.0049
3378.75,0.0051
3378.50,0.0053
3378.25,0.0054
3378.00,0.0055
3377.75,0.0055
3377.50,0.0056
3377.25,0.0056
3377.00,0.0055
3376.75,0.0055
3376.50,0.0055
3376.25,0.0056
3376.00,0.0056
3375.75,0.0055
3375.50,0.0053
3375.25,0.0052
3375.00,0.0051
3374.75,0.0051
3374.50,0.0052
3374.25,0.0052
3374.00,0.0052
3373.75,0.0052
3373.50,0.0051
3373.25,0.0051
3373.00,0.0052
3372.75,0.0052
3372.50,0.0052
3372.25,0.0052
3372.00,0.0052
3371.75,0.0051
3371.50,0.0050
3371.25,0.0049
3371.00,0.0049
3370.75,0.0049
3370.50,0.0049
3370.25,0.0050
3370.00,0.0052
3369.75,0.0054
3369.50,0.0055
3369.25,0.0055
3369.00,0.0054
3368.75,0.0053
3368.50,0.0052
3368.25,0.0051
3368.00,0.0051
3367.75,0.0052
3367.50,0.0053
3367.25,0.0053
3367.00,0.0054
3366.75,0.0054
3366.50,0.0054
3366.25,0.0053
3366.00,0.0053
3365.75,0.0053
3365.50,0.0053
3365.25,0.0052
3365.00,0.0052
3364.75,0.0052
3364.50,0.0052
3364.25,0.0053
3364.00,0.0053
3363.75,0.0053
3363.50,0.0054
3363.25,0.0054
3363.00,0.0054
3362.75,0.0054
3362.50,0.0054
3362.25,0.0054
3362.00,0.0053
3361.75,0.0053
3361.50,0.0052
3361.25,0.0052
3361.00,0.0051
3360.75,0.0051
3360.50,0.0051
3360.25,0.0051
3360.00,0.0052
3359.75,0.0053
3359.50,0.0053
3359.25,0.0053
3359.00,0.0052
3358.75,0.0051
3358.50,0.0051
3358.25,0.0051
3358.00,0.0052
3357.75,0.0052
3357.50,0.0052
3357.25,0.0053
3357.00,0.0052
3356.75,0.0052
3356.50,0.0052
3356.25,0.0053
3356.00,0.0055
3355.75,0.0057
3355.50,0.0058
3355.25,0.0057
3355.00,0.0056
3354.75,0.0055
3354.50,0.0054
3354.25,0.0053
3354.00,0.0052
3353.75,0.0051
3353.50,0.0050
3353.25,0.0050
3353.00,0.0050
3352.75,0.0050
3352.50,0.0051
3352.25,0.0051
3352.00,0.0052
3351.75,0.0052
3351.50,0.0053
3351.25,0.0053
3351.00,0.0053
3350.75,0.0053
3350.50,0.0052
3350.25,0.0051
3350.00,0.0051
3349.75,0.0051
3349.50,0.0052
3349.25,0.0052
3349.00,0.0053
3348.75,0.0054
3348.50,0.0055
3348.25,0.0055
3348.00,0.0054
3347.75,0.0053
3347.50,0.0052
3347.25,0.0050
3347.00,0.0048
3346.75,0.0047
3346.50,0.0047
3346.25,0.0047
3346.00,0.0048
3345.75,0.0050
3345.50,0.0051
3345.25,0.0052
3345.00,0.0053
3344.75,0.0055
3344.50,0.0056
3344.25,0.0057
3344.00,0.0056
3343.75,0.0055
3343.50,0.0054
3343.25,0.0053
3343.00,0.0052
3342.75,0.0052
3342.50,0.0052
3342.25,0.0051
3342.00,0.0051
3341.75,0.0051
3341.50,0.0051
3341.25,0.0052
3341.00,0.0052
3340.75,0.0053
3340.50,0.0053
3340.25,0.0054
3340.00,0.0055
3339.75,0.0055
3339.50,0.0055
3339.25,0.0055
3339.00,0.0053
3338.75,0.0052
3338.50,0.0050
3338.25,0.0049
3338.00,0.0050
3337.75,0.0051
3337.50,0.0052
3337.25,0.0052
3337.00,0.0052
3336.75,0.0052
3336.50,0.0053
3336.25,0.0054
3336.00,0.0055
3335.75,0.0055
3335.50,0.0055
3335.25,0.0054
3335.00,0.0053
3334.75,0.0052
3334.50,0.0052
3334.25,0.0052
3334.00,0.0053
3333.75,0.0052
3333.50,0.0052
3333.25,0.0051
3333.00,0.0051
3332.75,0.0052
3332.50,0.0052
3332.25,0.0053
3332.00,0.0052
3331.75,0.0050
3331.50,0.0049
3331.25,0.0047
3331.00,0.0047
3330.75,0.0047
3330.50,0.0048
3330.25,0.0049
3330.00,0.0050
3329.75,0.0051
3329.50,0.0051
3329.25,0.0052
3329.00,0.0054
3328.75,0.0055
3328.50,0.0055
3328.25,0.0055
3328.00,0.0054
3327.75,0.0053
3327.50,0.0052
3327.25,0.0053
3327.00,0.0053
3326.75,0.0054
3326.50,0.0053
3326.25,0.0052
3326.00,0.0051
3325.75,0.0049
3325.50,0.0049
3325.25,0.0049
3325.00,0.0049
3324.75,0.0051
3324.50,0.0053
3324.25,0.0055
3324.00,0.0056
3323.75,0.0055
3323.50,0.0054
3323.25,0.0053
3323.00,0.0052
3322.75,0.0051
3322.50,0.0050
3322.25,0.0050
3322.00,0.0050
3321.75,0.0051
3321.50,0.0052
3321.25,0.0052
3321.00,0.0052
3320.75,0.0052
3320.50,0.0052
3320.25,0.0051
3320.00,0.0051
3319.75,0.0052
3319.50,0.0052
3319.25,0.0052
3319.00,0.0052
3318.75,0.0052
3318.50,0.0051
3318.25,0.0050
3318.00,0.0050
3317.75,0.0051
3317.50,0.0052
3317.25,0.0052
3317.00,0.0051
3316.75,0.0050
3316.50,0.0049
3316.25,0.0049
3316.00,0.0049
3315.75,0.0049
3315.50,0.0050
3315.25,0.0051
3315.00,0.0052
3314.75,0.0052
3314.50,0.0052
3314.25,0.0051
3314.00,0.0051
3313.75,0.0051
3313.50,0.0052
3313.25,0.0052
3313.00,0.0051
3312.75,0.0050
3312.50,0.0049
3312.25,0.0048
3312.00,0.0048
3311.75,0.0050
3311.50,0.0051
3311.25,0.0053
3311.00,0.0054
3310.75,0.0055
3310.50,0.0055
3310.25,0.0055
3310.00,0.0055
3309.75,0.0055
3309.50,0.0054
3309.25,0.0053
3309.00,0.0050
3308.75,0.0049
3308.50,0.0048
3308.25,0.0048
3308.00,0.0050
3307.75,0.0051
3307.50,0.0052
3307.25,0.0053
3307.00,0.0053
3306.75,0.0053
3306.50,0.0052
3306.25,0.0051
3306.00,0.0050
3305.75,0.0049
3305.50,0.0049
3305.25,0.0050
3305.00,0.0051
3304.75,0.0052
3304.50,0.0053
3304.25,0.0055
3304.00,0.0056
3303.75,0.0057
3303.50,0.0057
3303.25,0.0056
3303.00,0.0056
3302.75,0.0055
3302.50,0.0056
3302.25,0.0055
3302.00,0.0054
3301.75,0.0053
3301.50,0.0051
3301.25,0.0050
3301.00,0.0049
3300.75,0.0048
3300.50,0.0047
3300.25,0.0046
3300.00,0.0045
3299.75,0.0046
3299.50,0.0047
3299.25,0.0050
3299.00,0.0052
3298.75,0.0054
3298.50,0.0055
3298.25,0.0055
3298.00,0.0053
3297.75,0.0052
3297.50,0.0051
3297.25,0.0050
3297.00,0.0050
3296.75,0.0049
3296.50,0.0049
3296.25,0.0049
3296.00,0.0050
3295.75,0.0051
3295.50,0.0051
3295.25,0.0052
3295.00,0.0051
3294.75,0.0050
3294.50,0.0050
3294.25,0.0049
3294.00,0.0051
3293.75,0.0053
3293.50,0.0054
3293.25,0.0055
3293.00,0.0054
3292.75,0.0053
3292.50,0.0051
3292.25,0.0049
3292.00,0.0048
3291.75,0.0049
3291.50,0.0050
3291.25,0.0052
3291.00,0.0054
3290.75,0.0055
3290.50,0.0056
3290.25,0.0056
3290.00,0.0056
3289.75,0.0055
3289.50,0.0054
3289.25,0.0053
3289.00,0.0052
3288.75,0.0052
3288.50,0.0051
3288.25,0.0050
3288.00,0.0049
3287.75,0.0049
3287.50,0.0049
3287.25,0.0050
3287.00,0.0050
3286.75,0.0050
3286.50,0.0050
3286.25,0.0049
3286.00,0.0050
3285.75,0.0051
3285.50,0.0051
3285.25,0.0052
3285.00,0.0052
3284.75,0.0052
3284.50,0.0051
3284.25,0.0051
3284.00,0.0051
3283.75,0.0051
3283.50,0.0050
3283.25,0.0050
3283.00,0.0050
3282.75,0.0051
3282.50,0.0052
3282.25,0.0053
3282.00,0.0055
3281.75,0.0055
3281.50,0.0055
3281.25,0.0054
3281.00,0.0053
3280.75,0.0053
3280.50,0.0054
3280.25,0.0055
3280.00,0.0055
3279.75,0.0054
3279.50,0.0052
3279.25,0.0050
3279.00,0.0048
3278.75,0.0048
3278.50,0.0049
3278.25,0.0050
3278.00,0.0052
3277.75,0.0053
3277.50,0.0054
3277.25,0.0053
3277.00,0.0052
3276.75,0.0051
3276.50,0.0050
3276.25,0.0049
3276.00,0.0049
3275.75,0.0049
3275.50,0.0049
3275.25,0.0049
3275.00,0.0049
3274.75,0.0050
3274.50,0.0050
3274.25,0.0050
3274.00,0.0050
3273.75,0.0050
3273.50,0.0049
3273.25,0.0048
3273.00,0.0048
3272.75,0.0048
3272.50,0.0049
3272.25,0.0050
3272.00,0.0051
3271.75,0.0052
3271.50,0.0052
3271.25,0.0052
3271.00,0.0051
3270.75,0.0049
3270.50,0.0049
3270.25,0.0048
3270.00,0.0049
3269.75,0.0050
3269.50,0.0051
3269.25,0.0053
3269.00,0.0054
3268.75,0.0054
3268.50,0.0054
3268.25,0.0053
3268.00,0.0052
3267.75,0.0051
3267.50,0.0051
3267.25,0.0052
3267.00,0.0053
3266.75,0.0054
3266.50,0.0055
3266.25,0.0055
3266.00,0.0055
3265.75,0.0055
3265.50,0.0054
3265.25,0.0053
3265.00,0.0052
3264.75,0.0051
3264.50,0.0050
3264.25,0.0051
3264.00,0.0051
3263.75,0.0052
3263.50,0.0051
3263.25,0.0050
3263.00,0.0049
3262.75,0.0049
3262.50,0.0048
3262.25,0.0048
3262.00,0.0049
3261.75,0.0049
3261.50,0.0050
3261.25,0.0050
3261.00,0.0051
3260.75,0.0052
3260.50,0.0053
3260.25,0.0054
3260.00,0.0054
3259.75,0.0054
3259.50,0.0053
3259.25,0.0051
3259.00,0.0050
3258.75,0.0050
3258.50,0.0050
3258.25,0.0050
3258.00,0.0051
3257.75,0.0051
3257.50,0.0052
3257.25,0.0053
3257.00,0.0054
3256.75,0.0055
3256.50,0.0057
3256.25,0.0058
3256.00,0.0059
3255.75,0.0059
3255.50,0.0059
3255.25,0.0058
3255.00,0.0056
3254.75,0.0054
3254.50,0.0054
3254.25,0.0054
3254.00,0.0055
3253.75,0.0056
3253.50,0.0056
3253.25,0.0055
3253.00,0.0055
3252.75,0.0054
3252.50,0.0053
3252.25,0.0053
3252.00,0.0052
3251.75,0.0052
3251.50,0.0052
3251.25,0.0052
3251.00,0.0052
3250.75,0.0052
3250.50,0.0051
3250.25,0.0051
3250.00,0.0051
3249.75,0.0052
3249.50,0.0053
3249.25,0.0054
3249.00,0.0055
3248.75,0.0055
3248.50,0.0056
3248.25,0.0056
3248.00,0.0056
3247.75,0.0055
3247.50,0.0053
3247.25,0.0053
3247.00,0.0053
3246.75,0.0054
3246.50,0.0055
3246.25,0.0057
3246.00,0.0057
3245.75,0.0056
3245.50,0.0054
3245.25,0.0052
3245.00,0.0050
3244.75,0.0049
3244.50,0.0049
3244.25,0.0050
3244.00,0.0051
3243.75,0.0052
3243.50,0.0053
3243.25,0.0053
3243.00,0.0052
3242.75,0.0051
3242.50,0.0050
3242.25,0.0049
3242.00,0.0049
3241.75,0.0049
3241.50,0.0050
3241.25,0.0050
3241.00,0.0052
3240.75,0.0052
3240.50,0.0053
3240.25,0.0053
3240.00,0.0053
3239.75,0.0053
3239.50,0.0053
3239.25,0.0052
3239.00,0.0051
3238.75,0.0050
3238.50,0.0050
3238.25,0.0051
3238.00,0.0051
3237.75,0.0052
3237.50,0.0052
3237.25,0.0051
3237.00,0.0049
3236.75,0.0047
3236.50,0.0046
3236.25,0.0046
3236.00,0.0047
3235.75,0.0048
3235.50,0.0049
3235.25,0.0050
3235.00,0.0050
3234.75,0.0050
3234.50,0.0050
3234.25,0.0050
3234.00,0.0050
3233.75,0.0051
3233.50,0.0052
3233.25,0.0053
3233.00,0.0054
3232.75,0.0054
3232.50,0.0054
3232.25,0.0053
3232.00,0.0052
3231.75,0.0051
3231.50,0.0050
3231.25,0.0050
3231.00,0.0049
3230.75,0.0050
3230.50,0.0052
3230.25,0.0053
3230.00,0.0054
3229.75,0.0054
3229.50,0.0053
3229.25,0.0052
3229.00,0.0051
3228.75,0.0051
3228.50,0.0050
3228.25,0.0050
3228.00,0.0050
3227.75,0.0051
3227.50,0.0053
3227.25,0.0055
3227.00,0.0057
3226.75,0.0057
3226.50,0.0056
3226.25,0.0054
3226.00,0.0052
3225.75,0.0049
3225.50,0.0048
3225.25,0.0048
3225.00,0.0049
3224.75,0.0051
3224.50,0.0052
3224.25,0.0052
3224.00,0.0052
3223.75,0.0052
3223.50,0.0052
3223.25,0.0051
3223.00,0.0051
3222.75,0.0051
3222.50,0.0052
3222.25,0.0052
3222.00,0.0052
3221.75,0.0052
3221.50,0.0052
3221.25,0.0053
3221.00,0.0053
3220.75,0.0053
3220.50,0.0053
3220.25,0.0052
3220.00,0.0052
3219.75,0.0051
3219.50,0.0051
3219.25,0.0050
3219.00,0.0050
3218.75,0.0049
3218.50,0.0049
3218.25,0.0049
3218.00,0.0050
3217.75,0.0050
3217.50,0.0050
3217.25,0.0050
3217.00,0.0050
3216.75,0.0050
3216.50,0.0050
3216.25,0.0051
3216.00,0.0052
3215.75,0.0052
3215.50,0.0053
3215.25,0.0053
3215.00,0.0053
3214.75,0.0054
3214.50,0.0054
3214.25,0.0054
3214.00,0.0053
3213.75,0.0052
3213.50,0.0051
3213.25,0.0051
3213.00,0.0050
3212.75,0.0050
3212.50,0.0050
3212.25,0.0050
3212.00,0.0050
3211.75,0.0051
3211.50,0.0052
3211.25,0.0052
3211.00,0.0052
3210.75,0.0052
3210.50,0.0052
3210.25,0.0052
3210.00,0.0052
3209.75,0.0053
3209.50,0.0055
3209.25,0.0056
3209.00,0.0057
3208.75,0.0057
3208.50,0.0056
3208.25,0.0054
3208.00,0.0053
3207.75,0.0052
3207.50,0.0051
3207.25,0.0050
3207.00,0.0050
3206.75,0.0050
3206.50,0.0050
3206.25,0.0050
3206.00,0.0050
3205.75,0.0050
3205.50,0.0050
3205.25,0.0051
3205.00,0.0052
3204.75,0.0053
3204.50,0.0053
3204.25,0.0053
3204.00,0.0052
3203.75,0.0052
3203.50,0.0051
3203.25,0.0051
3203.00,0.0051
3202.75,0.0051
3202.50,0.0051
3202.25,0.0051
3202.00,0.0050
3201.75,0.0050
3201.50,0.0049
3201.25,0.0049
3201.00,0.0050
3200.75,0.0051
3200.50,0.0053
3200.25,0.0055
3200.00,0.0056
3199.75,0.0056
3199.50,0.0054
3199.25,0.0052
3199.00,0.0050
3198.75,0.0048
3198.50,0.0048
3198.25,0.0048
3198.00,0.0049
3197.75,0.0050
3197.50,0.0051
3197.25,0.0052
3197.00,0.0052
3196.75,0.0053
3196.50,0.0053
3196.25,0.0053
3196.00,0.0051
3195.75,0.0050
3195.50,0.0049
3195.25,0.0049
3195.00,0.0049
3194.75,0.0050
3194.50,0.0050
3194.25,0.0050
3194.00,0.0051
3193.75,0.0053
3193.50,0.0055
3193.25,0.0056
3193.00,0.0056
3192.75,0.0055
3192.50,0.0054
3192.25,0.0053
3192.00,0.0052
3191.75,0.0052
3191.50,0.0051
3191.25,0.0051
3191.00,0.0051
3190.75,0.0051
3190.50,0.0051
3190.25,0.0050
3190.00,0.0051
3189.75,0.0052
3189.50,0.0054
3189.25,0.0055
3189.00,0.0056
3188.75,0.0055
3188.50,0.0054
3188.25,0.0052
3188.00,0.0051
3187.75,0.0051
3187.50,0.0051
3187.25,0.0053
3187.00,0.0054
3186.75,0.0054
3186.50,0.0055
3186.25,0.0054
3186.00,0.0054
3185.75,0.0053
3185.50,0.0051
3185.25,0.0050
3185.00,0.0049
3184.75,0.0049
3184.50,0.0049
3184.25,0.0050
3184.00,0.0051
3183.75,0.0052
3183.50,0.0053
3183.25,0.0053
3183.00,0.0051
3182.75,0.0050
3182.50,0.0048
3182.25,0.0047
3182.00,0.0047
3181.75,0.0049
3181.50,0.0051
3181.25,0.0053
3181.00,0.0054
3180.75,0.0054
3180.50,0.0054
3180.25,0.0053
3180.00,0.0053
3179.75,0.0054
3179.50,0.0053
3179.25,0.0052
3179.00,0.0051
3178.75,0.0050
3178.50,0.0050
3178.25,0.0050
3178.00,0.0050
3177.75,0.0050
3177.50,0.0050
3177.25,0.0050
3177.00,0.0050
3176.75,0.0050
3176.50,0.0052
3176.25,0.0053
3176.00,0.0054
3175.75,0.0055
3175.50,0.0056
3175.25,0.0056
3175.00,0.0056
3174.75,0.0056
3174.50,0.0055
3174.25,0.0055
3174.00,0.0054
3173.75,0.0054
3173.50,0.0054
3173.25,0.0053
3173.00,0.0052
3172.75,0.0053
3172.50,0.0054
3172.25,0.0054
3172.00,0.0054
3171.75,0.0054
3171.50,0.0053
3171.25,0.0052
3171.00,0.0052
3170.75,0.0051
3170.50,0.0050
3170.25,0.0049
3170.00,0.0047
3169.75,0.0046
3169.50,0.0046
3169.25,0.0047
3169.00,0.0049
3168.75,0.0050
3168.50,0.0051
3168.25,0.0052
3168.00,0.0052
3167.75,0.0052
3167.50,0.0052
3167.25,0.0052
3167.00,0.0051
3166.75,0.0051
3166.50,0.0051
3166.25,0.0052
3166.00,0.0052
3165.75,0.0053
3165.50,0.0053
3165.25,0.0053
3165.00,0.0052
3164.75,0.0052
3164.50,0.0051
3164.25,0.0050
3164.00,0.0049
3163.75,0.0048
3163.50,0.0047
3163.25,0.0046
3163.00,0.0046
3162.75,0.0047
3162.50,0.0049
3162.25,0.0050
3162.00,0.0051
3161.75,0.0051
3161.50,0.0050
3161.25,0.0049
3161.00,0.0049
3160.75,0.0050
3160.50,0.0051
3160.25,0.0052
3160.00,0.0053
3159.75,0.0052
3159.50,0.0051
3159.25,0.0049
3159.00,0.0049
3158.75,0.0049
3158.50,0.0050
3158.25,0.0051
3158.00,0.0052
3157.75,0.0053
3157.50,0.0053
3157.25,0.0053
3157.00,0.0053
3156.75,0.0053
3156.50,0.0053
3156.25,0.0054
3156.00,0.0054
3155.75,0.0054
3155.50,0.0055
3155.25,0.0056
3155.00,0.0057
3154.75,0.0057
3154.50,0.0057
3154.25,0.0056
3154.00,0.0055
3153.75,0.0053
3153.50,0.0052
3153.25,0.0051
3153.00,0.0051
3152.75,0.0052
3152.50,0.0053
3152.25,0.0053
3152.00,0.0053
3151.75,0.0053
3151.50,0.0052
3151.25,0.0052
3151.00,0.0052
3150.75,0.0052
3150.50,0.0053
3150.25,0.0054
3150.00,0.0055
3149.75,0.0055
3149.50,0.0054
3149.25,0.0053
3149.00,0.0052
3148.75,0.0052
3148.50,0.0052
3148.25,0.0053
3148.00,0.0053
3147.75,0.0054
3147.50,0.0054
3147.25,0.0053
3147.00,0.0052
3146.75,0.0052
3146.50,0.0052
3146.25,0.0052
3146.00,0.0052
3145.75,0.0052
3145.50,0.0052
3145.25,0.0053
3145.00,0.0053
3144.75,0.0053
3144.50,0.0052
3144.25,0.0052
3144.00,0.0051
3143.75,0.0051
3143.50,0.0051
3143.25,0.0053
3143.00,0.0054
3142.75,0.0055
3142.50,0.0055
3142.25,0.0056
3142.00,0.0056
3141.75,0.0056
3141.50,0.0056
3141.25,0.0055
3141.00,0.0054
3140.75,0.0054
3140.50,0.0055
3140.25,0.0056
3140.00,0.0056
3139.75,0.0056
3139.50,0.0055
3139.25,0.0054
3139.00,0.0055
3138.75,0.0055
3138.50,0.0055
3138.25,0.0054
3138.00,0.0054
3137.75,0.0053
3137.50,0.0053
3137.25,0.0052
3137.00,0.0051
3136.75,0.0051
3136.50,0.0050
3136.25,0.0050
3136.00,0.0049
3135.75,0.0049
3135.50,0.0049
3135.25,0.0049
3135.00,0.0050
3134.75,0.0051
3134.50,0.0052
3134.25,0.0053
3134.00,0.0053
3133.75,0.0053
3133.50,0.0053
3133.25,0.0052
3133.00,0.0052
3132.75,0.0052
3132.50,0.0052
3132.25,0.0053
3132.00,0.0053
3131.75,0.0053
3131.50,0.0054
3131.25,0.0054
3131.00,0.0055
3130.75,0.0056
3130.50,0.0056
3130.25,0.0057
3130.00,0.0057
3129.75,0.0056
3129.50,0.0056
3129.25,0.0055
3129.00,0.0054
3128.75,0.0053
3128.50,0.0052
3128.25,0.0052
3128.00,0.0053
3127.75,0.0054
3127.50,0.0055
3127.25,0.0056
3127.00,0.0056
3126.75,0.0055
3126.50,0.0054
3126.25,0.0054
3126.00,0.0053
3125.75,0.0053
3125.50,0.0053
3125.25,0.0053
3125.00,0.0054
3124.75,0.0055
3124.50,0.0055
3124.25,0.0055
3124.00,0.0054
3123.75,0.0053
3123.50,0.0052
3123.25,0.0053
3123.00,0.0054
3122.75,0.0055
3122.50,0.0056
3122.25,0.0056
3122.00,0.0055
3121.75,0.0055
3121.50,0.0055
3121.25,0.0055
3121.00,0.0055
3120.75,0.0054
3120.50,0.0053
3120.25,0.0053
3120.00,0.0053
3119.75,0.0053
3119.50,0.0054
3119.25,0.0054
3119.00,0.0054
3118.75,0.0054
3118.50,0.0053
3118.25,0.0053
3118.00,0.0053
3117.75,0.0052
3117.50,0.0052
3117.25,0.0052
3117.00,0.0053
3116.75,0.0053
3116.50,0.0054
3116.25,0.0054
3116.00,0.0054
3115.75,0.0054
3115.50,0.0054
3115.25,0.0054
3115.00,0.0055
3114.75,0.0055
3114.50,0.0055
3114.25,0.0055
3114.00,0.0054
3113.75,0.0053
3113.50,0.0052
3113.25,0.0051
3113.00,0.0050
3112.75,0.0049
3112.50,0.0049
3112.25,0.0050
3112.00,0.0050
3111.75,0.0050
3111.50,0.0050
3111.25,0.0050
3111.00,0.0051
3110.75,0.0051
3110.50,0.0052
3110.25,0.0054
3110.00,0.0055
3109.75,0.0056
3109.50,0.0056
3109.25,0.0056
3109.00,0.0055
3108.75,0.0053
3108.50,0.0052
3108.25,0.0051
3108.00,0.0050
3107.75,0.0050
3107.50,0.0050
3107.25,0.0051
3107.00,0.0051
3106.75,0.0051
3106.50,0.0052
3106.25,0.0052
3106.00,0.0052
3105.75,0.0052
3105.50,0.0051
3105.25,0.0050
3105.00,0.0050
3104.75,0.0050
3104.50,0.0050
3104.25,0.0051
3104.00,0.0051
3103.75,0.0051
3103.50,0.0050
3103.25,0.0050
3103.00,0.0050
3102.75,0.0050
3102.50,0.0051
3102.25,0.0051
3102.00,0.0051
3101.75,0.0051
3101.50,0.0051
3101.25,0.0052
3101.00,0.0052
3100.75,0.0053
3100.50,0.0054
3100.25,0.0055
3100.00,0.0055
3099.75,0.0054
3099.50,0.0053
3099.25,0.0052
3099.00,0.0051
3098.75,0.0050
3098.50,0.0049
3098.25,0.0048
3098.00,0.0048
3097.75,0.0049
3097.50,0.0051
3097.25,0.0053
3097.00,0.0055
3096.75,0.0056
3096.50,0.0056
3096.25,0.0054
3096.00,0.0052
3095.75,0.0050
3095.50,0.0049
3095.25,0.0047
3095.00,0.0047
3094.75,0.0047
3094.50,0.0047
3094.25,0.0047
3094.00,0.0047
3093.75,0.0047
3093.50,0.0048
3093.25,0.0050
3093.00,0.0052
3092.75,0.0053
3092.50,0.0053
3092.25,0.0052
3092.00,0.0051
3091.75,0.0049
3091.50,0.0048
3091.25,0.0048
3091.00,0.0049
3090.75,0.0048
3090.50,0.0048
3090.25,0.0046
3090.00,0.0045
3089.75,0.0044
3089.50,0.0043
3089.25,0.0043
3089.00,0.0044
3088.75,0.0046
3088.50,0.0048
3088.25,0.0050
3088.00,0.0052
3087.75,0.0053
3087.50,0.0053
3087.25,0.0052
3087.00,0.0050
3086.75,0.0049
3086.50,0.0049
3086.25,0.0050
3086.00,0.0051
3085.75,0.0051
3085.50,0.0050
3085.25,0.0049
3085.00,0.0048
3084.75,0.0047
3084.50,0.0048
3084.25,0.0048
3084.00,0.0047
3083.75,0.0046
3083.50,0.0045
3083.25,0.0044
3083.00,0.0044
3082.75,0.0045
3082.50,0.0046
3082.25,0.0048
3082.00,0.0050
3081.75,0.0050
3081.50,0.0049
3081.25,0.0048
3081.00,0.0048
3080.75,0.0049
3080.50,0.0050
3080.25,0.0051
3080.00,0.0051
3079.75,0.0051
3079.50,0.0050
3079.25,0.0050
3079.00,0.0050
3078.75,0.0049
3078.50,0.0048
3078.25,0.0047
3078.00,0.0047
3077.75,0.0047
3077.50,0.0048
3077.25,0.0050
3077.00,0.0052
3076.75,0.0053
3076.50,0.0052
3076.25,0.0052
3076.00,0.0051
3075.75,0.0051
3075.50,0.0051
3075.25,0.0050
3075.00,0.0050
3074.75,0.0049
3074.50,0.0048
3074.25,0.0047
3074.00,0.0046
3073.75,0.0045
3073.50,0.0045
3073.25,0.0046
3073.00,0.0047
3072.75,0.0048
3072.50,0.0049
3072.25,0.0050
3072.00,0.0051
3071.75,0.0052
3071.50,0.0053
3071.25,0.0053
3071.00,0.0052
3070.75,0.0051
3070.50,0.0051
3070.25,0.0050
3070.00,0.0050
3069.75,0.0049
3069.50,0.0049
3069.25,0.0048
3069.00,0.0048
3068.75,0.0048
3068.50,0.0048
3068.25,0.0048
3068.00,0.0048
3067.75,0.0047
3067.50,0.0047
3067.25,0.0046
3067.00,0.0046
3066.75,0.0046
3066.50,0.0046
3066.25,0.0047
3066.00,0.0048
3065.75,0.0049
3065.50,0.0051
3065.25,0.0051
3065.00,0.0051
3064.75,0.0050
3064.50,0.0049
3064.25,0.0049
3064.00,0.0049
3063.75,0.0050
3063.50,0.0050
3063.25,0.0050
3063.00,0.0050
3062.75,0.0050
3062.50,0.0050
3062.25,0.0051
3062.00,0.0051
3061.75,0.0052
3061.50,0.0053
3061.25,0.0054
3061.00,0.0055
3060.75,0.0055
3060.50,0.0053
3060.25,0.0052
3060.00,0.0051
3059.75,0.0051
3059.50,0.0051
3059.25,0.0052
3059.00,0.0053
3058.75,0.0053
3058.50,0.0052
3058.25,0.0050
3058.00,0.0048
3057.75,0.0048
3057.50,0.0048
3057.25,0.0048
3057.00,0.0048
3056.75,0.0047
3056.50,0.0046
3056.25,0.0045
3056.00,0.0045
3055.75,0.0046
3055.50,0.0049
3055.25,0.0051
3055.00,0.0053
3054.75,0.0053
3054.50,0.0053
3054.25,0.0053
3054.00,0.0052
3053.75,0.0051
3053.50,0.0050
3053.25,0.0050
3053.00,0.0051
3052.75,0.0051
3052.50,0.0051
3052.25,0.0051
3052.00,0.0051
3051.75,0.0052
3051.50,0.0052
3051.25,0.0052
3051.00,0.0051
3050.75,0.0049
3050.50,0.0048
3050.25,0.0047
3050.00,0.0046
3049.75,0.0046
3049.50,0.0046
3049.25,0.0046
3049.00,0.0046
3048.75,0.0046
3048.50,0.0045
3048.25,0.0045
3048.00,0.0046
3047.75,0.0047
3047.50,0.0047
3047.25,0.0047
3047.00,0.0046
3046.75,0.0045
3046.50,0.0043
3046.25,0.0043
3046.00,0.0043
3045.75,0.0043
3045.50,0.0043
3045.25,0.0043
3045.00,0.0044
3044.75,0.0045
3044.50,0.0046
3044.25,0.0046
3044.00,0.0045
3043.75,0.0043
3043.50,0.0042
3043.25,0.0041
3043.00,0.0040
3042.75,0.0040
3042.50,0.0041
3042.25,0.0042
3042.00,0.0044
3041.75,0.0045
3041.50,0.0045
3041.25,0.0045
3041.00,0.0044
3040.75,0.0043
3040.50,0.0042
3040.25,0.0041
3040.00,0.0041
3039.75,0.0042
3039.50,0.0044
3039.25,0.0045
3039.00,0.0045
3038.75,0.0045
3038.50,0.0045
3038.25,0.0045
3038.00,0.0046
3037.75,0.0046
3037.50,0.0045
3037.25,0.0045
3037.00,0.0045
3036.75,0.0045
3036.50,0.0045
3036.25,0.0046
3036.00,0.0046
3035.75,0.0046
3035.50,0.0045
3035.25,0.0044
3035.00,0.0043
3034.75,0.0042
3034.50,0.0042
3034.25,0.0041
3034.00,0.0042
3033.75,0.0043
3033.50,0.0043
3033.25,0.0043
3033.00,0.0042
3032.75,0.0041
3032.50,0.0041
3032.25,0.0041
3032.00,0.0042
3031.75,0.0043
3031.50,0.0045
3031.25,0.0046
3031.00,0.0046
3030.75,0.0046
3030.50,0.0045
3030.25,0.0045
3030.00,0.0044
3029.75,0.0044
3029.50,0.0043
3029.25,0.0041
3029.00,0.0040
3028.75,0.0040
3028.50,0.0042
3028.25,0.0044
3028.00,0.0047
3027.75,0.0048
3027.50,0.0049
3027.25,0.0048
3027.00,0.0048
3026.75,0.0047
3026.50,0.0047
3026.25,0.0046
3026.00,0.0045
3025.75,0.0045
3025.50,0.0045
3025.25,0.0046
3025.00,0.0048
3024.75,0.0049
3024.50,0.0050
3024.25,0.0052
3024.00,0.0053
3023.75,0.0053
3023.50,0.0054
3023.25,0.0054
3023.00,0.0053
3022.75,0.0052
3022.50,0.0051
3022.25,0.0050
3022.00,0.0050
3021.75,0.0049
3021.50,0.0049
3021.25,0.0048
3021.00,0.0048
3020.75,0.0048
3020.50,0.0047
3020.25,0.0048
3020.00,0.0048
3019.75,0.0048
3019.50,0.0048
3019.25,0.0048
3019.00,0.0049
3018.75,0.0049
3018.50,0.0050
3018.25,0.0051
3018.00,0.0052
3017.75,0.0052
3017.50,0.0053
3017.25,0.0053
3017.00,0.0054
3016.75,0.0054
3016.50,0.0054
3016.25,0.0053
3016.00,0.0052
3015.75,0.0052
3015.50,0.0052
3015.25,0.0052
3015.00,0.0052
3014.75,0.0053
3014.50,0.0054
3014.25,0.0055
3014.00,0.0056
3013.75,0.0056
3013.50,0.0056
3013.25,0.0055
3013.00,0.0054
3012.75,0.0053
3012.50,0.0053
3012.25,0.0053
3012.00,0.0054
3011.75,0.0054
3011.50,0.0055
3011.25,0.0055
3011.00,0.0056
3010.75,0.0056
3010.50,0.0056
3010.25,0.0056
3010.00,0.0055
3009.75,0.0054
3009.50,0.0053
3009.25,0.0053
3009.00,0.0053
3008.75,0.0053
3008.50,0.0054
3008.25,0.0055
3008.00,0.0057
3007.75,0.0058
3007.50,0.0060
3007.25,0.0060
3007.00,0.0060
3006.75,0.0059
3006.50,0.0057
3006.25,0.0057
3006.00,0.0057
3005.75,0.0058
3005.50,0.0058
3005.25,0.0058
3005.00,0.0057
3004.75,0.0056
3004.50,0.0055
3004.25,0.0055
3004.00,0.0054
3003.75,0.0055
3003.50,0.0056
3003.25,0.0057
3003.00,0.0058
3002.75,0.0059
3002.50,0.0059
3002.25,0.0060
3002.00,0.0062
3001.75,0.0063
3001.50,0.0064
3001.25,0.0063
3001.00,0.0062
3000.75,0.0060
3000.50,0.0059
3000.25,0.0058
3000.00,0.0057
2999.75,0.0057
2999.50,0.0057
2999.25,0.0058
2999.00,0.0058
2998.75,0.0059
2998.50,0.0059
2998.25,0.0060
2998.00,0.0060
2997.75,0.0060
2997.50,0.0060
2997.25,0.0060
2997.00,0.0061
2996.75,0.0062
2996.50,0.0064
2996.25,0.0065
2996.00,0.0066
2995.75,0.0067
2995.50,0.0068
2995.25,0.0068
2995.00,0.0068
2994.75,0.0067
2994.50,0.0066
2994.25,0.0065
2994.00,0.0064
2993.75,0.0064
2993.50,0.0065
2993.25,0.0065
2993.00,0.0065
2992.75,0.0066
2992.50,0.0066
2992.25,0.0067
2992.00,0.0068
2991.75,0.0068
2991.50,0.0068
2991.25,0.0068
2991.00,0.0067
2990.75,0.0066
2990.50,0.0066
2990.25,0.0067
2990.00,0.0068
2989.75,0.0070
2989.50,0.0072
2989.25,0.0073
2989.00,0.0074
2988.75,0.0074
2988.50,0.0074
2988.25,0.0072
2988.00,0.0071
2987.75,0.0071
2987.50,0.0071
2987.25,0.0072
2987.00,0.0072
2986.75,0.0073
2986.50,0.0073
2986.25,0.0074
2986.00,0.0076
2985.75,0.0079
2985.50,0.0081
2985.25,0.0084
2985.00,0.0086
2984.75,0.0087
2984.50,0.0088
2984.25,0.0087
2984.00,0.0086
2983.75,0.0085
2983.50,0.0085
2983.25,0.0086
2983.00,0.0087
2982.75,0.0089
2982.50,0.0091
2982.25,0.0093
2982.00,0.0094
2981.75,0.0095
2981.50,0.0096
2981.25,0.0097
2981.00,0.0097
2980.75,0.0096
2980.50,0.0096
2980.25,0.0097
2980.00,0.0100
2979.75,0.0103
2979.50,0.0107
2979.25,0.0109
2979.00,0.0111
2978.75,0.0112
2978.50,0.0113
2978.25,0.0114
2978.00,0.0115
2977.75,0.0117
2977.50,0.0120
2977.25,0.0122
2977.00,0.0125
2976.75,0.0128
2976.50,0.0129
2976.25,0.0131
2976.00,0.0132
2975.75,0.0134
2975.50,0.0136
2975.25,0.0138
2975.00,0.0142
2974.75,0.0147
2974.50,0.0151
2974.25,0.0155
2974.00,0.0159
2973.75,0.0162
2973.50,0.0165
2973.25,0.0168
2973.00,0.0170
2972.75,0.0172
2972.50,0.0175
2972.25,0.0179
2972.00,0.0184
2971.75,0.0189
2971.50,0.0195
2971.25,0.0201
2971.00,0.0206
2970.75,0.0212
2970.50,0.0217
2970.25,0.0222
2970.00,0.0227
2969.75,0.0232
2969.50,0.0237
2969.25,0.0242
2969.00,0.0246
2968.75,0.0251
2968.50,0.0255
2968.25,0.0260
2968.00,0.0266
2967.75,0.0272
2967.50,0.0279
2967.25,0.0285
2967.00,0.0292
2966.75,0.0298
2966.50,0.0303
2966.25,0.0308
2966.00,0.0313
2965.75,0.0318
2965.50,0.0324
2965.25,0.0330
2965.00,0.0335
2964.75,0.0340
2964.50,0.0344
2964.25,0.0348
2964.00,0.0352
2963.75,0.0354
2963.50,0.0356
2963.25,0.0358
2963.00,0.0359
2962.75,0.0360
2962.50,0.0360
2962.25,0.0361
2962.00,0.0362
2961.75,0.0363
2961.50,0.0364
2961.25,0.0363
2961.00,0.0361
2960.75,0.0358
2960.50,0.0355
2960.25,0.0350
2960.00,0.0345
2959.75,0.0340
2959.50,0.0335
2959.25,0.0332
2959.00,0.0328
2958.75,0.0324
2958.50,0.0319
2958.25,0.0313
2958.00,0.0306
2957.75,0.0300
2957.50,0.0293
2957.25,0.0286
2957.00,0.0279
2956.75,0.0272
2956.50,0.0266
2956.25,0.0260
2956.00,0.0255
2955.75,0.0249
2955.50,0.0243
2955.25,0.0236
2955.00,0.0230
2954.75,0.0224
2954.50,0.0218
2954.25,0.0213
2954.00,0.0208
2953.75,0.0203
2953.50,0.0199
2953.25,0.0194
2953.00,0.0189
2952.75,0.0183
2952.50,0.0177
2952.25,0.0172
2952.00,0.0168
2951.75,0.0165
2951.50,0.0163
2951.25,0.0161
2951.00,0.0159
2950.75,0.0156
2950.50,0.0153
2950.25,0.0150
2950.00,0.0146
2949.75,0.0142
2949.50,0.0137
2949.25,0.0133
2949.00,0.0129
2948.75,0.0125
2948.50,0.0122
2948.25,0.0120
2948.00,0.0118
2947.75,0.0117
2947.50,0.0117
2947.25,0.0117
2947.00,0.0117
2946.75,0.0116
2946.50,0.0114
2946.25,0.0113
2946.00,0.0111
2945.75,0.0109
2945.50,0.0107
2945.25,0.0104
2945.00,0.0102
2944.75,0.0099
2944.50,0.0097
2944.25,0.0096
2944.00,0.0096
2943.75,0.0096
2943.50,0.0095
2943.25,0.0095
2943.00,0.0094
2942.75,0.0093
2942.50,0.0092
2942.25,0.0090
2942.00,0.0089
2941.75,0.0087
2941.50,0.0086
2941.25,0.0086
2941.00,0.0085
2940.75,0.0083
2940.50,0.0082
2940.25,0.0082
2940.00,0.0081
2939.75,0.0080
2939.50,0.0079
2939.25,0.0078
2939.00,0.0077
2938.75,0.0076
2938.50,0.0076
2938.25,0.0076
2938.00,0.0077
2937.75,0.0077
2937.50,0.0077
2937.25,0.0076
2937.00,0.0075
2936.75,0.0075
2936.50,0.0074
2936.25,0.0074
2936.00,0.0073
2935.75,0.0071
2935.50,0.0070
2935.25,0.0069
2935.00,0.0068
2934.75,0.0068
2934.50,0.0068
2934.25,0.0068
2934.00,0.0068
2933.75,0.0068
2933.50,0.0068
2933.25,0.0068
2933.00,0.0068
2932.75,0.0069
2932.50,0.0069
2932.25,0.0069
2932.00,0.0068
2931.75,0.0068
2931.50,0.0067
2931.25,0.0066
2931.00,0.0065
2930.75,0.0063
2930.50,0.0062
2930.25,0.0061
2930.00,0.0060
2929.75,0.0060
2929.50,0.0061
2929.25,0.0062
2929.00,0.0062
2928.75,0.0063
2928.50,0.0063
2928.25,0.0063
2928.00,0.0064
2927.75,0.0064
2927.50,0.0065
2927.25,0.0065
2927.00,0.0065
2926.75,0.0064
2926.50,0.0064
2926.25,0.0065
2926.00,0.0066
2925.75,0.0067
2925.50,0.0068
2925.25,0.0069
2925.00,0.0068
2924.75,0.0067
2924.50,0.0066
2924.25,0.0064
2924.00,0.0063
2923.75,0.0062
2923.50,0.0062
2923.25,0.0062
2923.00,0.0063
2922.75,0.0063
2922.50,0.0063
2922.25,0.0064
2922.00,0.0064
2921.75,0.0065
2921.50,0.0065
2921.25,0.0066
2921.00,0.0066
2920.75,0.0067
2920.50,0.0066
2920.25,0.0066
2920.00,0.0065
2919.75,0.0065
2919.50,0.0066
2919.25,0.0068
2919.00,0.0070
2918.75,0.0070
2918.50,0.0070
2918.25,0.0070
2918.00,0.0069
2917.75,0.0069
2917.50,0.0069
2917.25,0.0069
2917.00,0.0070
2916.75,0.0070
2916.50,0.0070
2916.25,0.0070
2916.00,0.0070
2915.75,0.0070
2915.50,0.0070
2915.25,0.0069
2915.00,0.0069
2914.75,0.0069
2914.50,0.0069
2914.25,0.0070
2914.00,0.0071
2913.75,0.0073
2913.50,0.0074
2913.25,0.0076
2913.00,0.0077
2912.75,0.0078
2912.50,0.0079
2912.25,0.0079
2912.00,0.0080
2911.75,0.0081
2911.50,0.0082
2911.25,0.0083
2911.00,0.0084
2910.75,0.0084
2910.50,0.0084
2910.25,0.0085
2910.00,0.0085
2909.75,0.0087
2909.50,0.0087
2909.25,0.0087
2909.00,0.0087
2908.75,0.0086
2908.50,0.0085
2908.25,0.0086
2908.00,0.0087
2907.75,0.0089
2907.50,0.0090
2907.25,0.0091
2907.00,0.0092
2906.75,0.0093
2906.50,0.0095
2906.25,0.0096
2906.00,0.0097
2905.75,0.0097
2905.50,0.0096
2905.25,0.0095
2905.00,0.0094
2904.75,0.0094
2904.50,0.0093
2904.25,0.0093
2904.00,0.0093
2903.75,0.0092
2903.50,0.0092
2903.25,0.0092
2903.00,0.0092
2902.75,0.0092
2902.50,0.0091
2902.25,0.0091
2902.00,0.0091
2901.75,0.0090
2901.50,0.0090
2901.25,0.0090
2901.00,0.0090
2900.75,0.0090
2900.50,0.0090
2900.25,0.0090
2900.00,0.0089
2899.75,0.0089
2899.50,0.0088
2899.25,0.0087
2899.00,0.0085
2898.75,0.0083
2898.50,0.0081
2898.25,0.0080
2898.00,0.0081
2897.75,0.0082
2897.50,0.0083
2897.25,0.0083
2897.00,0.0082
2896.75,0.0080
2896.50,0.0078
2896.25,0.0076
2896.00,0.0075
2895.75,0.0075
2895.50,0.0075
2895.25,0.0076
2895.00,0.0076
2894.75,0.0076
2894.50,0.0076
2894.25,0.0076
2894.00,0.0075
2893.75,0.0074
2893.50,0.0073
2893.25,0.0073
2893.00,0.0072
2892.75,0.0071
2892.50,0.0070
2892.25,0.0069
2892.00,0.0068
2891.75,0.0068
2891.50,0.0069
2891.25,0.0069
2891.00,0.0070
2890.75,0.0069
2890.50,0.0068
2890.25,0.0066
2890.00,0.0065
2889.75,0.0064
2889.50,0.0064
2889.25,0.0065
2889.00,0.0065
2888.75,0.0066
2888.50,0.0066
2888.25,0.0067
2888.00,0.0067
2887.75,0.0067
2887.50,0.0066
2887.25,0.0065
2887.00,0.0064
2886.75,0.0063
2886.50,0.0063
2886.25,0.0064
2886.00,0.0065
2885.75,0.0065
2885.50,0.0065
2885.25,0.0064
2885.00,0.0063
2884.75,0.0063
2884.50,0.0063
2884.25,0.0063
2884.00,0.0063
2883.75,0.0062
2883.50,0.0061
2883.25,0.0060
2883.00,0.0060
2882.75,0.0060
2882.50,0.0062
2882.25,0.0063
2882.00,0.0063
2881.75,0.0063
2881.50,0.0063
2881.25,0.0063
2881.00,0.0063
2880.75,0.0064
2880.50,0.0065
2880.25,0.0065
2880.00,0.0065
2879.75,0.0063
2879.50,0.0062
2879.25,0.0060
2879.00,0.0059
2878.75,0.0059
2878.50,0.0060
2878.25,0.0061
2878.00,0.0062
2877.75,0.0063
2877.50,0.0063
2877.25,0.0063
2877.00,0.0062
2876.75,0.0061
2876.50,0.0060
2876.25,0.0060
2876.00,0.0059
2875.75,0.0058
2875.50,0.0058
2875.25,0.0058
2875.00,0.0059
2874.75,0.0059
2874.50,0.0060
2874.25,0.0059
2874.00,0.0058
2873.75,0.0057
2873.50,0.0057
2873.25,0.0058
2873.00,0.0058
2872.75,0.0058
2872.50,0.0058
2872.25,0.0057
2872.00,0.0057
2871.75,0.0057
2871.50,0.0058
2871.25,0.0058
2871.00,0.0058
2870.75,0.0058
2870.50,0.0058
2870.25,0.0057
2870.00,0.0056
2869.75,0.0055
2869.50,0.0055
2869.25,0.0055
2869.00,0.0056
2868.75,0.0058
2868.50,0.0059
2868.25,0.0060
2868.00,0.0060
2867.75,0.0060
2867.50,0.0060
2867.25,0.0060
2867.00,0.0060
2866.75,0.0059
2866.50,0.0059
2866.25,0.0059
2866.00,0.0059
2865.75,0.0059
2865.50,0.0060
2865.25,0.0060
2865.00,0.0059
2864.75,0.0057
2864.50,0.0056
2864.25,0.0055
2864.00,0.0054
2863.75,0.0054
2863.50,0.0055
2863.25,0.0055
2863.00,0.0056
2862.75,0.0056
2862.50,0.0056
2862.25,0.0055
2862.00,0.0055
2861.75,0.0055
2861.50,0.0056
2861.25,0.0057
2861.00,0.0058
2860.75,0.0058
2860.50,0.0058
2860.25,0.0057
2860.00,0.0056
2859.75,0.0055
2859.50,0.0054
2859.25,0.0053
2859.00,0.0052
2858.75,0.0052
2858.50,0.0052
2858.25,0.0053
2858.00,0.0055
2857.75,0.0057
2857.50,0.0059
2857.25,0.0061
2857.00,0.0061
2856.75,0.0060
2856.50,0.0059
2856.25,0.0057
2856.00,0.0055
2855.75,0.0054
2855.50,0.0053
2855.25,0.0052
2855.00,0.0052
2854.75,0.0052
2854.50,0.0053
2854.25,0.0054
2854.00,0.0055
2853.75,0.0055
2853.50,0.0054
2853.25,0.0054
2853.00,0.0053
2852.75,0.0052
2852.50,0.0051
2852.25,0.0050
2852.00,0.0050
2851.75,0.0051
2851.50,0.0052
2851.25,0.0053
2851.00,0.0054
2850.75,0.0054
2850.50,0.0055
2850.25,0.0056
2850.00,0.0057
2849.75,0.0058
2849.50,0.0058
2849.25,0.0057
2849.00,0.0056
2848.75,0.0054
2848.50,0.0053
2848.25,0.0052
2848.00,0.0052
2847.75,0.0052
2847.50,0.0053
2847.25,0.0053
2847.00,0.0053
2846.75,0.0053
2846.50,0.0053
2846.25,0.0053
2846.00,0.0053
2845.75,0.0054
2845.50,0.0055
2845.25,0.0055
2845.00,0.0055
2844.75,0.0055
2844.50,0.0055
2844.25,0.0054
2844.00,0.0054
2843.75,0.0054
2843.50,0.0054
2843.25,0.0054
2843.00,0.0054
2842.75,0.0054
2842.50,0.0054
2842.25,0.0055
2842.00,0.0055
2841.75,0.0054
2841.50,0.0054
2841.25,0.0053
2841.00,0.0052
2840.75,0.0052
2840.50,0.0053
2840.25,0.0054
2840.00,0.0054
2839.75,0.0055
2839.50,0.0055
2839.25,0.0055
2839.00,0.0055
2838.75,0.0055
2838.50,0.0056
2838.25,0.0056
2838.00,0.0057
2837.75,0.0058
2837.50,0.0059
2837.25,0.0059
2837.00,0.0059
2836.75,0.0059
2836.50,0.0058
2836.25,0.0057
2836.00,0.0056
2835.75,0.0055
2835.50,0.0055
2835.25,0.0055
2835.00,0.0056
2834.75,0.0057
2834.50,0.0057
2834.25,0.0057
2834.00,0.0057
2833.75,0.0057
2833.50,0.0056
2833.25,0.0055
2833.00,0.0054
2832.75,0.0054
2832.50,0.0054
2832.25,0.0055
2832.00,0.0056
2831.75,0.0057
2831.50,0.0058
2831.25,0.0058
2831.00,0.0057
2830.75,0.0057
2830.50,0.0056
2830.25,0.0055
2830.00,0.0054
2829.75,0.0054
2829.50,0.0055
2829.25,0.0056
2829.00,0.0057
2828.75,0.0057
2828.50,0.0056
2828.25,0.0054
2828.00,0.0053
2827.75,0.0053
2827.50,0.0054
2827.25,0.0055
2827.00,0.0056
2826.75,0.0056
2826.50,0.0056
2826.25,0.0056
2826.00,0.0055
2825.75,0.0055
2825.50,0.0055
2825.25,0.0056
2825.00,0.0056
2824.75,0.0057
2824.50,0.0058
2824.25,0.0057
2824.00,0.0056
2823.75,0.0054
2823.50,0.0053
2823.25,0.0053
2823.00,0.0053
2822.75,0.0054
2822.50,0.0055
2822.25,0.0055
2822.00,0.0056
2821.75,0.0056
2821.50,0.0057
2821.25,0.0056
2821.00,0.0056
2820.75,0.0055
2820.50,0.0055
2820.25,0.0055
2820.00,0.0055
2819.75,0.0055
2819.50,0.0056
2819.25,0.0056
2819.00,0.0057
2818.75,0.0057
2818.50,0.0056
2818.25,0.0056
2818.00,0.0055
2817.75,0.0055
2817.50,0.0055
2817.25,0.0055
2817.00,0.0056
2816.75,0.0056
2816.50,0.0056
2816.25,0.0057
2816.00,0.0057
2815.75,0.0057
2815.50,0.0057
2815.25,0.0057
2815.00,0.0056
2814.75,0.0056
2814.50,0.0056
2814.25,0.0057
2814.00,0.0058
2813.75,0.0059
2813.50,0.0059
2813.25,0.0059
2813.00,0.0058
2812.75,0.0057
2812.50,0.0057
2812.25,0.0056
2812.00,0.0055
2811.75,0.0055
2811.50,0.0055
2811.25,0.0055
2811.00,0.0055
2810.75,0.0056
2810.50,0.0056
2810.25,0.0056
2810.00,0.0057
2809.75,0.0057
2809.50,0.0058
2809.25,0.0058
2809.00,0.0058
2808.75,0.0057
2808.50,0.0056
2808.25,0.0055
2808.00,0.0055
2807.75,0.0056
2807.50,0.0057
2807.25,0.0059
2807.00,0.0059
2806.75,0.0059
2806.50,0.0058
2806.25,0.0057
2806.00,0.0057
2805.75,0.0058
2805.50,0.0058
2805.25,0.0057
2805.00,0.0057
2804.75,0.0057
2804.50,0.0057
2804.25,0.0058
2804.00,0.0057
2803.75,0.0056
2803.50,0.0055
2803.25,0.0054
2803.00,0.0053
2802.75,0.0053
2802.50,0.0054
2802.25,0.0056
2802.00,0.0057
2801.75,0.0059
2801.50,0.0059
2801.25,0.0059
2801.00,0.0057
2800.75,0.0056
2800.50,0.0055
2800.25,0.0054
2800.00,0.0054
2799.75,0.0055
2799.50,0.0055
2799.25,0.0056
2799.00,0.0057
2798.75,0.0057
2798.50,0.0056
2798.25,0.0055
2798.00,0.0055
2797.75,0.0055
2797.50,0.0056
2797.25,0.0057
2797.00,0.0057
2796.75,0.0056
2796.50,0.0056
2796.25,0.0057
2796.00,0.0058
2795.75,0.0057
2795.50,0.0057
2795.25,0.0055
2795.00,0.0055
2794.75,0.0054
2794.50,0.0055
2794.25,0.0055
2794.00,0.0054
2793.75,0.0054
2793.50,0.0053
2793.25,0.0053
2793.00,0.0054
2792.75,0.0055
2792.50,0.0056
2792.25,0.0058
2792.00,0.0059
2791.75,0.0059
2791.50,0.0059
2791.25,0.0059
2791.00,0.0059
2790.75,0.0058
2790.50,0.0058
2790.25,0.0057
2790.00,0.0056
2789.75,0.0056
2789.50,0.0055
2789.25,0.0055
2789.00,0.0055
2788.75,0.0056
2788.50,0.0056
2788.25,0.0056
2788.00,0.0056
2787.75,0.0055
2787.50,0.0054
2787.25,0.0053
2787.00,0.0053
2786.75,0.0053
2786.50,0.0053
2786.25,0.0053
2786.00,0.0054
2785.75,0.0053
2785.50,0.0053
2785.25,0.0053
2785.00,0.0053
2784.75,0.0054
2784.50,0.0055
2784.25,0.0056
2784.00,0.0056
2783.75,0.0056
2783.50,0.0056
2783.25,0.0055
2783.00,0.0055
2782.75,0.0055
2782.50,0.0055
2782.25,0.0055
2782.00,0.0055
2781.75,0.0054
2781.50,0.0053
2781.25,0.0052
2781.00,0.0052
2780.75,0.0053
2780.50,0.0055
2780.25,0.0056
2780.00,0.0056
2779.75,0.0056
2779.50,0.0055
2779.25,0.0054
2779.00,0.0053
2778.75,0.0052
2778.50,0.0052
2778.25,0.0053
2778.00,0.0053
2777.75,0.0053
2777.50,0.0052
2777.25,0.0051
2777.00,0.0050
2776.75,0.0051
2776.50,0.0052
2776.25,0.0052
2776.00,0.0052
2775.75,0.0051
2775.50,0.0050
2775.25,0.0049
2775.00,0.0049
2774.75,0.0050
2774.50,0.0051
2774.25,0.0051
2774.00,0.0051
2773.75,0.0050
2773.50,0.0050
2773.25,0.0050
2773.00,0.0051
2772.75,0.0053
2772.50,0.0054
2772.25,0.0055
2772.00,0.0055
2771.75,0.0054
2771.50,0.0053
2771.25,0.0052
2771.00,0.0050
2770.75,0.0049
2770.50,0.0049
2770.25,0.0050
2770.00,0.0051
2769.75,0.0053
2769.50,0.0054
2769.25,0.0054
2769.00,0.0053
2768.75,0.0052
2768.50,0.0051
2768.25,0.0051
2768.00,0.0051
2767.75,0.0051
2767.50,0.0051
2767.25,0.0050
2767.00,0.0050
2766.75,0.0050
2766.50,0.0050
2766.25,0.0050
2766.00,0.0050
2765.75,0.0050
2765.50,0.0051
2765.25,0.0053
2765.00,0.0053
2764.75,0.0054
2764.50,0.0054
2764.25,0.0055
2764.00,0.0055
2763.75,0.0054
2763.50,0.0054
2763.25,0.0053
2763.00,0.0052
2762.75,0.0051
2762.50,0.0050
2762.25,0.0048
2762.00,0.0048
2761.75,0.0047
2761.50,0.0048
2761.25,0.0048
2761.00,0.0049
2760.75,0.0050
2760.50,0.0050
2760.25,0.0051
2760.00,0.0051
2759.75,0.0050
2759.50,0.0049
2759.25,0.0048
2759.00,0.0047
2758.75,0.0047
2758.50,0.0047
2758.25,0.0047
2758.00,0.0047
2757.75,0.0047
2757.50,0.0048
2757.25,0.0048
2757.00,0.0049
2756.75,0.0049
2756.50,0.0049
2756.25,0.0050
2756.00,0.0050
2755.75,0.0051
2755.50,0.0051
2755.25,0.0052
2755.00,0.0053
2754.75,0.0054
2754.50,0.0054
2754.25,0.0053
2754.00,0.0053
2753.75,0.0052
2753.50,0.0052
2753.25,0.0051
2753.00,0.0051
2752.75,0.0051
2752.50,0.0051
2752.25,0.0051
2752.00,0.0051
2751.75,0.0050
2751.50,0.0049
2751.25,0.0048
2751.00,0.0047
2750.75,0.0047
2750.50,0.0047
2750.25,0.0048
2750.00,0.0048
2749.75,0.0048
2749.50,0.0047
2749.25,0.0046
2749.00,0.0045
2748.75,0.0046
2748.50,0.0047
2748.25,0.0049
2748.00,0.0050
2747.75,0.0050
2747.50,0.0050
2747.25,0.0050
2747.00,0.0050
2746.75,0.0051
2746.50,0.0051
2746.25,0.0051
2746.00,0.0050
2745.75,0.0049
2745.50,0.0048
2745.25,0.0048
2745.00,0.0049
2744.75,0.0049
2744.50,0.0049
2744.25,0.0048
2744.00,0.0048
2743.75,0.0047
2743.50,0.0047
2743.25,0.0048
2743.00,0.0049
2742.75,0.0050
2742.50,0.0051
2742.25,0.0051
2742.00,0.0052
2741.75,0.0052
2741.50,0.0052
2741.25,0.0051
2741.00,0.0050
2740.75,0.0049
2740.50,0.0048
2740.25,0.0048
2740.00,0.0048
2739.75,0.0049
2739.50,0.0049
2739.25,0.0049
2739.00,0.0049
2738.75,0.0049
2738.50,0.0048
2738.25,0.0048
2738.00,0.0048
2737.75,0.0049
2737.50,0.0049
2737.25,0.0049
2737.00,0.0049
2736.75,0.0049
2736.50,0.0048
2736.25,0.0048
2736.00,0.0049
2735.75,0.0050
2735.50,0.0051
2735.25,0.0051
2735.00,0.0051
2734.75,0.0050
2734.50,0.0050
2734.25,0.0049
2734.00,0.0049
2733.75,0.0049
2733.50,0.0049
2733.25,0.0049
2733.00,0.0048
2732.75,0.0048
2732.50,0.0049
2732.25,0.0049
2732.00,0.0049
2731.75,0.0048
2731.50,0.0048
2731.25,0.0048
2731.00,0.0048
2730.75,0.0048
2730.50,0.0049
2730.25,0.0049
2730.00,0.0050
2729.75,0.0050
2729.50,0.0050
2729.25,0.0049
2729.00,0.0049
2728.75,0.0049
2728.50,0.0049
2728.25,0.0049
2728.00,0.0049
2727.75,0.0048
2727.50,0.0047
2727.25,0.0046
2727.00,0.0046
2726.75,0.0047
2726.50,0.0049
2726.25,0.0050
2726.00,0.0051
2725.75,0.0051
2725.50,0.0051
2725.25,0.0050
2725.00,0.0050
2724.75,0.0050
2724.50,0.0049
2724.25,0.0048
2724.00,0.0047
2723.75,0.0047
2723.50,0.0047
2723.25,0.0048
2723.00,0.0049
2722.75,0.0050
2722.50,0.0050
2722.25,0.0049
2722.00,0.0048
2721.75,0.0048
2721.50,0.0048
2721.25,0.0048
2721.00,0.0048
2720.75,0.0049
2720.50,0.0049
2720.25,0.0050
2720.00,0.0051
2719.75,0.0051
2719.50,0.0051
2719.25,0.0050
2719.00,0.0050
2718.75,0.0050
2718.50,0.0050
2718.25,0.0051
2718.00,0.0052
2717.75,0.0051
2717.50,0.0051
2717.25,0.0050
2717.00,0.0049
2716.75,0.0049
2716.50,0.0048
2716.25,0.0048
2716.00,0.0048
2715.75,0.0048
2715.50,0.0049
2715.25,0.0049
2715.00,0.0050
2714.75,0.0051
2714.50,0.0052
2714.25,0.0052
2714.00,0.0051
2713.75,0.0050
2713.50,0.0049
2713.25,0.0048
2713.00,0.0048
2712.75,0.0049
2712.50,0.0049
2712.25,0.0049
2712.00,0.0049
2711.75,0.0049
2711.50,0.0049
2711.25,0.0049
2711.00,0.0049
2710.75,0.0049
2710.50,0.0049
2710.25,0.0048
2710.00,0.0048
2709.75,0.0048
2709.50,0.0048
2709.25,0.0049
2709.00,0.0050
2708.75,0.0051
2708.50,0.0052
2708.25,0.0052
2708.00,0.0052
2707.75,0.0050
2707.50,0.0049
2707.25,0.0048
2707.00,0.0047
2706.75,0.0048
2706.50,0.0048
2706.25,0.0049
2706.00,0.0050
2705.75,0.0050
2705.50,0.0050
2705.25,0.0049
2705.00,0.0048
2704.75,0.0048
2704.50,0.0049
2704.25,0.0049
2704.00,0.0050
2703.75,0.0050
2703.50,0.0050
2703.25,0.0050
2703.00,0.0051
2702.75,0.0052
2702.50,0.0052
2702.25,0.0052
2702.00,0.0051
2701.75,0.0050
2701.50,0.0050
2701.25,0.0050
2701.00,0.0050
2700.75,0.0050
2700.50,0.0050
2700.25,0.0049
2700.00,0.0048
2699.75,0.0048
2699.50,0.0048
2699.25,0.0048
2699.00,0.0047
2698.75,0.0048
2698.50,0.0049
2698.25,0.0050
2698.00,0.0050
2697.75,0.0050
2697.50,0.0049
2697.25,0.0049
2697.00,0.0049
2696.75,0.0049
2696.50,0.0050
2696.25,0.0051
2696.00,0.0051
2695.75,0.0051
2695.50,0.0050
2695.25,0.0050
2695.00,0.0050
2694.75,0.0050
2694.50,0.0050
2694.25,0.0050
2694.00,0.0050
2693.75,0.0050
2693.50,0.0049
2693.25,0.0049
2693.00,0.0049
2692.75,0.0050
2692.50,0.0050
2692.25,0.0051
2692.00,0.0052
2691.75,0.0052
2691.50,0.0051
2691.25,0.0050
2691.00,0.0049
2690.75,0.0048
2690.50,0.0048
2690.25,0.0048
2690.00,0.0048
2689.75,0.0049
2689.50,0.0050
2689.25,0.0052
2689.00,0.0053
2688.75,0.0053
2688.50,0.0052
2688.25,0.0052
2688.00,0.0051
2687.75,0.0051
2687.50,0.0051
2687.25,0.0052
2687.00,0.0051
2686.75,0.0051
2686.50,0.0051
2686.25,0.0052
2686.00,0.0052
2685.75,0.0052
2685.50,0.0051
2685.25,0.0049
2685.00,0.0048
2684.75,0.0046
2684.50,0.0046
2684.25,0.0046
2684.00,0.0047
2683.75,0.0048
2683.50,0.0048
2683.25,0.0049
2683.00,0.0049
2682.75,0.0049
2682.50,0.0049
2682.25,0.0049
2682.00,0.0049
2681.75,0.0049
2681.50,0.0049
2681.25,0.0048
2681.00,0.0048
2680.75,0.0049
2680.50,0.0049
2680.25,0.0049
2680.00,0.0049
2679.75,0.0049
2679.50,0.0049
2679.25,0.0049
2679.00,0.0048
2678.75,0.0046
2678.50,0.0045
2678.25,0.0045
2678.00,0.0046
2677.75,0.0047
2677.50,0.0049
2677.25,0.0050
2677.00,0.0050
2676.75,0.0050
2676.50,0.0050
2676.25,0.0050
2676.00,0.0050
2675.75,0.0050
2675.50,0.0050
2675.25,0.0050
2675.00,0.0050
2674.75,0.0051
2674.50,0.0051
2674.25,0.0050
2674.00,0.0050
2673.75,0.0049
2673.50,0.0049
2673.25,0.0049
2673.00,0.0050
2672.75,0.0051
2672.50,0.0052
2672.25,0.0052
2672.00,0.0051
2671.75,0.0050
2671.50,0.0049
2671.25,0.0049
2671.00,0.0049
2670.75,0.0049
2670.50,0.0049
2670.25,0.0049
2670.00,0.0050
2669.75,0.0050
2669.50,0.0050
2669.25,0.0049
2669.00,0.0049
2668.75,0.0048
2668.50,0.0048
2668.25,0.0048
2668.00,0.0048
2667.75,0.0048
2667.50,0.0049
2667.25,0.0049
2667.00,0.0049
2666.75,0.0049
2666.50,0.0050
2666.25,0.0050
2666.00,0.0050
2665.75,0.0050
2665.50,0.0050
2665.25,0.0050
2665.00,0.0049
2664.75,0.0049
2664.50,0.0048
2664.25,0.0049
2664.00,0.0049
2663.75,0.0050
2663.50,0.0050
2663.25,0.0049
2663.00,0.0049
2662.75,0.0049
2662.50,0.0050
2662.25,0.0051
2662.00,0.0052
2661.75,0.0052
2661.50,0.0052
2661.25,0.0052
2661.00,0.0051
2660.75,0.0051
2660.50,0.0051
2660.25,0.0051
2660.00,0.0051
2659.75,0.0051
2659.50,0.0050
2659.25,0.0048
2659.00,0.0048
2658.75,0.0047
2658.50,0.0048
2658.25,0.0050
2658.00,0.0051
2657.75,0.0051
2657.50,0.0051
2657.25,0.0052
2657.00,0.0052
2656.75,0.0052
2656.50,0.0052
2656.25,0.0051
2656.00,0.0051
2655.75,0.0050
2655.50,0.0050
2655.25,0.0050
2655.00,0.0049
2654.75,0.0049
2654.50,0.0048
2654.25,0.0048
2654.00,0.0049
2653.75,0.0050
2653.50,0.0051
2653.25,0.0051
2653.00,0.0051
2652.75,0.0051
2652.50,0.0051
2652.25,0.0051
2652.00,0.0050
2651.75,0.0049
2651.50,0.0049
2651.25,0.0050
2651.00,0.0050
2650.75,0.0051
2650.50,0.0051
2650.25,0.0051
2650.00,0.0051
2649.75,0.0051
2649.50,0.0051
2649.25,0.0051
2649.00,0.0050
2648.75,0.0050
2648.50,0.0049
2648.25,0.0049
2648.00,0.0049
2647.75,0.0049
2647.50,0.0049
2647.25,0.0049
2647.00,0.0049
2646.75,0.0049
2646.50,0.0049
2646.25,0.0049
2646.00,0.0049
2645.75,0.0048
2645.50,0.0047
2645.25,0.0047
2645.00,0.0046
2644.75,0.0046
2644.50,0.0047
2644.25,0.0047
2644.00,0.0047
2643.75,0.0046
2643.50,0.0046
2643.25,0.0046
2643.00,0.0047
2642.75,0.0048
2642.50,0.0049
2642.25,0.0049
2642.00,0.0049
2641.75,0.0049
2641.50,0.0049
2641.25,0.0049
2641.00,0.0050
2640.75,0.0050
2640.50,0.0050
2640.25,0.0049
2640.00,0.0049
2639.75,0.0049
2639.50,0.0049
2639.25,0.0049
2639.00,0.0048
2638.75,0.0047
2638.50,0.0046
2638.25,0.0047
2638.00,0.0047
2637.75,0.0048
2637.50,0.0049
2637.25,0.0049
2637.00,0.0049
2636.75,0.0048
2636.50,0.0046
2636.25,0.0045
2636.00,0.0044
2635.75,0.0045
2635.50,0.0046
2635.25,0.0048
2635.00,0.0049
2634.75,0.0049
2634.50,0.0048
2634.25,0.0048
2634.00,0.0047
2633.75,0.0047
2633.50,0.0047
2633.25,0.0048
2633.00,0.0048
2632.75,0.0049
2632.50,0.0049
2632.25,0.0049
2632.00,0.0049
2631.75,0.0049
2631.50,0.0048
2631.25,0.0047
2631.00,0.0046
2630.75,0.0046
2630.50,0.0046
2630.25,0.0045
2630.00,0.0045
2629.75,0.0045
2629.50,0.0044
2629.25,0.0043
2629.00,0.0043
2628.75,0.0044
2628.50,0.0045
2628.25,0.0046
2628.00,0.0047
2627.75,0.0047
2627.50,0.0047
2627.25,0.0048
2627.00,0.0049
2626.75,0.0049
2626.50,0.0050
2626.25,0.0050
2626.00,0.0050
2625.75,0.0049
2625.50,0.0047
2625.25,0.0046
2625.00,0.0045
2624.75,0.0045
2624.50,0.0044
2624.25,0.0045
2624.00,0.0045
2623.75,0.0046
2623.50,0.0046
2623.25,0.0046
2623.00,0.0046
2622.75,0.0046
2622.50,0.0046
2622.25,0.0047
2622.00,0.0047
2621.75,0.0047
2621.50,0.0046
2621.25,0.0046
2621.00,0.0047
2620.75,0.0047
2620.50,0.0048
2620.25,0.0048
2620.00,0.0048
2619.75,0.0048
2619.50,0.0048
2619.25,0.0048
2619.00,0.0048
2618.75,0.0049
2618.50,0.0049
2618.25,0.0049
2618.00,0.0049
2617.75,0.0049
2617.50,0.0048
2617.25,0.0047
2617.00,0.0046
2616.75,0.0044
2616.50,0.0043
2616.25,0.0043
2616.00,0.0043
2615.75,0.0044
2615.50,0.0045
2615.25,0.0047
2615.00,0.0048
2614.75,0.0049
2614.50,0.0049
2614.25,0.0049
2614.00,0.0048
2613.75,0.0048
2613.50,0.0046
2613.25,0.0044
2613.00,0.0042
2612.75,0.0040
2612.50,0.0040
2612.25,0.0042
2612.00,0.0044
2611.75,0.0046
2611.50,0.0047
2611.25,0.0047
2611.00,0.0046
2610.75,0.0045
2610.50,0.0045
2610.25,0.0045
2610.00,0.0046
2609.75,0.0047
2609.50,0.0048
2609.25,0.0049
2609.00,0.0049
2608.75,0.0049
2608.50,0.0048
2608.25,0.0047
2608.00,0.0045
2607.75,0.0045
2607.50,0.0045
2607.25,0.0046
2607.00,0.0046
2606.75,0.0047
2606.50,0.0047
2606.25,0.0047
2606.00,0.0048
2605.75,0.0050
2605.50,0.0052
2605.25,0.0054
2605.00,0.0054
2604.75,0.0053
2604.50,0.0050
2604.25,0.0047
2604.00,0.0045
2603.75,0.0043
2603.50,0.0044
2603.25,0.0045
2603.00,0.0047
2602.75,0.0049
2602.50,0.0050
2602.25,0.0049
2602.00,0.0048
2601.75,0.0047
2601.50,0.0045
2601.25,0.0044
2601.00,0.0042
2600.75,0.0042
2600.50,0.0042
2600.25,0.0043
2600.00,0.0045
2599.75,0.0046
2599.50,0.0046
2599.25,0.0046
2599.00,0.0045
2598.75,0.0044
2598.50,0.0044
2598.25,0.0044
2598.00,0.0046
2597.75,0.0047
2597.50,0.0048
2597.25,0.0049
2597.00,0.0049
2596.75,0.0049
2596.50,0.0049
2596.25,0.0048
2596.00,0.0047
2595.75,0.0045
2595.50,0.0043
2595.25,0.0041
2595.00,0.0040
2594.75,0.0040
2594.50,0.0042
2594.25,0.0044
2594.00,0.0046
2593.75,0.0047
2593.50,0.0047
2593.25,0.0046
2593.00,0.0046
2592.75,0.0047
2592.50,0.0048
2592.25,0.0050
2592.00,0.0050
2591.75,0.0050
2591.50,0.0048
2591.25,0.0046
2591.00,0.0044
2590.75,0.0045
2590.50,0.0046
2590.25,0.0048
2590.00,0.0049
2589.75,0.0050
2589.50,0.0050
2589.25,0.0049
2589.00,0.0049
2588.75,0.0048
2588.50,0.0047
2588.25,0.0046
2588.00,0.0047
2587.75,0.0048
2587.50,0.0049
2587.25,0.0049
2587.00,0.0047
2586.75,0.0045
2586.50,0.0044
2586.25,0.0044
2586.00,0.0045
2585.75,0.0047
2585.50,0.0048
2585.25,0.0048
2585.00,0.0047
2584.75,0.0047
2584.50,0.0047
2584.25,0.0047
2584.00,0.0047
2583.75,0.0047
2583.50,0.0046
2583.25,0.0047
2583.00,0.0049
2582.75,0.0050
2582.50,0.0050
2582.25,0.0048
2582.00,0.0045
2581.75,0.0042
2581.50,0.0040
2581.25,0.0040
2581.00,0.0042
2580.75,0.0045
2580.50,0.0047
2580.25,0.0049
2580.00,0.0050
2579.75,0.0049
2579.50,0.0049
2579.25,0.0048
2579.00,0.0049
2578.75,0.0049
2578.50,0.0050
2578.25,0.0050
2578.00,0.0050
2577.75,0.0047
2577.50,0.0045
2577.25,0.0043
2577.00,0.0042
2576.75,0.0042
2576.50,0.0043
2576.25,0.0043
2576.00,0.0044
2575.75,0.0044
2575.50,0.0044
2575.25,0.0045
2575.00,0.0046
2574.75,0.0047
2574.50,0.0047
2574.25,0.0048
2574.00,0.0049
2573.75,0.0050
2573.50,0.0051
2573.25,0.0050
2573.00,0.0048
2572.75,0.0045
2572.50,0.0043
2572.25,0.0042
2572.00,0.0043
2571.75,0.0045
2571.50,0.0045
2571.25,0.0044
2571.00,0.0042
2570.75,0.0040
2570.50,0.0040
2570.25,0.0040
2570.00,0.0042
2569.75,0.0044
2569.50,0.0045
2569.25,0.0046
2569.00,0.0047
2568.75,0.0047
2568.50,0.0047
2568.25,0.0045
2568.00,0.0043
2567.75,0.0040
2567.50,0.0039
2567.25,0.0038
2567.00,0.0039
2566.75,0.0040
2566.50,0.0043
2566.25,0.0045
2566.00,0.0047
2565.75,0.0047
2565.50,0.0047
2565.25,0.0048
2565.00,0.0048
2564.75,0.0049
2564.50,0.0048
2564.25,0.0048
2564.00,0.0046
2563.75,0.0046
2563.50,0.0046
2563.25,0.0046
2563.00,0.0046
2562.75,0.0044
2562.50,0.0042
2562.25,0.0041
2562.00,0.0040
2561.75,0.0040
2561.50,0.0041
2561.25,0.0042
2561.00,0.0043
2560.75,0.0043
2560.50,0.0044
2560.25,0.0043
2560.00,0.0043
2559.75,0.0043
2559.50,0.0044
2559.25,0.0046
2559.00,0.0047
2558.75,0.0048
2558.50,0.0047
2558.25,0.0047
2558.00,0.0047
2557.75,0.0048
2557.50,0.0048
2557.25,0.0049
2557.00,0.0049
2556.75,0.0049
2556.50,0.0049
2556.25,0.0049
2556.00,0.0048
2555.75,0.0048
2555.50,0.0048
2555.25,0.0049
2555.00,0.0049
2554.75,0.0048
2554.50,0.0046
2554.25,0.0045
2554.00,0.0044
2553.75,0.0043
2553.50,0.0043
2553.25,0.0042
2553.00,0.0042
2552.75,0.0042
2552.50,0.0043
2552.25,0.0044
2552.00,0.0044
2551.75,0.0044
2551.50,0.0043
2551.25,0.0043
2551.00,0.0043
2550.75,0.0043
2550.50,0.0044
2550.25,0.0045
2550.00,0.0047
2549.75,0.0048
2549.50,0.0049
2549.25,0.0048
2549.00,0.0047
2548.75,0.0046
2548.50,0.0046
2548.25,0.0047
2548.00,0.0047
2547.75,0.0046
2547.50,0.0045
2547.25,0.0044
2547.00,0.0043
2546.75,0.0043
2546.50,0.0043
2546.25,0.0044
2546.00,0.0045
2545.75,0.0046
2545.50,0.0047
2545.25,0.0047
2545.00,0.0046
2544.75,0.0044
2544.50,0.0042
2544.25,0.0040
2544.00,0.0040
2543.75,0.0039
2543.50,0.0039
2543.25,0.0039
2543.00,0.0039
2542.75,0.0038
2542.50,0.0038
2542.25,0.0039
2542.00,0.0042
2541.75,0.0045
2541.50,0.0047
2541.25,0.0049
2541.00,0.0049
2540.75,0.0048
2540.50,0.0046
2540.25,0.0044
2540.00,0.0041
2539.75,0.0039
2539.50,0.0038
2539.25,0.0036
2539.00,0.0035
2538.75,0.0034
2538.50,0.0034
2538.25,0.0035
2538.00,0.0038
2537.75,0.0040
2537.50,0.0042
2537.25,0.0044
2537.00,0.0046
2536.75,0.0047
2536.50,0.0048
2536.25,0.0048
2536.00,0.0048
2535.75,0.0047
2535.50,0.0045
2535.25,0.0043
2535.00,0.0042
2534.75,0.0043
2534.50,0.0046
2534.25,0.0048
2534.00,0.0049
2533.75,0.0048
2533.50,0.0047
2533.25,0.0046
2533.00,0.0045
2532.75,0.0045
2532.50,0.0044
2532.25,0.0043
2532.00,0.0042
2531.75,0.0041
2531.50,0.0040
2531.25,0.0039
2531.00,0.0038
2530.75,0.0037
2530.50,0.0037
2530.25,0.0036
2530.00,0.0037
2529.75,0.0038
2529.50,0.0040
2529.25,0.0040
2529.00,0.0040
2528.75,0.0039
2528.50,0.0037
2528.25,0.0036
2528.00,0.0037
2527.75,0.0037
2527.50,0.0037
2527.25,0.0038
2527.00,0.0037
2526.75,0.0038
2526.50,0.0038
2526.25,0.0038
2526.00,0.0039
2525.75,0.0039
2525.50,0.0037
2525.25,0.0036
2525.00,0.0034
2524.75,0.0035
2524.50,0.0036
2524.25,0.0038
2524.00,0.0038
2523.75,0.0037
2523.50,0.0034
2523.25,0.0033
2523.00,0.0033
2522.75,0.0035
2522.50,0.0037
2522.25,0.0039
2522.00,0.0039
2521.75,0.0038
2521.50,0.0037
2521.25,0.0037
2521.00,0.0037
2520.75,0.0036
2520.50,0.0036
2520.25,0.0035
2520.00,0.0036
2519.75,0.0037
2519.50,0.0037
2519.25,0.0036
2519.00,0.0034
2518.75,0.0032
2518.50,0.0032
2518.25,0.0033
2518.00,0.0035
2517.75,0.0036
2517.50,0.0037
2517.25,0.0037
2517.00,0.0036
2516.75,0.0034
2516.50,0.0032
2516.25,0.0030
2516.00,0.0030
2515.75,0.0030
2515.50,0.0031
2515.25,0.0033
2515.00,0.0035
2514.75,0.0036
2514.50,0.0036
2514.25,0.0037
2514.00,0.0037
2513.75,0.0038
2513.50,0.0038
2513.25,0.0038
2513.00,0.0037
2512.75,0.0035
2512.50,0.0033
2512.25,0.0033
2512.00,0.0034
2511.75,0.0036
2511.50,0.0037
2511.25,0.0038
2511.00,0.0036
2510.75,0.0035
2510.50,0.0035
2510.25,0.0035
2510.00,0.0036
2509.75,0.0036
2509.50,0.0036
2509.25,0.0035
2509.00,0.0035
2508.75,0.0036
2508.50,0.0036
2508.25,0.0037
2508.00,0.0037
2507.75,0.0037
2507.50,0.0038
2507.25,0.0038
2507.00,0.0038
2506.75,0.0037
2506.50,0.0036
2506.25,0.0035
2506.00,0.0034
2505.75,0.0035
2505.50,0.0036
2505.25,0.0037
2505.00,0.0038
2504.75,0.0037
2504.50,0.0036
2504.25,0.0034
2504.00,0.0033
2503.75,0.0032
2503.50,0.0033
2503.25,0.0035
2503.00,0.0038
2502.75,0.0039
2502.50,0.0040
2502.25,0.0039
2502.00,0.0037
2501.75,0.0036
2501.50,0.0036
2501.25,0.0036
2501.00,0.0037
2500.75,0.0039
2500.50,0.0040
2500.25,0.0040
2500.00,0.0039
2499.75,0.0038
2499.50,0.0037
2499.25,0.0037
2499.00,0.0037
2498.75,0.0038
2498.50,0.0040
2498.25,0.0042
2498.00,0.0044
2497.75,0.0045
2497.50,0.0046
2497.25,0.0046
2497.00,0.0045
2496.75,0.0043
2496.50,0.0042
2496.25,0.0042
2496.00,0.0043
2495.75,0.0046
2495.50,0.0048
2495.25,0.0048
2495.00,0.0046
2494.75,0.0043
2494.50,0.0041
2494.25,0.0040
2494.00,0.0040
2493.75,0.0041
2493.50,0.0042
2493.25,0.0043
2493.00,0.0042
2492.75,0.0041
2492.50,0.0040
2492.25,0.0039
2492.00,0.0040
2491.75,0.0042
2491.50,0.0045
2491.25,0.0047
2491.00,0.0048
2490.75,0.0046
2490.50,0.0044
2490.25,0.0041
2490.00,0.0040
2489.75,0.0040
2489.50,0.0041
2489.25,0.0042
2489.00,0.0043
2488.75,0.0043
2488.50,0.0043
2488.25,0.0043
2488.00,0.0043
2487.75,0.0044
2487.50,0.0044
2487.25,0.0045
2487.00,0.0046
2486.75,0.0045
2486.50,0.0042
2486.25,0.0038
2486.00,0.0035
2485.75,0.0034
2485.50,0.0036
2485.25,0.0039
2485.00,0.0044
2484.75,0.0048
2484.50,0.0051
2484.25,0.0052
2484.00,0.0052
2483.75,0.0050
2483.50,0.0048
2483.25,0.0046
2483.00,0.0044
2482.75,0.0044
2482.50,0.0045
2482.25,0.0047
2482.00,0.0048
2481.75,0.0049
2481.50,0.0048
2481.25,0.0047
2481.00,0.0046
2480.75,0.0047
2480.50,0.0048
2480.25,0.0048
2480.00,0.0047
2479.75,0.0045
2479.50,0.0043
2479.25,0.0041
2479.00,0.0040
2478.75,0.0039
2478.50,0.0038
2478.25,0.0038
2478.00,0.0038
2477.75,0.0040
2477.50,0.0042
2477.25,0.0044
2477.00,0.0045
2476.75,0.0045
2476.50,0.0044
2476.25,0.0044
2476.00,0.0044
2475.75,0.0045
2475.50,0.0047
2475.25,0.0048
2475.00,0.0048
2474.75,0.0046
2474.50,0.0043
2474.25,0.0040
2474.00,0.0038
2473.75,0.0037
2473.50,0.0038
2473.25,0.0040
2473.00,0.0042
2472.75,0.0043
2472.50,0.0044
2472.25,0.0044
2472.00,0.0045
2471.75,0.0047
2471.50,0.0048
2471.25,0.0048
2471.00,0.0048
2470.75,0.0047
2470.50,0.0046
2470.25,0.0045
2470.00,0.0045
2469.75,0.0045
2469.50,0.0044
2469.25,0.0044
2469.00,0.0043
2468.75,0.0043
2468.50,0.0044
2468.25,0.0045
2468.00,0.0046
2467.75,0.0046
2467.50,0.0046
2467.25,0.0045
2467.00,0.0043
2466.75,0.0042
2466.50,0.0041
2466.25,0.0042
2466.00,0.0043
2465.75,0.0044
2465.50,0.0044
2465.25,0.0045
2465.00,0.0045
2464.75,0.0045
2464.50,0.0044
2464.25,0.0043
2464.00,0.0041
2463.75,0.0041
2463.50,0.0040
2463.25,0.0041
2463.00,0.0041
2462.75,0.0041
2462.50,0.0042
2462.25,0.0043
2462.00,0.0043
2461.75,0.0045
2461.50,0.0046
2461.25,0.0047
2461.00,0.0047
2460.75,0.0046
2460.50,0.0045
2460.25,0.0045
2460.00,0.0045
2459.75,0.0047
2459.50,0.0048
2459.25,0.0049
2459.00,0.0049
2458.75,0.0048
2458.50,0.0047
2458.25,0.0045
2458.00,0.0044
2457.75,0.0043
2457.50,0.0044
2457.25,0.0044
2457.00,0.0043
2456.75,0.0043
2456.50,0.0042
2456.25,0.0042
2456.00,0.0043
2455.75,0.0045
2455.50,0.0046
2455.25,0.0047
2455.00,0.0047
2454.75,0.0046
2454.50,0.0043
2454.25,0.0041
2454.00,0.0039
2453.75,0.0040
2453.50,0.0041
2453.25,0.0043
2453.00,0.0046
2452.75,0.0047
2452.50,0.0047
2452.25,0.0046
2452.00,0.0045
2451.75,0.0043
2451.50,0.0043
2451.25,0.0043
2451.00,0.0045
2450.75,0.0047
2450.50,0.0049
2450.25,0.0051
2450.00,0.0051
2449.75,0.0050
2449.50,0.0048
2449.25,0.0045
2449.00,0.0042
2448.75,0.0041
2448.50,0.0041
2448.25,0.0043
2448.00,0.0044
2447.75,0.0044
2447.50,0.0044
2447.25,0.0043
2447.00,0.0044
2446.75,0.0046
2446.50,0.0048
2446.25,0.0048
2446.00,0.0046
2445.75,0.0045
2445.50,0.0043
2445.25,0.0042
2445.00,0.0042
2444.75,0.0041
2444.50,0.0041
2444.25,0.0040
2444.00,0.0039
2443.75,0.0039
2443.50,0.0039
2443.25,0.0039
2443.00,0.0039
2442.75,0.0040
2442.50,0.0041
2442.25,0.0043
2442.00,0.0045
2441.75,0.0047
2441.50,0.0050
2441.25,0.0053
2441.00,0.0055
2440.75,0.0055
2440.50,0.0053
2440.25,0.0050
2440.00,0.0048
2439.75,0.0047
2439.50,0.0048
2439.25,0.0048
2439.00,0.0049
2438.75,0.0048
2438.50,0.0046
2438.25,0.0045
2438.00,0.0044
2437.75,0.0044
2437.50,0.0044
2437.25,0.0044
2437.00,0.0043
2436.75,0.0042
2436.50,0.0041
2436.25,0.0041
2436.00,0.0042
2435.75,0.0044
2435.50,0.0044
2435.25,0.0043
2435.00,0.0042
2434.75,0.0041
2434.50,0.0041
2434.25,0.0041
2434.00,0.0042
2433.75,0.0043
2433.50,0.0044
2433.25,0.0044
2433.00,0.0043
2432.75,0.0042
2432.50,0.0041
2432.25,0.0042
2432.00,0.0044
2431.75,0.0045
2431.50,0.0045
2431.25,0.0044
2431.00,0.0042
2430.75,0.0041
2430.50,0.0041
2430.25,0.0043
2430.00,0.0044
2429.75,0.0045
2429.50,0.0045
2429.25,0.0045
2429.00,0.0046
2428.75,0.0048
2428.50,0.0049
2428.25,0.0049
2428.00,0.0047
2427.75,0.0044
2427.50,0.0042
2427.25,0.0042
2427.00,0.0042
2426.75,0.0043
2426.50,0.0043
2426.25,0.0043
2426.00,0.0044
2425.75,0.0045
2425.50,0.0046
2425.25,0.0047
2425.00,0.0046
2424.75,0.0045
2424.50,0.0044
2424.25,0.0044
2424.00,0.0043
2423.75,0.0043
2423.50,0.0042
2423.25,0.0041
2423.00,0.0040
2422.75,0.0039
2422.50,0.0040
2422.25,0.0041
2422.00,0.0043
2421.75,0.0044
2421.50,0.0044
2421.25,0.0043
2421.00,0.0042
2420.75,0.0041
2420.50,0.0040
2420.25,0.0039
2420.00,0.0040
2419.75,0.0040
2419.50,0.0040
2419.25,0.0041
2419.00,0.0041
2418.75,0.0041
2418.50,0.0041
2418.25,0.0042
2418.00,0.0043
2417.75,0.0045
2417.50,0.0048
2417.25,0.0051
2417.00,0.0052
2416.75,0.0052
2416.50,0.0050
2416.25,0.0047
2416.00,0.0046
2415.75,0.0045
2415.50,0.0044
2415.25,0.0044
2415.00,0.0044
2414.75,0.0044
2414.50,0.0043
2414.25,0.0042
2414.00,0.0041
2413.75,0.0042
2413.50,0.0043
2413.25,0.0045
2413.00,0.0046
2412.75,0.0047
2412.50,0.0048
2412.25,0.0048
2412.00,0.0048
2411.75,0.0049
2411.50,0.0049
2411.25,0.0048
2411.00,0.0046
2410.75,0.0045
2410.50,0.0045
2410.25,0.0045
2410.00,0.0046
2409.75,0.0048
2409.50,0.0049
2409.25,0.0049
2409.00,0.0048
2408.75,0.0047
2408.50,0.0045
2408.25,0.0043
2408.00,0.0042
2407.75,0.0042
2407.50,0.0042
2407.25,0.0043
2407.00,0.0043
2406.75,0.0043
2406.50,0.0043
2406.25,0.0044
2406.00,0.0045
2405.75,0.0046
2405.50,0.0046
2405.25,0.0046
2405.00,0.0046
2404.75,0.0045
2404.50,0.0045
2404.25,0.0044
2404.00,0.0044
2403.75,0.0043
2403.50,0.0043
2403.25,0.0043
2403.00,0.0042
2402.75,0.0042
2402.50,0.0041
2402.25,0.0041
2402.00,0.0042
2401.75,0.0043
2401.50,0.0045
2401.25,0.0047
2401.00,0.0047
2400.75,0.0045
2400.50,0.0042
2400.25,0.0040
2400.00,0.0038
2399.75,0.0038
2399.50,0.0040
2399.25,0.0043
2399.00,0.0045
2398.75,0.0048
2398.50,0.0049
2398.25,0.0048
2398.00,0.0046
2397.75,0.0042
2397.50,0.0039
2397.25,0.0038
2397.00,0.0037
2396.75,0.0038
2396.50,0.0039
2396.25,0.0042
2396.00,0.0044
2395.75,0.0045
2395.50,0.0044
2395.25,0.0043
2395.00,0.0041
2394.75,0.0042
2394.50,0.0043
2394.25,0.0043
2394.00,0.0043
2393.75,0.0042
2393.50,0.0041
2393.25,0.0040
2393.00,0.0039
2392.75,0.0038
2392.50,0.0038
2392.25,0.0038
2392.00,0.0040
2391.75,0.0041
2391.50,0.0042
2391.25,0.0042
2391.00,0.0042
2390.75,0.0042
2390.50,0.0043
2390.25,0.0045
2390.00,0.0046
2389.75,0.0047
2389.50,0.0046
2389.25,0.0046
2389.00,0.0045
2388.75,0.0045
2388.50,0.0045
2388.25,0.0045
2388.00,0.0043
2387.75,0.0042
2387.50,0.0041
2387.25,0.0042
2387.00,0.0043
2386.75,0.0044
2386.50,0.0045
2386.25,0.0045
2386.00,0.0046
2385.75,0.0048
2385.50,0.0049
2385.25,0.0050
2385.00,0.0049
2384.75,0.0047
2384.50,0.0046
2384.25,0.0045
2384.00,0.0043
2383.75,0.0043
2383.50,0.0043
2383.25,0.0043
2383.00,0.0044
2382.75,0.0045
2382.50,0.0046
2382.25,0.0046
2382.00,0.0046
2381.75,0.0046
2381.50,0.0045
2381.25,0.0044
2381.00,0.0042
2380.75,0.0041
2380.50,0.0040
2380.25,0.0039
2380.00,0.0039
2379.75,0.0038
2379.50,0.0037
2379.25,0.0036
2379.00,0.0035
2378.75,0.0035
2378.50,0.0035
2378.25,0.0035
2378.00,0.0036
2377.75,0.0038
2377.50,0.0040
2377.25,0.0042
2377.00,0.0044
2376.75,0.0046
2376.50,0.0047
2376.25,0.0048
2376.00,0.0047
2375.75,0.0046
2375.50,0.0045
2375.25,0.0043
2375.00,0.0041
2374.75,0.0037
2374.50,0.0033
2374.25,0.0031
2374.00,0.0030
2373.75,0.0029
2373.50,0.0029
2373.25,0.0029
2373.00,0.0028
2372.75,0.0028
2372.50,0.0028
2372.25,0.0028
2372.00,0.0029
2371.75,0.0030
2371.50,0.0031
2371.25,0.0031
2371.00,0.0030
2370.75,0.0030
2370.50,0.0030
2370.25,0.0030
2370.00,0.0031
2369.75,0.0033
2369.50,0.0034
2369.25,0.0035
2369.00,0.0034
2368.75,0.0032
2368.50,0.0029
2368.25,0.0027
2368.00,0.0026
2367.75,0.0024
2367.50,0.0022
2367.25,0.0018
2367.00,0.0014
2366.75,0.0010
2366.50,0.0010
2366.25,0.0016
2366.00,0.0026
2365.75,0.0035
2365.50,0.0041
2365.25,0.0041
2365.00,0.0037
2364.75,0.0033
2364.50,0.0031
2364.25,0.0029
2364.00,0.0028
2363.75,0.0029
2363.50,0.0030
2363.25,0.0030
2363.00,0.0028
2362.75,0.0024
2362.50,0.0023
2362.25,0.0024
2362.00,0.0027
2361.75,0.0029
2361.50,0.0030
2361.25,0.0030
2361.00,0.0033
2360.75,0.0037
2360.50,0.0040
2360.25,0.0039
2360.00,0.0034
2359.75,0.0027
2359.50,0.0025
2359.25,0.0028
2359.00,0.0034
2358.75,0.0041
2358.50,0.0044
2358.25,0.0043
2358.00,0.0040
2357.75,0.0037
2357.50,0.0035
2357.25,0.0034
2357.00,0.0034
2356.75,0.0033
2356.50,0.0031
2356.25,0.0027
2356.00,0.0022
2355.75,0.0020
2355.50,0.0021
2355.25,0.0024
2355.00,0.0026
2354.75,0.0027
2354.50,0.0028
2354.25,0.0031
2354.00,0.0035
2353.75,0.0039
2353.50,0.0041
2353.25,0.0040
2353.00,0.0036
2352.75,0.0034
2352.50,0.0035
2352.25,0.0040
2352.00,0.0045
2351.75,0.0047
2351.50,0.0045
2351.25,0.0040
2351.00,0.0036
2350.75,0.0035
2350.50,0.0036
2350.25,0.0037
2350.00,0.0037
2349.75,0.0037
2349.50,0.0037
2349.25,0.0038
2349.00,0.0039
2348.75,0.0041
2348.50,0.0044
2348.25,0.0046
2348.00,0.0047
2347.75,0.0047
2347.50,0.0043
2347.25,0.0039
2347.00,0.0035
2346.75,0.0033
2346.50,0.0033
2346.25,0.0033
2346.00,0.0035
2345.75,0.0037
2345.50,0.0038
2345.25,0.0039
2345.00,0.0041
2344.75,0.0040
2344.50,0.0038
2344.25,0.0032
2344.00,0.0028
2343.75,0.0027
2343.50,0.0030
2343.25,0.0033
2343.00,0.0036
2342.75,0.0036
2342.50,0.0033
2342.25,0.0032
2342.00,0.0032
2341.75,0.0034
2341.50,0.0036
2341.25,0.0036
2341.00,0.0034
2340.75,0.0033
2340.50,0.0033
2340.25,0.0036
2340.00,0.0039
2339.75,0.0041
2339.50,0.0040
2339.25,0.0036
2339.00,0.0030
2338.75,0.0027
2338.50,0.0028
2338.25,0.0029
2338.00,0.0030
2337.75,0.0030
2337.50,0.0032
2337.25,0.0035
2337.00,0.0037
2336.75,0.0039
2336.50,0.0039
2336.25,0.0038
2336.00,0.0034
2335.75,0.0031
2335.50,0.0031
2335.25,0.0035
2335.00,0.0038
2334.75,0.0041
2334.50,0.0040
2334.25,0.0035
2334.00,0.0027
2333.75,0.0022
2333.50,0.0023
2333.25,0.0027
2333.00,0.0032
2332.75,0.0036
2332.50,0.0036
2332.25,0.0034
2332.00,0.0031
2331.75,0.0032
2331.50,0.0034
2331.25,0.0037
2331.00,0.0038
2330.75,0.0035
2330.50,0.0028
2330.25,0.0024
2330.00,0.0026
2329.75,0.0032
2329.50,0.0037
2329.25,0.0041
2329.00,0.0042
2328.75,0.0040
2328.50,0.0038
2328.25,0.0038
2328.00,0.0040
2327.75,0.0042
2327.50,0.0044
2327.25,0.0045
2327.00,0.0041
2326.75,0.0034
2326.50,0.0029
2326.25,0.0029
2326.00,0.0033
2325.75,0.0039
2325.50,0.0045
2325.25,0.0049
2325.00,0.0049
2324.75,0.0042
2324.50,0.0034
2324.25,0.0029
2324.00,0.0028
2323.75,0.0030
2323.50,0.0032
2323.25,0.0033
2323.00,0.0031
2322.75,0.0028
2322.50,0.0029
2322.25,0.0033
2322.00,0.0039
2321.75,0.0045
2321.50,0.0049
2321.25,0.0049
2321.00,0.0043
2320.75,0.0038
2320.50,0.0037
2320.25,0.0040
2320.00,0.0044
2319.75,0.0046
2319.50,0.0046
2319.25,0.0042
2319.00,0.0037
2318.75,0.0033
2318.50,0.0031
2318.25,0.0030
2318.00,0.0031
2317.75,0.0032
2317.50,0.0034
2317.25,0.0038
2317.00,0.0040
2316.75,0.0041
2316.50,0.0042
2316.25,0.0042
2316.00,0.0044
2315.75,0.0046
2315.50,0.0048
2315.25,0.0048
2315.00,0.0046
2314.75,0.0042
2314.50,0.0038
2314.25,0.0037
2314.00,0.0037
2313.75,0.0038
2313.50,0.0037
2313.25,0.0035
2313.00,0.0033
2312.75,0.0031
2312.50,0.0031
2312.25,0.0033
2312.00,0.0036
2311.75,0.0039
2311.50,0.0041
2311.25,0.0043
2311.00,0.0044
2310.75,0.0044
2310.50,0.0044
2310.25,0.0042
2310.00,0.0040
2309.75,0.0039
2309.50,0.0039
2309.25,0.0039
2309.00,0.0038
2308.75,0.0036
2308.50,0.0034
2308.25,0.0034
2308.00,0.0036
2307.75,0.0039
2307.50,0.0041
2307.25,0.0041
2307.00,0.0040
2306.75,0.0039
2306.50,0.0041
2306.25,0.0042
2306.00,0.0043
2305.75,0.0044
2305.50,0.0045
2305.25,0.0046
2305.00,0.0046
2304.75,0.0045
2304.50,0.0043
2304.25,0.0042
2304.00,0.0042
2303.75,0.0043
2303.50,0.0044
2303.25,0.0044
2303.00,0.0045
2302.75,0.0045
2302.50,0.0045
2302.25,0.0043
2302.00,0.0041
2301.75,0.0039
2301.50,0.0038
2301.25,0.0039
2301.00,0.0040
2300.75,0.0041
2300.50,0.0041
2300.25,0.0039
2300.00,0.0037
2299.75,0.0035
2299.50,0.0035
2299.25,0.0036
2299.00,0.0040
2298.75,0.0043
2298.50,0.0045
2298.25,0.0046
2298.00,0.0046
2297.75,0.0045
2297.50,0.0044
2297.25,0.0043
2297.00,0.0040
2296.75,0.0037
2296.50,0.0035
2296.25,0.0033
2296.00,0.0033
2295.75,0.0034
2295.50,0.0036
2295.25,0.0037
2295.00,0.0038
2294.75,0.0040
2294.50,0.0043
2294.25,0.0045
2294.00,0.0046
2293.75,0.0045
2293.50,0.0044
2293.25,0.0042
2293.00,0.0040
2292.75,0.0040
2292.50,0.0039
2292.25,0.0040
2292.00,0.0042
2291.75,0.0044
2291.50,0.0045
2291.25,0.0044
2291.00,0.0043
2290.75,0.0041
2290.50,0.0040
2290.25,0.0040
2290.00,0.0041
2289.75,0.0043
2289.50,0.0045
2289.25,0.0045
2289.00,0.0044
2288.75,0.0042
2288.50,0.0040
2288.25,0.0039
2288.00,0.0037
2287.75,0.0037
2287.50,0.0037
2287.25,0.0039
2287.00,0.0042
2286.75,0.0043
2286.50,0.0044
2286.25,0.0043
2286.00,0.0041
2285.75,0.0040
2285.50,0.0040
2285.25,0.0040
2285.00,0.0040
2284.75,0.0040
2284.50,0.0038
2284.25,0.0037
2284.00,0.0036
2283.75,0.0037
2283.50,0.0039
2283.25,0.0040
2283.00,0.0040
2282.75,0.0039
2282.50,0.0039
2282.25,0.0039
2282.00,0.0041
2281.75,0.0041
2281.50,0.0041
2281.25,0.0040
2281.00,0.0041
2280.75,0.0043
2280.50,0.0045
2280.25,0.0045
2280.00,0.0043
2279.75,0.0040
2279.50,0.0040
2279.25,0.0040
2279.00,0.0042
2278.75,0.0043
2278.50,0.0044
2278.25,0.0043
2278.00,0.0042
2277.75,0.0039
2277.50,0.0036
2277.25,0.0034
2277.00,0.0033
2276.75,0.0033
2276.50,0.0033
2276.25,0.0032
2276.00,0.0032
2275.75,0.0032
2275.50,0.0034
2275.25,0.0036
2275.00,0.0038
2274.75,0.0040
2274.50,0.0042
2274.25,0.0044
2274.00,0.0044
2273.75,0.0043
2273.50,0.0042
2273.25,0.0042
2273.00,0.0041
2272.75,0.0039
2272.50,0.0038
2272.25,0.0038
2272.00,0.0041
2271.75,0.0044
2271.50,0.0047
2271.25,0.0049
2271.00,0.0049
2270.75,0.0047
2270.50,0.0044
2270.25,0.0041
2270.00,0.0038
2269.75,0.0036
2269.50,0.0036
2269.25,0.0037
2269.00,0.0039
2268.75,0.0040
2268.50,0.0041
2268.25,0.0041
2268.00,0.0039
2267.75,0.0037
2267.50,0.0035
2267.25,0.0033
2267.00,0.0031
2266.75,0.0029
2266.50,0.0029
2266.25,0.0029
2266.00,0.0031
2265.75,0.0033
2265.50,0.0035
2265.25,0.0036
2265.00,0.0037
2264.75,0.0038
2264.50,0.0038
2264.25,0.0039
2264.00,0.0039
2263.75,0.0038
2263.50,0.0038
2263.25,0.0038
2263.00,0.0037
2262.75,0.0036
2262.50,0.0035
2262.25,0.0035
2262.00,0.0037
2261.75,0.0040
2261.50,0.0042
2261.25,0.0044
2261.00,0.0044
2260.75,0.0042
2260.50,0.0040
2260.25,0.0037
2260.00,0.0034
2259.75,0.0031
2259.50,0.0029
2259.25,0.0030
2259.00,0.0033
2258.75,0.0037
2258.50,0.0041
2258.25,0.0044
2258.00,0.0046
2257.75,0.0046
2257.50,0.0045
2257.25,0.0042
2257.00,0.0039
2256.75,0.0036
2256.50,0.0035
2256.25,0.0033
2256.00,0.0032
2255.75,0.0030
2255.50,0.0029
2255.25,0.0031
2255.00,0.0035
2254.75,0.0040
2254.50,0.0045
2254.25,0.0048
2254.00,0.0047
2253.75,0.0044
2253.50,0.0040
2253.25,0.0036
2253.00,0.0034
2252.75,0.0032
2252.50,0.0031
2252.25,0.0031
2252.00,0.0033
2251.75,0.0035
2251.50,0.0036
2251.25,0.0036
2251.00,0.0035
2250.75,0.0035
2250.50,0.0036
2250.25,0.0038
2250.00,0.0041
2249.75,0.0042
2249.50,0.0041
2249.25,0.0039
2249.00,0.0037
2248.75,0.0035
2248.50,0.0034
2248.25,0.0034
2248.00,0.0035
2247.75,0.0036
2247.50,0.0037
2247.25,0.0036
2247.00,0.0034
2246.75,0.0032
2246.50,0.0030
2246.25,0.0028
2246.00,0.0026
2245.75,0.0024
2245.50,0.0023
2245.25,0.0024
2245.00,0.0026
2244.75,0.0029
2244.50,0.0033
2244.25,0.0038
2244.00,0.0042
2243.75,0.0042
2243.50,0.0040
2243.25,0.0037
2243.00,0.0034
2242.75,0.0030
2242.50,0.0027
2242.25,0.0026
2242.00,0.0026
2241.75,0.0028
2241.50,0.0030
2241.25,0.0031
2241.00,0.0032
2240.75,0.0032
2240.50,0.0033
2240.25,0.0035
2240.00,0.0034
2239.75,0.0033
2239.50,0.0031
2239.25,0.0029
2239.00,0.0029
2238.75,0.0031
2238.50,0.0033
2238.25,0.0034
2238.00,0.0034
2237.75,0.0033
2237.50,0.0033
2237.25,0.0032
2237.00,0.0033
2236.75,0.0035
2236.50,0.0036
2236.25,0.0036
2236.00,0.0035
2235.75,0.0031
2235.50,0.0027
2235.25,0.0023
2235.00,0.0020
2234.75,0.0020
2234.50,0.0022
2234.25,0.0024
2234.00,0.0025
2233.75,0.0026
2233.50,0.0029
2233.25,0.0032
2233.00,0.0037
2232.75,0.0040
2232.50,0.0040
2232.25,0.0038
2232.00,0.0035
2231.75,0.0033
2231.50,0.0034
2231.25,0.0034
2231.00,0.0034
2230.75,0.0033
2230.50,0.0032
2230.25,0.0032
2230.00,0.0034
2229.75,0.0036
2229.50,0.0037
2229.25,0.0035
2229.00,0.0032
2228.75,0.0029
2228.50,0.0027
2228.25,0.0028
2228.00,0.0030
2227.75,0.0032
2227.50,0.0035
2227.25,0.0036
2227.00,0.0035
2226.75,0.0033
2226.50,0.0028
2226.25,0.0023
2226.00,0.0018
2225.75,0.0017
2225.50,0.0019
2225.25,0.0026
2225.00,0.0033
2224.75,0.0039
2224.50,0.0041
2224.25,0.0039
2224.00,0.0036
2223.75,0.0033
2223.50,0.0033
2223.25,0.0034
2223.00,0.0034
2222.75,0.0033
2222.50,0.0031
2222.25,0.0029
2222.00,0.0027
2221.75,0.0026
2221.50,0.0025
2221.25,0.0024
2221.00,0.0022
2220.75,0.0020
2220.50,0.0018
2220.25,0.0017
2220.00,0.0018
2219.75,0.0021
2219.50,0.0026
2219.25,0.0032
2219.00,0.0035
2218.75,0.0034
2218.50,0.0029
2218.25,0.0023
2218.00,0.0020
2217.75,0.0020
2217.50,0.0022
2217.25,0.0026
2217.00,0.0030
2216.75,0.0032
2216.50,0.0034
2216.25,0.0034
2216.00,0.0032
2215.75,0.0028
2215.50,0.0025
2215.25,0.0023
2215.00,0.0024
2214.75,0.0026
2214.50,0.0029
2214.25,0.0030
2214.00,0.0029
2213.75,0.0027
2213.50,0.0025
2213.25,0.0024
2213.00,0.0024
2212.75,0.0023
2212.50,0.0022
2212.25,0.0023
2212.00,0.0027
2211.75,0.0032
2211.50,0.0038
2211.25,0.0042
2211.00,0.0043
2210.75,0.0041
2210.50,0.0036
2210.25,0.0030
2210.00,0.0023
2209.75,0.0018
2209.50,0.0015
2209.25,0.0014
2209.00,0.0015
2208.75,0.0017
2208.50,0.0021
2208.25,0.0024
2208.00,0.0027
2207.75,0.0028
2207.50,0.0029
2207.25,0.0030
2207.00,0.0030
2206.75,0.0030
2206.50,0.0029
2206.25,0.0027
2206.00,0.0024
2205.75,0.0020
2205.50,0.0017
2205.25,0.0017
2205.00,0.0020
2204.75,0.0025
2204.50,0.0031
2204.25,0.0034
2204.00,0.0034
2203.75,0.0031
2203.50,0.0027
2203.25,0.0024
2203.00,0.0023
2202.75,0.0022
2202.50,0.0022
2202.25,0.0021
2202.00,0.0021
2201.75,0.0022
2201.50,0.0024
2201.25,0.0027
2201.00,0.0029
2200.75,0.0030
2200.50,0.0030
2200.25,0.0030
2200.00,0.0030
2199.75,0.0031
2199.50,0.0031
2199.25,0.0030
2199.00,0.0028
2198.75,0.0027
2198.50,0.0026
2198.25,0.0026
2198.00,0.0025
2197.75,0.0025
2197.50,0.0023
2197.25,0.0020
2197.00,0.0016
2196.75,0.0012
2196.50,0.0010
2196.25,0.0010
2196.00,0.0011
2195.75,0.0015
2195.50,0.0021
2195.25,0.0026
2195.00,0.0030
2194.75,0.0032
2194.50,0.0032
2194.25,0.0031
2194.00,0.0028
2193.75,0.0024
2193.50,0.0019
2193.25,0.0012
2193.00,0.0005
2192.75,-0.0001
2192.50,-0.0004
2192.25,-0.0002
2192.00,0.0005
2191.75,0.0016
2191.50,0.0025
2191.25,0.0029
2191.00,0.0028
2190.75,0.0024
2190.50,0.0020
2190.25,0.0018
2190.00,0.0018
2189.75,0.0018
2189.50,0.0018
2189.25,0.0020
2189.00,0.0023
2188.75,0.0027
2188.50,0.0032
2188.25,0.0034
2188.00,0.0032
2187.75,0.0029
2187.50,0.0025
2187.25,0.0024
2187.00,0.0025
2186.75,0.0026
2186.50,0.0027
2186.25,0.0025
2186.00,0.0021
2185.75,0.0016
2185.50,0.0011
2185.25,0.0008
2185.00,0.0006
2184.75,0.0006
2184.50,0.0007
2184.25,0.0009
2184.00,0.0012
2183.75,0.0016
2183.50,0.0019
2183.25,0.0018
2183.00,0.0016
2182.75,0.0013
2182.50,0.0013
2182.25,0.0013
2182.00,0.0013
2181.75,0.0011
2181.50,0.0008
2181.25,0.0007
2181.00,0.0010
2180.75,0.0016
2180.50,0.0022
2180.25,0.0025
2180.00,0.0024
2179.75,0.0021
2179.50,0.0018
2179.25,0.0017
2179.00,0.0017
2178.75,0.0017
2178.50,0.0017
2178.25,0.0017
2178.00,0.0016
2177.75,0.0017
2177.50,0.0019
2177.25,0.0023
2177.00,0.0028
2176.75,0.0032
2176.50,0.0033
2176.25,0.0030
2176.00,0.0026
2175.75,0.0021
2175.50,0.0019
2175.25,0.0019
2175.00,0.0022
2174.75,0.0025
2174.50,0.0027
2174.25,0.0027
2174.00,0.0025
2173.75,0.0023
2173.50,0.0023
2173.25,0.0023
2173.00,0.0023
2172.75,0.0021
2172.50,0.0018
2172.25,0.0015
2172.00,0.0013
2171.75,0.0013
2171.50,0.0013
2171.25,0.0013
2171.00,0.0013
2170.75,0.0014
2170.50,0.0017
2170.25,0.0019
2170.00,0.0021
2169.75,0.0022
2169.50,0.0024
2169.25,0.0028
2169.00,0.0032
2168.75,0.0035
2168.50,0.0033
2168.25,0.0030
2168.00,0.0026
2167.75,0.0023
2167.50,0.0022
2167.25,0.0022
2167.00,0.0020
2166.75,0.0017
2166.50,0.0013
2166.25,0.0011
2166.00,0.0011
2165.75,0.0013
2165.50,0.0016
2165.25,0.0018
2165.00,0.0019
2164.75,0.0020
2164.50,0.0020
2164.25,0.0019
2164.00,0.0016
2163.75,0.0012
2163.50,0.0010
2163.25,0.0009
2163.00,0.0011
2162.75,0.0014
2162.50,0.0018
2162.25,0.0020
2162.00,0.0020
2161.75,0.0018
2161.50,0.0015
2161.25,0.0012
2161.00,0.0010
2160.75,0.0007
2160.50,0.0005
2160.25,0.0002
2160.00,-0.0001
2159.75,-0.0003
2159.50,-0.0002
2159.25,-0.0000
2159.00,0.0003
2158.75,0.0007
2158.50,0.0011
2158.25,0.0015
2158.00,0.0017
2157.75,0.0017
2157.50,0.0014
2157.25,0.0009
2157.00,0.0005
2156.75,0.0001
2156.50,-0.0002
2156.25,-0.0003
2156.00,-0.0002
2155.75,0.0001
2155.50,0.0005
2155.25,0.0009
2155.00,0.0010
2154.75,0.0008
2154.50,0.0005
2154.25,0.0005
2154.00,0.0007
2153.75,0.0011
2153.50,0.0016
2153.25,0.0020
2153.00,0.0022
2152.75,0.0022
2152.50,0.0020
2152.25,0.0019
2152.00,0.0017
2151.75,0.0015
2151.50,0.0013
2151.25,0.0012
2151.00,0.0011
2150.75,0.0012
2150.50,0.0014
2150.25,0.0016
2150.00,0.0016
2149.75,0.0016
2149.50,0.0017
2149.25,0.0020
2149.00,0.0025
2148.75,0.0030
2148.50,0.0034
2148.25,0.0035
2148.00,0.0034
2147.75,0.0030
2147.50,0.0024
2147.25,0.0018
2147.00,0.0013
2146.75,0.0009
2146.50,0.0008
2146.25,0.0009
2146.00,0.0012
2145.75,0.0016
2145.50,0.0021
2145.25,0.0024
2145.00,0.0024
2144.75,0.0021
2144.50,0.0017
2144.25,0.0013
2144.00,0.0011
2143.75,0.0011
2143.50,0.0014
2143.25,0.0019
2143.00,0.0024
2142.75,0.0027
2142.50,0.0027
2142.25,0.0023
2142.00,0.0019
2141.75,0.0015
2141.50,0.0013
2141.25,0.0013
2141.00,0.0013
2140.75,0.0013
2140.50,0.0014
2140.25,0.0016
2140.00,0.0019
2139.75,0.0022
2139.50,0.0024
2139.25,0.0025
2139.00,0.0027
2138.75,0.0028
2138.50,0.0030
2138.25,0.0031
2138.00,0.0032
2137.75,0.0034
2137.50,0.0035
2137.25,0.0034
2137.00,0.0031
2136.75,0.0026
2136.50,0.0022
2136.25,0.0019
2136.00,0.0017
2135.75,0.0016
2135.50,0.0015
2135.25,0.0015
2135.00,0.0016
2134.75,0.0017
2134.50,0.0019
2134.25,0.0022
2134.00,0.0025
2133.75,0.0027
2133.50,0.0030
2133.25,0.0030
2133.00,0.0029
2132.75,0.0028
2132.50,0.0028
2132.25,0.0029
2132.00,0.0030
2131.75,0.0030
2131.50,0.0028
2131.25,0.0025
2131.00,0.0022
2130.75,0.0020
2130.50,0.0020
2130.25,0.0020
2130.00,0.0020
2129.75,0.0021
2129.50,0.0024
2129.25,0.0028
2129.00,0.0033
2128.75,0.0035
2128.50,0.0035
2128.25,0.0032
2128.00,0.0028
2127.75,0.0025
2127.50,0.0023
2127.25,0.0023
2127.00,0.0023
2126.75,0.0023
2126.50,0.0024
2126.25,0.0026
2126.00,0.0029
2125.75,0.0031
2125.50,0.0033
2125.25,0.0035
2125.00,0.0035
2124.75,0.0034
2124.50,0.0032
2124.25,0.0029
2124.00,0.0026
2123.75,0.0024
2123.50,0.0022
2123.25,0.0022
2123.00,0.0022
2122.75,0.0022
2122.50,0.0023
2122.25,0.0025
2122.00,0.0028
2121.75,0.0032
2121.50,0.0035
2121.25,0.0038
2121.00,0.0039
2120.75,0.0037
2120.50,0.0032
2120.25,0.0027
2120.00,0.0023
2119.75,0.0023
2119.50,0.0024
2119.25,0.0025
2119.00,0.0024
2118.75,0.0022
2118.50,0.0021
2118.25,0.0021
2118.00,0.0022
2117.75,0.0023
2117.50,0.0024
2117.25,0.0024
2117.00,0.0024
2116.75,0.0024
2116.50,0.0023
2116.25,0.0022
2116.00,0.0022
2115.75,0.0023
2115.50,0.0024
2115.25,0.0025
2115.00,0.0027
2114.75,0.0029
2114.50,0.0032
2114.25,0.0034
2114.00,0.0035
2113.75,0.0034
2113.50,0.0032
2113.25,0.0029
2113.00,0.0027
2112.75,0.0024
2112.50,0.0021
2112.25,0.0019
2112.00,0.0018
2111.75,0.0019
2111.50,0.0021
2111.25,0.0024
2111.00,0.0024
2110.75,0.0022
2110.50,0.0018
2110.25,0.0014
2110.00,0.0013
2109.75,0.0015
2109.50,0.0019
2109.25,0.0023
2109.00,0.0026
2108.75,0.0029
2108.50,0.0031
2108.25,0.0033
2108.00,0.0036
2107.75,0.0039
2107.50,0.0039
2107.25,0.0038
2107.00,0.0036
2106.75,0.0034
2106.50,0.0033
2106.25,0.0033
2106.00,0.0034
2105.75,0.0033
2105.50,0.0033
2105.25,0.0034
2105.00,0.0035
2104.75,0.0035
2104.50,0.0033
2104.25,0.0030
2104.00,0.0027
2103.75,0.0025
2103.50,0.0025
2103.25,0.0028
2103.00,0.0031
2102.75,0.0035
2102.50,0.0038
2102.25,0.0038
2102.00,0.0037
2101.75,0.0035
2101.50,0.0035
2101.25,0.0035
2101.00,0.0035
2100.75,0.0034
2100.50,0.0032
2100.25,0.0031
2100.00,0.0031
2099.75,0.0033
2099.50,0.0035
2099.25,0.0036
2099.00,0.0037
2098.75,0.0037
2098.50,0.0037
2098.25,0.0037
2098.00,0.0036
2097.75,0.0033
2097.50,0.0030
2097.25,0.0027
2097.00,0.0027
2096.75,0.0028
2096.50,0.0029
2096.25,0.0029
2096.00,0.0029
2095.75,0.0029
2095.50,0.0029
2095.25,0.0029
2095.00,0.0029
2094.75,0.0029
2094.50,0.0028
2094.25,0.0027
2094.00,0.0027
2093.75,0.0028
2093.50,0.0030
2093.25,0.0033
2093.00,0.0035
2092.75,0.0034
2092.50,0.0032
2092.25,0.0029
2092.00,0.0026
2091.75,0.0026
2091.50,0.0026
2091.25,0.0028
2091.00,0.0030
2090.75,0.0033
2090.50,0.0036
2090.25,0.0037
2090.00,0.0037
2089.75,0.0035
2089.50,0.0033
2089.25,0.0030
2089.00,0.0027
2088.75,0.0025
2088.50,0.0025
2088.25,0.0027
2088.00,0.0028
2087.75,0.0029
2087.50,0.0028
2087.25,0.0027
2087.00,0.0028
2086.75,0.0029
2086.50,0.0031
2086.25,0.0032
2086.00,0.0030
2085.75,0.0027
2085.50,0.0024
2085.25,0.0022
2085.00,0.0022
2084.75,0.0022
2084.50,0.0021
2084.25,0.0022
2084.00,0.0022
2083.75,0.0022
2083.50,0.0022
2083.25,0.0022
2083.00,0.0023
2082.75,0.0025
2082.50,0.0027
2082.25,0.0029
2082.00,0.0029
2081.75,0.0030
2081.50,0.0029
2081.25,0.0029
2081.00,0.0028
2080.75,0.0028
2080.50,0.0029
2080.25,0.0032
2080.00,0.0035
2079.75,0.0036
2079.50,0.0035
2079.25,0.0033
2079.00,0.0030
2078.75,0.0029
2078.50,0.0030
2078.25,0.0032
2078.00,0.0034
2077.75,0.0035
2077.50,0.0034
2077.25,0.0031
2077.00,0.0027
2076.75,0.0023
2076.50,0.0019
2076.25,0.0017
2076.00,0.0017
2075.75,0.0018
2075.50,0.0021
2075.25,0.0023
2075.00,0.0024
2074.75,0.0023
2074.50,0.0022
2074.25,0.0022
2074.00,0.0024
2073.75,0.0027
2073.50,0.0030
2073.25,0.0030
2073.00,0.0028
2072.75,0.0026
2072.50,0.0025
2072.25,0.0025
2072.00,0.0025
2071.75,0.0025
2071.50,0.0025
2071.25,0.0026
2071.00,0.0026
2070.75,0.0027
2070.50,0.0028
2070.25,0.0029
2070.00,0.0030
2069.75,0.0030
2069.50,0.0029
2069.25,0.0027
2069.00,0.0026
2068.75,0.0025
2068.50,0.0024
2068.25,0.0023
2068.00,0.0021
2067.75,0.0020
2067.50,0.0022
2067.25,0.0026
2067.00,0.0030
2066.75,0.0035
2066.50,0.0037
2066.25,0.0038
2066.00,0.0037
2065.75,0.0035
2065.50,0.0033
2065.25,0.0031
2065.00,0.0031
2064.75,0.0029
2064.50,0.0028
2064.25,0.0026
2064.00,0.0025
2063.75,0.0024
2063.50,0.0024
2063.25,0.0024
2063.00,0.0023
2062.75,0.0021
2062.50,0.0019
2062.25,0.0018
2062.00,0.0017
2061.75,0.0018
2061.50,0.0020
2061.25,0.0023
2061.00,0.0025
2060.75,0.0027
2060.50,0.0028
2060.25,0.0028
2060.00,0.0027
2059.75,0.0024
2059.50,0.0022
2059.25,0.0021
2059.00,0.0022
2058.75,0.0025
2058.50,0.0029
2058.25,0.0032
2058.00,0.0034
2057.75,0.0033
2057.50,0.0030
2057.25,0.0024
2057.00,0.0018
2056.75,0.0013
2056.50,0.0012
2056.25,0.0015
2056.00,0.0022
2055.75,0.0030
2055.50,0.0033
2055.25,0.0032
2055.00,0.0028
2054.75,0.0025
2054.50,0.0025
2054.25,0.0028
2054.00,0.0029
2053.75,0.0029
2053.50,0.0029
2053.25,0.0031
2053.00,0.0034
2052.75,0.0036
2052.50,0.0035
2052.25,0.0031
2052.00,0.0028
2051.75,0.0026
2051.50,0.0028
2051.25,0.0030
2051.00,0.0032
2050.75,0.0033
2050.50,0.0033
2050.25,0.0033
2050.00,0.0032
2049.75,0.0031
2049.50,0.0028
2049.25,0.0025
2049.00,0.0023
2048.75,0.0022
2048.50,0.0022
2048.25,0.0022
2048.00,0.0021
2047.75,0.0020
2047.50,0.0019
2047.25,0.0018
2047.00,0.0016
2046.75,0.0015
2046.50,0.0016
2046.25,0.0018
2046.00,0.0022
2045.75,0.0025
2045.50,0.0027
2045.25,0.0027
2045.00,0.0026
2044.75,0.0027
2044.50,0.0028
2044.25,0.0030
2044.00,0.0030
2043.75,0.0028
2043.50,0.0023
2043.25,0.0018
2043.00,0.0014
2042.75,0.0013
2042.50,0.0016
2042.25,0.0020
2042.00,0.0023
2041.75,0.0024
2041.50,0.0023
2041.25,0.0020
2041.00,0.0017
2040.75,0.0013
2040.50,0.0010
2040.25,0.0008
2040.00,0.0009
2039.75,0.0011
2039.50,0.0015
2039.25,0.0017
2039.00,0.0017
2038.75,0.0015
2038.50,0.0014
2038.25,0.0014
2038.00,0.0016
2037.75,0.0020
2037.50,0.0025
2037.25,0.0028
2037.00,0.0028
2036.75,0.0025
2036.50,0.0021
2036.25,0.0016
2036.00,0.0013
2035.75,0.0011
2035.50,0.0012
2035.25,0.0014
2035.00,0.0017
2034.75,0.0018
2034.50,0.0016
2034.25,0.0012
2034.00,0.0008
2033.75,0.0006
2033.50,0.0008
2033.25,0.0011
2033.00,0.0014
2032.75,0.0014
2032.50,0.0013
2032.25,0.0012
2032.00,0.0010
2031.75,0.0009
2031.50,0.0009
2031.25,0.0011
2031.00,0.0016
2030.75,0.0022
2030.50,0.0028
2030.25,0.0031
2030.00,0.0029
2029.75,0.0024
2029.50,0.0018
2029.25,0.0011
2029.00,0.0005
2028.75,0.0000
2028.50,0.0000
2028.25,0.0005
2028.00,0.0012
2027.75,0.0020
2027.50,0.0026
2027.25,0.0029
2027.00,0.0031
2026.75,0.0031
2026.50,0.0030
2026.25,0.0028
2026.00,0.0026
2025.75,0.0024
2025.50,0.0020
2025.25,0.0016
2025.00,0.0011
2024.75,0.0010
2024.50,0.0012
2024.25,0.0017
2024.00,0.0024
2023.75,0.0027
2023.50,0.0027
2023.25,0.0021
2023.00,0.0014
2022.75,0.0006
2022.50,0.0002
2022.25,0.0001
2022.00,0.0004
2021.75,0.0008
2021.50,0.0013
2021.25,0.0017
2021.00,0.0019
2020.75,0.0020
2020.50,0.0020
2020.25,0.0020
2020.00,0.0019
2019.75,0.0018
2019.50,0.0017
2019.25,0.0017
2019.00,0.0019
2018.75,0.0022
2018.50,0.0024
2018.25,0.0026
2018.00,0.0025
2017.75,0.0025
2017.50,0.0026
2017.25,0.0027
2017.00,0.0027
2016.75,0.0024
2016.50,0.0022
2016.25,0.0021
2016.00,0.0023
2015.75,0.0025
2015.50,0.0025
2015.25,0.0023
2015.00,0.0022
2014.75,0.0022
2014.50,0.0026
2014.25,0.0032
2014.00,0.0036
2013.75,0.0037
2013.50,0.0035
2013.25,0.0031
2013.00,0.0029
2012.75,0.0029
2012.50,0.0031
2012.25,0.0030
2012.00,0.0027
2011.75,0.0023
2011.50,0.0020
2011.25,0.0020
2011.00,0.0021
2010.75,0.0021
2010.50,0.0020
2010.25,0.0018
2010.00,0.0016
2009.75,0.0017
2009.50,0.0019
2009.25,0.0024
2009.00,0.0028
2008.75,0.0031
2008.50,0.0032
2008.25,0.0032
2008.00,0.0031
2007.75,0.0031
2007.50,0.0032
2007.25,0.0032
2007.00,0.0030
2006.75,0.0028
2006.50,0.0026
2006.25,0.0026
2006.00,0.0027
2005.75,0.0028
2005.50,0.0028
2005.25,0.0028
2005.00,0.0028
2004.75,0.0027
2004.50,0.0027
2004.25,0.0027
2004.00,0.0027
2003.75,0.0028
2003.50,0.0030
2003.25,0.0033
2003.00,0.0035
2002.75,0.0035
2002.50,0.0032
2002.25,0.0027
2002.00,0.0022
2001.75,0.0018
2001.50,0.0017
2001.25,0.0018
2001.00,0.0021
2000.75,0.0025
2000.50,0.0029
2000.25,0.0033
2000.00,0.0036
1999.75,0.0037
1999.50,0.0038
1999.25,0.0039
1999.00,0.0040
1998.75,0.0039
1998.50,0.0038
1998.25,0.0035
1998.00,0.0032
1997.75,0.0029
1997.50,0.0026
1997.25,0.0024
1997.00,0.0023
1996.75,0.0024
1996.50,0.0026
1996.25,0.0029
1996.00,0.0030
1995.75,0.0028
1995.50,0.0025
1995.25,0.0023
1995.00,0.0026
1994.75,0.0032
1994.50,0.0038
1994.25,0.0043
1994.00,0.0043
1993.75,0.0040
1993.50,0.0035
1993.25,0.0030
1993.00,0.0025
1992.75,0.0022
1992.50,0.0021
1992.25,0.0021
1992.00,0.0023
1991.75,0.0025
1991.50,0.0028
1991.25,0.0032
1991.00,0.0038
1990.75,0.0043
1990.50,0.0046
1990.25,0.0046
1990.00,0.0044
1989.75,0.0042
1989.50,0.0039
1989.25,0.0037
1989.00,0.0036
1988.75,0.0037
1988.50,0.0038
1988.25,0.0039
1988.00,0.0036
1987.75,0.0032
1987.50,0.0028
1987.25,0.0028
1987.00,0.0032
1986.75,0.0038
1986.50,0.0043
1986.25,0.0047
1986.00,0.0049
1985.75,0.0049
1985.50,0.0047
1985.25,0.0045
1985.00,0.0042
1984.75,0.0041
1984.50,0.0042
1984.25,0.0044
1984.00,0.0046
1983.75,0.0046
1983.50,0.0043
1983.25,0.0037
1983.00,0.0032
1982.75,0.0027
1982.50,0.0025
1982.25,0.0024
1982.00,0.0024
1981.75,0.0025
1981.50,0.0025
1981.25,0.0025
1981.00,0.0025
1980.75,0.0027
1980.50,0.0029
1980.25,0.0033
1980.00,0.0036
1979.75,0.0039
1979.50,0.0044
1979.25,0.0049
1979.00,0.0054
1978.75,0.0055
1978.50,0.0050
1978.25,0.0042
1978.00,0.0033
1977.75,0.0028
1977.50,0.0028
1977.25,0.0032
1977.00,0.0036
1976.75,0.0040
1976.50,0.0039
1976.25,0.0036
1976.00,0.0029
1975.75,0.0023
1975.50,0.0020
1975.25,0.0023
1975.00,0.0031
1974.75,0.0040
1974.50,0.0048
1974.25,0.0050
1974.00,0.0049
1973.75,0.0045
1973.50,0.0042
1973.25,0.0042
1973.00,0.0043
1972.75,0.0044
1972.50,0.0043
1972.25,0.0042
1972.00,0.0039
1971.75,0.0037
1971.50,0.0034
1971.25,0.0033
1971.00,0.0032
1970.75,0.0032
1970.50,0.0033
1970.25,0.0035
1970.00,0.0038
1969.75,0.0041
1969.50,0.0041
1969.25,0.0038
1969.00,0.0034
1968.75,0.0033
1968.50,0.0036
1968.25,0.0043
1968.00,0.0049
1967.75,0.0052
1967.50,0.0053
1967.25,0.0051
1967.00,0.0051
1966.75,0.0051
1966.50,0.0052
1966.25,0.0051
1966.00,0.0048
1965.75,0.0042
1965.50,0.0036
1965.25,0.0032
1965.00,0.0031
1964.75,0.0032
1964.50,0.0035
1964.25,0.0038
1964.00,0.0041
1963.75,0.0043
1963.50,0.0045
1963.25,0.0045
1963.00,0.0045
1962.75,0.0047
1962.50,0.0050
1962.25,0.0053
1962.00,0.0053
1961.75,0.0049
1961.50,0.0042
1961.25,0.0036
1961.00,0.0032
1960.75,0.0034
1960.50,0.0040
1960.25,0.0047
1960.00,0.0052
1959.75,0.0054
1959.50,0.0054
1959.25,0.0054
1959.00,0.0054
1958.75,0.0053
1958.50,0.0050
1958.25,0.0045
1958.00,0.0037
1957.75,0.0030
1957.50,0.0027
1957.25,0.0030
1957.00,0.0036
1956.75,0.0043
1956.50,0.0047
1956.25,0.0049
1956.00,0.0050
1955.75,0.0051
1955.50,0.0052
1955.25,0.0053
1955.00,0.0052
1954.75,0.0050
1954.50,0.0049
1954.25,0.0048
1954.00,0.0049
1953.75,0.0049
1953.50,0.0049
1953.25,0.0047
1953.00,0.0046
1952.75,0.0044
1952.50,0.0043
1952.25,0.0041
1952.00,0.0040
1951.75,0.0038
1951.50,0.0037
1951.25,0.0037
1951.00,0.0038
1950.75,0.0038
1950.50,0.0038
1950.25,0.0037
1950.00,0.0035
1949.75,0.0036
1949.50,0.0038
1949.25,0.0041
1949.00,0.0044
1948.75,0.0045
1948.50,0.0043
1948.25,0.0040
1948.00,0.0038
1947.75,0.0038
1947.50,0.0042
1947.25,0.0047
1947.00,0.0051
1946.75,0.0052
1946.50,0.0051
1946.25,0.0049
1946.00,0.0050
1945.75,0.0052
1945.50,0.0056
1945.25,0.0058
1945.00,0.0056
1944.75,0.0052
1944.50,0.0046
1944.25,0.0042
1944.00,0.0039
1943.75,0.0038
1943.50,0.0039
1943.25,0.0040
1943.00,0.0043
1942.75,0.0045
1942.50,0.0047
1942.25,0.0048
1942.00,0.0048
1941.75,0.0047
1941.50,0.0045
1941.25,0.0043
1941.00,0.0042
1940.75,0.0042
1940.50,0.0044
1940.25,0.0046
1940.00,0.0049
1939.75,0.0050
1939.50,0.0050
1939.25,0.0049
1939.00,0.0049
1938.75,0.0049
1938.50,0.0049
1938.25,0.0049
1938.00,0.0050
1937.75,0.0050
1937.50,0.0049
1937.25,0.0047
1937.00,0.0044
1936.75,0.0041
1936.50,0.0039
1936.25,0.0038
1936.00,0.0038
1935.75,0.0037
1935.50,0.0035
1935.25,0.0033
1935.00,0.0033
1934.75,0.0036
1934.50,0.0041
1934.25,0.0046
1934.00,0.0050
1933.75,0.0050
1933.50,0.0048
1933.25,0.0044
1933.00,0.0040
1932.75,0.0039
1932.50,0.0039
1932.25,0.0040
1932.00,0.0041
1931.75,0.0042
1931.50,0.0044
1931.25,0.0046
1931.00,0.0047
1930.75,0.0047
1930.50,0.0045
1930.25,0.0041
1930.00,0.0038
1929.75,0.0037
1929.50,0.0040
1929.25,0.0044
1929.00,0.0050
1928.75,0.0054
1928.50,0.0056
1928.25,0.0055
1928.00,0.0053
1927.75,0.0051
1927.50,0.0051
1927.25,0.0051
1927.00,0.0050
1926.75,0.0049
1926.50,0.0048
1926.25,0.0046
1926.00,0.0045
1925.75,0.0043
1925.50,0.0041
1925.25,0.0042
1925.00,0.0044
1924.75,0.0048
1924.50,0.0052
1924.25,0.0056
1924.00,0.0057
1923.75,0.0057
1923.50,0.0055
1923.25,0.0051
1923.00,0.0047
1922.75,0.0043
1922.50,0.0042
1922.25,0.0043
1922.00,0.0045
1921.75,0.0046
1921.50,0.0047
1921.25,0.0047
1921.00,0.0047
1920.75,0.0047
1920.50,0.0047
1920.25,0.0046
1920.00,0.0046
1919.75,0.0045
1919.50,0.0046
1919.25,0.0046
1919.00,0.0046
1918.75,0.0045
1918.50,0.0044
1918.25,0.0043
1918.00,0.0045
1917.75,0.0048
1917.50,0.0050
1917.25,0.0050
1917.00,0.0047
1916.75,0.0044
1916.50,0.0040
1916.25,0.0038
1916.00,0.0037
1915.75,0.0039
1915.50,0.0043
1915.25,0.0047
1915.00,0.0051
1914.75,0.0053
1914.50,0.0054
1914.25,0.0054
1914.00,0.0054
1913.75,0.0054
1913.50,0.0054
1913.25,0.0055
1913.00,0.0056
1912.75,0.0056
1912.50,0.0055
1912.25,0.0055
1912.00,0.0056
1911.75,0.0056
1911.50,0.0055
1911.25,0.0053
1911.00,0.0052
1910.75,0.0050
1910.50,0.0049
1910.25,0.0047
1910.00,0.0043
1909.75,0.0041
1909.50,0.0039
1909.25,0.0039
1909.00,0.0041
1908.75,0.0044
1908.50,0.0048
1908.25,0.0051
1908.00,0.0055
1907.75,0.0057
1907.50,0.0058
1907.25,0.0059
1907.00,0.0058
1906.75,0.0056
1906.50,0.0052
1906.25,0.0047
1906.00,0.0042
1905.75,0.0039
1905.50,0.0038
1905.25,0.0039
1905.00,0.0042
1904.75,0.0044
1904.50,0.0046
1904.25,0.0048
1904.00,0.0049
1903.75,0.0050
1903.50,0.0051
1903.25,0.0052
1903.00,0.0052
1902.75,0.0052
1902.50,0.0050
1902.25,0.0048
1902.00,0.0046
1901.75,0.0043
1901.50,0.0041
1901.25,0.0040
1901.00,0.0040
1900.75,0.0042
1900.50,0.0044
1900.25,0.0047
1900.00,0.0048
1899.75,0.0048
1899.50,0.0047
1899.25,0.0045
1899.00,0.0044
1898.75,0.0044
1898.50,0.0044
1898.25,0.0045
1898.00,0.0047
1897.75,0.0049
1897.50,0.0050
1897.25,0.0049
1897.00,0.0047
1896.75,0.0045
1896.50,0.0044
1896.25,0.0045
1896.00,0.0047
1895.75,0.0049
1895.50,0.0049
1895.25,0.0049
1895.00,0.0047
1894.75,0.0043
1894.50,0.0041
1894.25,0.0040
1894.00,0.0041
1893.75,0.0044
1893.50,0.0048
1893.25,0.0051
1893.00,0.0053
1892.75,0.0055
1892.50,0.0055
1892.25,0.0055
1892.00,0.0054
1891.75,0.0053
1891.50,0.0052
1891.25,0.0050
1891.00,0.0049
1890.75,0.0047
1890.50,0.0046
1890.25,0.0043
1890.00,0.0040
1889.75,0.0036
1889.50,0.0033
1889.25,0.0031
1889.00,0.0033
1888.75,0.0037
1888.50,0.0042
1888.25,0.0047
1888.00,0.0049
1887.75,0.0050
1887.50,0.0048
1887.25,0.0046
1887.00,0.0043
1886.75,0.0043
1886.50,0.0043
1886.25,0.0044
1886.00,0.0045
1885.75,0.0045
1885.50,0.0044
1885.25,0.0043
1885.00,0.0044
1884.75,0.0046
1884.50,0.0047
1884.25,0.0047
1884.00,0.0046
1883.75,0.0045
1883.50,0.0045
1883.25,0.0045
1883.00,0.0045
1882.75,0.0047
1882.50,0.0048
1882.25,0.0050
1882.00,0.0050
1881.75,0.0050
1881.50,0.0049
1881.25,0.0049
1881.00,0.0048
1880.75,0.0048
1880.50,0.0048
1880.25,0.0048
1880.00,0.0049
1879.75,0.0049
1879.50,0.0049
1879.25,0.0050
1879.00,0.0051
1878.75,0.0053
1878.50,0.0054
1878.25,0.0054
1878.00,0.0053
1877.75,0.0051
1877.50,0.0049
1877.25,0.0045
1877.00,0.0041
1876.75,0.0037
1876.50,0.0036
1876.25,0.0037
1876.00,0.0038
1875.75,0.0039
1875.50,0.0040
1875.25,0.0040
1875.00,0.0041
1874.75,0.0043
1874.50,0.0045
1874.25,0.0047
1874.00,0.0047
1873.75,0.0046
1873.50,0.0045
1873.25,0.0045
1873.00,0.0046
1872.75,0.0047
1872.50,0.0048
1872.25,0.0047
1872.00,0.0046
1871.75,0.0044
1871.50,0.0043
1871.25,0.0043
1871.00,0.0044
1870.75,0.0046
1870.50,0.0048
1870.25,0.0049
1870.00,0.0050
1869.75,0.0050
1869.50,0.0050
1869.25,0.0049
1869.00,0.0048
1868.75,0.0048
1868.50,0.0047
1868.25,0.0046
1868.00,0.0045
1867.75,0.0045
1867.50,0.0045
1867.25,0.0045
1867.00,0.0046
1866.75,0.0047
1866.50,0.0048
1866.25,0.0049
1866.00,0.0051
1865.75,0.0052
1865.50,0.0053
1865.25,0.0054
1865.00,0.0055
1864.75,0.0056
1864.50,0.0056
1864.25,0.0055
1864.00,0.0054
1863.75,0.0053
1863.50,0.0052
1863.25,0.0051
1863.00,0.0050
1862.75,0.0049
1862.50,0.0049
1862.25,0.0048
1862.00,0.0047
1861.75,0.0046
1861.50,0.0046
1861.25,0.0047
1861.00,0.0048
1860.75,0.0050
1860.50,0.0051
1860.25,0.0051
1860.00,0.0050
1859.75,0.0049
1859.50,0.0049
1859.25,0.0051
1859.00,0.0052
1858.75,0.0052
1858.50,0.0051
1858.25,0.0048
1858.00,0.0045
1857.75,0.0043
1857.50,0.0041
1857.25,0.0040
1857.00,0.0040
1856.75,0.0042
1856.50,0.0046
1856.25,0.0050
1856.00,0.0053
1855.75,0.0055
1855.50,0.0056
1855.25,0.0055
1855.00,0.0054
1854.75,0.0053
1854.50,0.0052
1854.25,0.0051
1854.00,0.0051
1853.75,0.0050
1853.50,0.0050
1853.25,0.0048
1853.00,0.0048
1852.75,0.0047
1852.50,0.0048
1852.25,0.0049
1852.00,0.0050
1851.75,0.0051
1851.50,0.0053
1851.25,0.0053
1851.00,0.0053
1850.75,0.0052
1850.50,0.0050
1850.25,0.0048
1850.00,0.0047
1849.75,0.0046
1849.50,0.0046
1849.25,0.0047
1849.00,0.0048
1848.75,0.0049
1848.50,0.0050
1848.25,0.0051
1848.00,0.0051
1847.75,0.0050
1847.50,0.0049
1847.25,0.0047
1847.00,0.0045
1846.75,0.0044
1846.50,0.0045
1846.25,0.0047
1846.00,0.0049
1845.75,0.0051
1845.50,0.0051
1845.25,0.0050
1845.00,0.0048
1844.75,0.0046
1844.50,0.0045
1844.25,0.0048
1844.00,0.0054
1843.75,0.0058
1843.50,0.0058
1843.25,0.0056
1843.00,0.0053
1842.75,0.0050
1842.50,0.0047
1842.25,0.0046
1842.00,0.0046
1841.75,0.0046
1841.50,0.0047
1841.25,0.0048
1841.00,0.0048
1840.75,0.0048
1840.50,0.0049
1840.25,0.0050
1840.00,0.0051
1839.75,0.0052
1839.50,0.0052
1839.25,0.0051
1839.00,0.0050
1838.75,0.0049
1838.50,0.0049
1838.25,0.0049
1838.00,0.0050
1837.75,0.0050
1837.50,0.0050
1837.25,0.0050
1837.00,0.0050
1836.75,0.0049
1836.50,0.0049
1836.25,0.0048
1836.00,0.0048
1835.75,0.0048
1835.50,0.0048
1835.25,0.0049
1835.00,0.0049
1834.75,0.0048
1834.50,0.0046
1834.25,0.0043
1834.00,0.0042
1833.75,0.0043
1833.50,0.0046
1833.25,0.0050
1833.00,0.0053
1832.75,0.0054
1832.50,0.0055
1832.25,0.0055
1832.00,0.0055
1831.75,0.0056
1831.50,0.0056
1831.25,0.0056
1831.00,0.0055
1830.75,0.0053
1830.50,0.0049
1830.25,0.0046
1830.00,0.0045
1829.75,0.0046
1829.50,0.0048
1829.25,0.0050
1829.00,0.0050
1828.75,0.0051
1828.50,0.0052
1828.25,0.0053
1828.00,0.0054
1827.75,0.0055
1827.50,0.0055
1827.25,0.0055
1827.00,0.0055
1826.75,0.0056
1826.50,0.0056
1826.25,0.0055
1826.00,0.0054
1825.75,0.0052
1825.50,0.0050
1825.25,0.0048
1825.00,0.0047
1824.75,0.0047
1824.50,0.0048
1824.25,0.0047
1824.00,0.0047
1823.75,0.0048
1823.50,0.0049
1823.25,0.0051
1823.00,0.0053
1822.75,0.0055
1822.50,0.0057
1822.25,0.0057
1822.00,0.0057
1821.75,0.0056
1821.50,0.0056
1821.25,0.0056
1821.00,0.0055
1820.75,0.0055
1820.50,0.0054
1820.25,0.0054
1820.00,0.0053
1819.75,0.0052
1819.50,0.0051
1819.25,0.0050
1819.00,0.0051
1818.75,0.0052
1818.50,0.0053
1818.25,0.0053
1818.00,0.0051
1817.75,0.0049
1817.50,0.0047
1817.25,0.0047
1817.00,0.0048
1816.75,0.0050
1816.50,0.0052
1816.25,0.0053
1816.00,0.0053
1815.75,0.0053
1815.50,0.0053
1815.25,0.0053
1815.00,0.0054
1814.75,0.0054
1814.50,0.0053
1814.25,0.0051
1814.00,0.0050
1813.75,0.0051
1813.50,0.0053
1813.25,0.0054
1813.00,0.0056
1812.75,0.0056
1812.50,0.0056
1812.25,0.0056
1812.00,0.0056
1811.75,0.0056
1811.50,0.0056
1811.25,0.0056
1811.00,0.0054
1810.75,0.0053
1810.50,0.0052
1810.25,0.0052
1810.00,0.0052
1809.75,0.0053
1809.50,0.0053
1809.25,0.0054
1809.00,0.0054
1808.75,0.0053
1808.50,0.0052
1808.25,0.0051
1808.00,0.0050
1807.75,0.0051
1807.50,0.0051
1807.25,0.0051
1807.00,0.0051
1806.75,0.0051
1806.50,0.0051
1806.25,0.0052
1806.00,0.0053
1805.75,0.0054
1805.50,0.0055
1805.25,0.0054
1805.00,0.0054
1804.75,0.0053
1804.50,0.0052
1804.25,0.0052
1804.00,0.0053
1803.75,0.0054
1803.50,0.0053
1803.25,0.0052
1803.00,0.0051
1802.75,0.0050
1802.50,0.0051
1802.25,0.0052
1802.00,0.0053
1801.75,0.0053
1801.50,0.0051
1801.25,0.0050
1801.00,0.0050
1800.75,0.0051
1800.50,0.0052
1800.25,0.0053
1800.00,0.0054
1799.75,0.0056
1799.50,0.0057
1799.25,0.0057
1799.00,0.0056
1798.75,0.0055
1798.50,0.0054
1798.25,0.0053
1798.00,0.0052
1797.75,0.0051
1797.50,0.0049
1797.25,0.0049
1797.00,0.0049
1796.75,0.0050
1796.50,0.0052
1796.25,0.0053
1796.00,0.0055
1795.75,0.0055
1795.50,0.0055
1795.25,0.0055
1795.00,0.0054
1794.75,0.0053
1794.50,0.0052
1794.25,0.0052
1794.00,0.0052
1793.75,0.0051
1793.50,0.0051
1793.25,0.0051
1793.00,0.0050
1792.75,0.0048
1792.50,0.0048
1792.25,0.0049
1792.00,0.0051
1791.75,0.0053
1791.50,0.0053
1791.25,0.0052
1791.00,0.0051
1790.75,0.0051
1790.50,0.0051
1790.25,0.0053
1790.00,0.0054
1789.75,0.0056
1789.50,0.0058
1789.25,0.0060
1789.00,0.0061
1788.75,0.0062
1788.50,0.0061
1788.25,0.0059
1788.00,0.0056
1787.75,0.0054
1787.50,0.0053
1787.25,0.0052
1787.00,0.0052
1786.75,0.0052
1786.50,0.0053
1786.25,0.0053
1786.00,0.0053
1785.75,0.0053
1785.50,0.0053
1785.25,0.0053
1785.00,0.0052
1784.75,0.0052
1784.50,0.0053
1784.25,0.0055
1784.00,0.0056
1783.75,0.0057
1783.50,0.0058
1783.25,0.0058
1783.00,0.0058
1782.75,0.0058
1782.50,0.0059
1782.25,0.0060
1782.00,0.0060
1781.75,0.0060
1781.50,0.0058
1781.25,0.0057
1781.00,0.0057
1780.75,0.0058
1780.50,0.0059
1780.25,0.0059
1780.00,0.0057
1779.75,0.0055
1779.50,0.0055
1779.25,0.0055
1779.00,0.0056
1778.75,0.0057
1778.50,0.0057
1778.25,0.0057
1778.00,0.0056
1777.75,0.0056
1777.50,0.0056
1777.25,0.0057
1777.00,0.0058
1776.75,0.0059
1776.50,0.0060
1776.25,0.0061
1776.00,0.0062
1775.75,0.0062
1775.50,0.0060
1775.25,0.0057
1775.00,0.0054
1774.75,0.0052
1774.50,0.0052
1774.25,0.0053
1774.00,0.0056
1773.75,0.0058
1773.50,0.0059
1773.25,0.0059
1773.00,0.0058
1772.75,0.0057
1772.50,0.0057
1772.25,0.0057
1772.00,0.0057
1771.75,0.0057
1771.50,0.0058
1771.25,0.0059
1771.00,0.0061
1770.75,0.0062
1770.50,0.0062
1770.25,0.0061
1770.00,0.0060
1769.75,0.0059
1769.50,0.0058
1769.25,0.0057
1769.00,0.0056
1768.75,0.0055
1768.50,0.0053
1768.25,0.0052
1768.00,0.0052
1767.75,0.0052
1767.50,0.0053
1767.25,0.0053
1767.00,0.0054
1766.75,0.0055
1766.50,0.0056
1766.25,0.0057
1766.00,0.0058
1765.75,0.0057
1765.50,0.0056
1765.25,0.0056
1765.00,0.0056
1764.75,0.0056
1764.50,0.0057
1764.25,0.0056
1764.00,0.0056
1763.75,0.0055
1763.50,0.0055
1763.25,0.0056
1763.00,0.0057
1762.75,0.0057
1762.50,0.0056
1762.25,0.0054
1762.00,0.0051
1761.75,0.0050
1761.50,0.0051
1761.25,0.0054
1761.00,0.0056
1760.75,0.0055
1760.50,0.0055
1760.25,0.0054
1760.00,0.0053
1759.75,0.0054
1759.50,0.0054
1759.25,0.0054
1759.00,0.0054
1758.75,0.0054
1758.50,0.0055
1758.25,0.0057
1758.00,0.0058
1757.75,0.0059
1757.50,0.0060
1757.25,0.0061
1757.00,0.0062
1756.75,0.0063
1756.50,0.0063
1756.25,0.0062
1756.00,0.0061
1755.75,0.0059
1755.50,0.0057
1755.25,0.0057
1755.00,0.0057
1754.75,0.0058
1754.50,0.0058
1754.25,0.0058
1754.00,0.0057
1753.75,0.0056
1753.50,0.0055
1753.25,0.0055
1753.00,0.0055
1752.75,0.0056
1752.50,0.0057
1752.25,0.0057
1752.00,0.0057
1751.75,0.0056
1751.50,0.0055
1751.25,0.0055
1751.00,0.0054
1750.75,0.0054
1750.50,0.0054
1750.25,0.0055
1750.00,0.0056
1749.75,0.0056
1749.50,0.0056
1749.25,0.0056
1749.00,0.0057
1748.75,0.0058
1748.50,0.0059
1748.25,0.0059
1748.00,0.0058
1747.75,0.0057
1747.50,0.0057
1747.25,0.0057
1747.00,0.0058
1746.75,0.0059
1746.50,0.0059
1746.25,0.0059
1746.00,0.0059
1745.75,0.0058
1745.50,0.0058
1745.25,0.0058
1745.00,0.0058
1744.75,0.0059
1744.50,0.0059
1744.25,0.0059
1744.00,0.0059
1743.75,0.0058
1743.50,0.0057
1743.25,0.0056
1743.00,0.0055
1742.75,0.0054
1742.50,0.0054
1742.25,0.0055
1742.00,0.0056
1741.75,0.0057
1741.50,0.0057
1741.25,0.0057
1741.00,0.0057
1740.75,0.0056
1740.50,0.0056
1740.25,0.0056
1740.00,0.0056
1739.75,0.0058
1739.50,0.0059
1739.25,0.0059
1739.00,0.0058
1738.75,0.0057
1738.50,0.0055
1738.25,0.0054
1738.00,0.0053
1737.75,0.0054
1737.50,0.0055
1737.25,0.0056
1737.00,0.0056
1736.75,0.0057
1736.50,0.0058
1736.25,0.0059
1736.00,0.0060
1735.75,0.0061
1735.50,0.0061
1735.25,0.0061
1735.00,0.0061
1734.75,0.0061
1734.50,0.0061
1734.25,0.0062
1734.00,0.0064
1733.75,0.0065
1733.50,0.0065
1733.25,0.0064
1733.00,0.0061
1732.75,0.0059
1732.50,0.0057
1732.25,0.0056
1732.00,0.0057
1731.75,0.0058
1731.50,0.0060
1731.25,0.0062
1731.00,0.0064
1730.75,0.0066
1730.50,0.0067
1730.25,0.0068
1730.00,0.0065
1729.75,0.0060
1729.50,0.0057
1729.25,0.0055
1729.00,0.0056
1728.75,0.0057
1728.50,0.0058
1728.25,0.0059
1728.00,0.0059
1727.75,0.0059
1727.50,0.0059
1727.25,0.0059
1727.00,0.0060
1726.75,0.0060
1726.50,0.0060
1726.25,0.0060
1726.00,0.0060
1725.75,0.0059
1725.50,0.0059
1725.25,0.0058
1725.00,0.0058
1724.75,0.0059
1724.50,0.0060
1724.25,0.0061
1724.00,0.0061
1723.75,0.0061
1723.50,0.0061
1723.25,0.0060
1723.00,0.0060
1722.75,0.0060
1722.50,0.0060
1722.25,0.0061
1722.00,0.0062
1721.75,0.0062
1721.50,0.0061
1721.25,0.0061
1721.00,0.0060
1720.75,0.0060
1720.50,0.0059
1720.25,0.0059
1720.00,0.0059
1719.75,0.0059
1719.50,0.0060
1719.25,0.0060
1719.00,0.0059
1718.75,0.0057
1718.50,0.0056
1718.25,0.0055
1718.00,0.0054
1717.75,0.0052
1717.50,0.0049
1717.25,0.0047
1717.00,0.0050
1716.75,0.0054
1716.50,0.0057
1716.25,0.0059
1716.00,0.0060
1715.75,0.0060
1715.50,0.0059
1715.25,0.0058
1715.00,0.0057
1714.75,0.0056
1714.50,0.0057
1714.25,0.0058
1714.00,0.0060
1713.75,0.0061
1713.50,0.0061
1713.25,0.0060
1713.00,0.0060
1712.75,0.0059
1712.50,0.0058
1712.25,0.0058
1712.00,0.0058
1711.75,0.0059
1711.50,0.0060
1711.25,0.0062
1711.00,0.0063
1710.75,0.0064
1710.50,0.0064
1710.25,0.0063
1710.00,0.0061
1709.75,0.0060
1709.50,0.0060
1709.25,0.0060
1709.00,0.0059
1708.75,0.0059
1708.50,0.0058
1708.25,0.0057
1708.00,0.0057
1707.75,0.0057
1707.50,0.0057
1707.25,0.0057
1707.00,0.0057
1706.75,0.0056
1706.50,0.0056
1706.25,0.0056
1706.00,0.0058
1705.75,0.0060
1705.50,0.0062
1705.25,0.0062
1705.00,0.0062
1704.75,0.0062
1704.50,0.0061
1704.25,0.0060
1704.00,0.0059
1703.75,0.0060
1703.50,0.0060
1703.25,0.0061
1703.00,0.0061
1702.75,0.0061
1702.50,0.0061
1702.25,0.0060
1702.00,0.0059
1701.75,0.0059
1701.50,0.0060
1701.25,0.0063
1701.00,0.0068
1700.75,0.0075
1700.50,0.0081
1700.25,0.0075
1700.00,0.0058
1699.75,0.0057
1699.50,0.0059
1699.25,0.0060
1699.00,0.0061
1698.75,0.0060
1698.50,0.0059
1698.25,0.0058
1698.00,0.0057
1697.75,0.0057
1697.50,0.0057
1697.25,0.0058
1697.00,0.0059
1696.75,0.0059
1696.50,0.0058
1696.25,0.0058
1696.00,0.0060
1695.75,0.0064
1695.50,0.0065
1695.25,0.0064
1695.00,0.0063
1694.75,0.0062
1694.50,0.0061
1694.25,0.0061
1694.00,0.0061
1693.75,0.0060
1693.50,0.0060
1693.25,0.0060
1693.00,0.0060
1692.75,0.0061
1692.50,0.0063
1692.25,0.0064
1692.00,0.0065
1691.75,0.0065
1691.50,0.0064
1691.25,0.0061
1691.00,0.0059
1690.75,0.0058
1690.50,0.0057
1690.25,0.0058
1690.00,0.0060
1689.75,0.0061
1689.50,0.0061
1689.25,0.0061
1689.00,0.0061
1688.75,0.0062
1688.50,0.0062
1688.25,0.0062
1688.00,0.0062
1687.75,0.0061
1687.50,0.0061
1687.25,0.0061
1687.00,0.0061
1686.75,0.0061
1686.50,0.0060
1686.25,0.0060
1686.00,0.0060
1685.75,0.0060
1685.50,0.0060
1685.25,0.0061
1685.00,0.0063
1684.75,0.0064
1684.50,0.0063
1684.25,0.0060
1684.00,0.0058
1683.75,0.0056
1683.50,0.0055
1683.25,0.0055
1683.00,0.0055
1682.75,0.0057
1682.50,0.0058
1682.25,0.0058
1682.00,0.0058
1681.75,0.0059
1681.50,0.0059
1681.25,0.0060
1681.00,0.0061
1680.75,0.0061
1680.50,0.0061
1680.25,0.0061
1680.00,0.0061
1679.75,0.0061
1679.50,0.0061
1679.25,0.0060
1679.00,0.0060
1678.75,0.0061
1678.50,0.0062
1678.25,0.0063
1678.00,0.0064
1677.75,0.0065
1677.50,0.0066
1677.25,0.0066
1677.00,0.0066
1676.75,0.0064
1676.50,0.0062
1676.25,0.0059
1676.00,0.0056
1675.75,0.0052
1675.50,0.0048
1675.25,0.0047
1675.00,0.0052
1674.75,0.0057
1674.50,0.0058
1674.25,0.0058
1674.00,0.0058
1673.75,0.0059
1673.50,0.0061
1673.25,0.0062
1673.00,0.0063
1672.75,0.0064
1672.50,0.0063
1672.25,0.0062
1672.00,0.0061
1671.75,0.0061
1671.50,0.0061
1671.25,0.0062
1671.00,0.0062
1670.75,0.0061
1670.50,0.0060
1670.25,0.0060
1670.00,0.0061
1669.75,0.0062
1669.50,0.0064
1669.25,0.0066
1669.00,0.0067
1668.75,0.0066
1668.50,0.0063
1668.25,0.0061
1668.00,0.0060
1667.75,0.0061
1667.50,0.0062
1667.25,0.0062
1667.00,0.0063
1666.75,0.0062
1666.50,0.0062
1666.25,0.0062
1666.00,0.0062
1665.75,0.0062
1665.50,0.0062
1665.25,0.0062
1665.00,0.0062
1664.75,0.0061
1664.50,0.0060
1664.25,0.0059
1664.00,0.0059
1663.75,0.0060
1663.50,0.0060
1663.25,0.0061
1663.00,0.0061
1662.75,0.0061
1662.50,0.0063
1662.25,0.0065
1662.00,0.0066
1661.75,0.0066
1661.50,0.0065
1661.25,0.0063
1661.00,0.0062
1660.75,0.0061
1660.50,0.0061
1660.25,0.0062
1660.00,0.0062
1659.75,0.0063
1659.50,0.0063
1659.25,0.0063
1659.00,0.0064
1658.75,0.0064
1658.50,0.0064
1658.25,0.0064
1658.00,0.0064
1657.75,0.0063
1657.50,0.0063
1657.25,0.0062
1657.00,0.0061
1656.75,0.0061
1656.50,0.0061
1656.25,0.0061
1656.00,0.0061
1655.75,0.0061
1655.50,0.0061
1655.25,0.0061
1655.00,0.0060
1654.75,0.0059
1654.50,0.0058
1654.25,0.0055
1654.00,0.0053
1653.75,0.0049
1653.50,0.0045
1653.25,0.0039
1653.00,0.0035
1652.75,0.0040
1652.50,0.0047
1652.25,0.0054
1652.00,0.0057
1651.75,0.0058
1651.50,0.0058
1651.25,0.0059
1651.00,0.0060
1650.75,0.0061
1650.50,0.0063
1650.25,0.0064
1650.00,0.0065
1649.75,0.0067
1649.50,0.0067
1649.25,0.0068
1649.00,0.0068
1648.75,0.0068
1648.50,0.0067
1648.25,0.0065
1648.00,0.0062
1647.75,0.0059
1647.50,0.0057
1647.25,0.0057
1647.00,0.0058
1646.75,0.0059
1646.50,0.0060
1646.25,0.0061
1646.00,0.0063
1645.75,0.0063
1645.50,0.0062
1645.25,0.0061
1645.00,0.0061
1644.75,0.0061
1644.50,0.0062
1644.25,0.0063
1644.00,0.0064
1643.75,0.0064
1643.50,0.0065
1643.25,0.0066
1643.00,0.0066
1642.75,0.0066
1642.50,0.0067
1642.25,0.0067
1642.00,0.0067
1641.75,0.0067
1641.50,0.0067
1641.25,0.0067
1641.00,0.0067
1640.75,0.0067
1640.50,0.0066
1640.25,0.0065
1640.00,0.0065
1639.75,0.0064
1639.50,0.0064
1639.25,0.0065
1639.00,0.0066
1638.75,0.0066
1638.50,0.0067
1638.25,0.0067
1638.00,0.0067
1637.75,0.0067
1637.50,0.0066
1637.25,0.0065
1637.00,0.0063
1636.75,0.0063
1636.50,0.0063
1636.25,0.0064
1636.00,0.0066
1635.75,0.0069
1635.50,0.0070
1635.25,0.0067
1635.00,0.0063
1634.75,0.0063
1634.50,0.0064
1634.25,0.0064
1634.00,0.0064
1633.75,0.0063
1633.50,0.0063
1633.25,0.0063
1633.00,0.0064
1632.75,0.0064
1632.50,0.0066
1632.25,0.0067
1632.00,0.0067
1631.75,0.0066
1631.50,0.0065
1631.25,0.0064
1631.00,0.0063
1630.75,0.0064
1630.50,0.0065
1630.25,0.0065
1630.00,0.0066
1629.75,0.0066
1629.50,0.0066
1629.25,0.0066
1629.00,0.0066
1628.75,0.0067
1628.50,0.0066
1628.25,0.0065
1628.00,0.0064
1627.75,0.0063
1627.50,0.0063
1627.25,0.0063
1627.00,0.0063
1626.75,0.0063
1626.50,0.0063
1626.25,0.0064
1626.00,0.0064
1625.75,0.0064
1625.50,0.0064
1625.25,0.0065
1625.00,0.0065
1624.75,0.0064
1624.50,0.0064
1624.25,0.0064
1624.00,0.0063
1623.75,0.0063
1623.50,0.0063
1623.25,0.0063
1623.00,0.0063
1622.75,0.0062
1622.50,0.0062
1622.25,0.0062
1622.00,0.0063
1621.75,0.0064
1621.50,0.0064
1621.25,0.0065
1621.00,0.0064
1620.75,0.0064
1620.50,0.0064
1620.25,0.0063
1620.00,0.0063
1619.75,0.0063
1619.50,0.0063
1619.25,0.0063
1619.00,0.0064
1618.75,0.0064
1618.50,0.0065
1618.25,0.0067
1618.00,0.0068
1617.75,0.0068
1617.50,0.0069
1617.25,0.0070
1617.00,0.0071
1616.75,0.0071
1616.50,0.0067
1616.25,0.0062
1616.00,0.0061
1615.75,0.0061
1615.50,0.0061
1615.25,0.0063
1615.00,0.0064
1614.75,0.0066
1614.50,0.0066
1614.25,0.0066
1614.00,0.0066
1613.75,0.0066
1613.50,0.0066
1613.25,0.0067
1613.00,0.0067
1612.75,0.0066
1612.50,0.0066
1612.25,0.0065
1612.00,0.0066
1611.75,0.0066
1611.50,0.0066
1611.25,0.0067
1611.00,0.0067
1610.75,0.0067
1610.50,0.0066
1610.25,0.0067
1610.00,0.0067
1609.75,0.0068
1609.50,0.0069
1609.25,0.0069
1609.00,0.0068
1608.75,0.0066
1608.50,0.0066
1608.25,0.0065
1608.00,0.0065
1607.75,0.0066
1607.50,0.0067
1607.25,0.0069
1607.00,0.0070
1606.75,0.0071
1606.50,0.0071
1606.25,0.0070
1606.00,0.0069
1605.75,0.0068
1605.50,0.0067
1605.25,0.0067
1605.00,0.0067
1604.75,0.0066
1604.50,0.0066
1604.25,0.0066
1604.00,0.0066
1603.75,0.0067
1603.50,0.0067
1603.25,0.0067
1603.00,0.0067
1602.75,0.0067
1602.50,0.0067
1602.25,0.0067
1602.00,0.0067
1601.75,0.0067
1601.50,0.0067
1601.25,0.0067
1601.00,0.0067
1600.75,0.0067
1600.50,0.0067
1600.25,0.0067
1600.00,0.0067
1599.75,0.0068
1599.50,0.0068
1599.25,0.0069
1599.00,0.0069
1598.75,0.0069
1598.50,0.0069
1598.25,0.0068
1598.00,0.0068
1597.75,0.0068
1597.50,0.0068
1597.25,0.0068
1597.00,0.0069
1596.75,0.0070
1596.50,0.0071
1596.25,0.0072
1596.00,0.0072
1595.75,0.0073
1595.50,0.0073
1595.25,0.0073
1595.00,0.0072
1594.75,0.0072
1594.50,0.0071
1594.25,0.0069
1594.00,0.0068
1593.75,0.0067
1593.50,0.0067
1593.25,0.0068
1593.00,0.0068
1592.75,0.0069
1592.50,0.0070
1592.25,0.0070
1592.00,0.0071
1591.75,0.0071
1591.50,0.0071
1591.25,0.0071
1591.00,0.0071
1590.75,0.0071
1590.50,0.0071
1590.25,0.0071
1590.00,0.0070
1589.75,0.0069
1589.50,0.0069
1589.25,0.0069
1589.00,0.0069
1588.75,0.0069
1588.50,0.0069
1588.25,0.0069
1588.00,0.0069
1587.75,0.0069
1587.50,0.0068
1587.25,0.0068
1587.00,0.0067
1586.75,0.0066
1586.50,0.0066
1586.25,0.0066
1586.00,0.0068
1585.75,0.0068
1585.50,0.0069
1585.25,0.0069
1585.00,0.0069
1584.75,0.0069
1584.50,0.0069
1584.25,0.0069
1584.00,0.0068
1583.75,0.0067
1583.50,0.0066
1583.25,0.0066
1583.00,0.0066
1582.75,0.0067
1582.50,0.0068
1582.25,0.0069
1582.00,0.0070
1581.75,0.0070
1581.50,0.0069
1581.25,0.0068
1581.00,0.0068
1580.75,0.0067
1580.50,0.0067
1580.25,0.0067
1580.00,0.0068
1579.75,0.0069
1579.50,0.0070
1579.25,0.0070
1579.00,0.0069
1578.75,0.0067
1578.50,0.0065
1578.25,0.0065
1578.00,0.0065
1577.75,0.0066
1577.50,0.0067
1577.25,0.0068
1577.00,0.0068
1576.75,0.0067
1576.50,0.0065
1576.25,0.0061
1576.00,0.0056
1575.75,0.0055
1575.50,0.0057
1575.25,0.0059
1575.00,0.0060
1574.75,0.0061
1574.50,0.0063
1574.25,0.0063
1574.00,0.0064
1573.75,0.0064
1573.50,0.0064
1573.25,0.0064
1573.00,0.0064
1572.75,0.0065
1572.50,0.0065
1572.25,0.0064
1572.00,0.0064
1571.75,0.0064
1571.50,0.0064
1571.25,0.0065
1571.00,0.0067
1570.75,0.0068
1570.50,0.0069
1570.25,0.0069
1570.00,0.0067
1569.75,0.0063
1569.50,0.0060
1569.25,0.0058
1569.00,0.0058
1568.75,0.0058
1568.50,0.0059
1568.25,0.0061
1568.00,0.0062
1567.75,0.0064
1567.50,0.0066
1567.25,0.0067
1567.00,0.0067
1566.75,0.0067
1566.50,0.0067
1566.25,0.0067
1566.00,0.0068
1565.75,0.0068
1565.50,0.0069
1565.25,0.0069
1565.00,0.0068
1564.75,0.0067
1564.50,0.0065
1564.25,0.0064
1564.00,0.0065
1563.75,0.0066
1563.50,0.0066
1563.25,0.0066
1563.00,0.0065
1562.75,0.0064
1562.50,0.0063
1562.25,0.0063
1562.00,0.0063
1561.75,0.0064
1561.50,0.0064
1561.25,0.0064
1561.00,0.0063
1560.75,0.0062
1560.50,0.0061
1560.25,0.0060
1560.00,0.0059
1559.75,0.0062
1559.50,0.0064
1559.25,0.0065
1559.00,0.0066
1558.75,0.0069
1558.50,0.0073
1558.25,0.0078
1558.00,0.0077
1557.75,0.0070
1557.50,0.0065
1557.25,0.0063
1557.00,0.0063
1556.75,0.0063
1556.50,0.0063
1556.25,0.0064
1556.00,0.0064
1555.75,0.0065
1555.50,0.0067
1555.25,0.0068
1555.00,0.0069
1554.75,0.0069
1554.50,0.0069
1554.25,0.0068
1554.00,0.0067
1553.75,0.0066
1553.50,0.0065
1553.25,0.0063
1553.00,0.0062
1552.75,0.0061
1552.50,0.0061
1552.25,0.0061
1552.00,0.0062
1551.75,0.0062
1551.50,0.0063
1551.25,0.0063
1551.00,0.0062
1550.75,0.0061
1550.50,0.0060
1550.25,0.0060
1550.00,0.0061
1549.75,0.0061
1549.50,0.0062
1549.25,0.0063
1549.00,0.0065
1548.75,0.0065
1548.50,0.0066
1548.25,0.0065
1548.00,0.0064
1547.75,0.0064
1547.50,0.0064
1547.25,0.0064
1547.00,0.0064
1546.75,0.0063
1546.50,0.0063
1546.25,0.0062
1546.00,0.0062
1545.75,0.0061
1545.50,0.0060
1545.25,0.0060
1545.00,0.0060
1544.75,0.0060
1544.50,0.0061
1544.25,0.0061
1544.00,0.0060
1543.75,0.0058
1543.50,0.0057
1543.25,0.0057
1543.00,0.0059
1542.75,0.0062
1542.50,0.0067
1542.25,0.0072
1542.00,0.0073
1541.75,0.0070
1541.50,0.0065
1541.25,0.0062
1541.00,0.0062
1540.75,0.0063
1540.50,0.0066
1540.25,0.0070
1540.00,0.0070
1539.75,0.0068
1539.50,0.0066
1539.25,0.0065
1539.00,0.0066
1538.75,0.0065
1538.50,0.0063
1538.25,0.0060
1538.00,0.0058
1537.75,0.0058
1537.50,0.0058
1537.25,0.0059
1537.00,0.0060
1536.75,0.0061
1536.50,0.0062
1536.25,0.0063
1536.00,0.0064
1535.75,0.0065
1535.50,0.0066
1535.25,0.0066
1535.00,0.0065
1534.75,0.0065
1534.50,0.0064
1534.25,0.0063
1534.00,0.0061
1533.75,0.0058
1533.50,0.0055
1533.25,0.0054
1533.00,0.0055
1532.75,0.0058
1532.50,0.0060
1532.25,0.0062
1532.00,0.0063
1531.75,0.0064
1531.50,0.0063
1531.25,0.0062
1531.00,0.0061
1530.75,0.0061
1530.50,0.0062
1530.25,0.0063
1530.00,0.0063
1529.75,0.0064
1529.50,0.0064
1529.25,0.0064
1529.00,0.0064
1528.75,0.0064
1528.50,0.0064
1528.25,0.0063
1528.00,0.0062
1527.75,0.0061
1527.50,0.0060
1527.25,0.0060
1527.00,0.0060
1526.75,0.0061
1526.50,0.0062
1526.25,0.0063
1526.00,0.0065
1525.75,0.0066
1525.50,0.0066
1525.25,0.0067
1525.00,0.0067
1524.75,0.0067
1524.50,0.0066
1524.25,0.0065
1524.00,0.0064
1523.75,0.0064
1523.50,0.0063
1523.25,0.0064
1523.00,0.0066
1522.75,0.0069
1522.50,0.0070
1522.25,0.0069
1522.00,0.0066
1521.75,0.0064
1521.50,0.0063
1521.25,0.0063
1521.00,0.0063
1520.75,0.0063
1520.50,0.0062
1520.25,0.0061
1520.00,0.0061
1519.75,0.0061
1519.50,0.0061
1519.25,0.0061
1519.00,0.0060
1518.75,0.0061
1518.50,0.0061
1518.25,0.0061
1518.00,0.0061
1517.75,0.0061
1517.50,0.0062
1517.25,0.0064
1517.00,0.0065
1516.75,0.0065
1516.50,0.0064
1516.25,0.0062
1516.00,0.0061
1515.75,0.0061
1515.50,0.0061
1515.25,0.0062
1515.00,0.0063
1514.75,0.0064
1514.50,0.0064
1514.25,0.0063
1514.00,0.0062
1513.75,0.0061
1513.50,0.0061
1513.25,0.0061
1513.00,0.0061
1512.75,0.0060
1512.50,0.0060
1512.25,0.0060
1512.00,0.0061
1511.75,0.0061
1511.50,0.0061
1511.25,0.0062
1511.00,0.0062
1510.75,0.0062
1510.50,0.0061
1510.25,0.0060
1510.00,0.0059
1509.75,0.0058
1509.50,0.0058
1509.25,0.0059
1509.00,0.0058
1508.75,0.0058
1508.50,0.0057
1508.25,0.0056
1508.00,0.0054
1507.75,0.0052
1507.50,0.0050
1507.25,0.0048
1507.00,0.0049
1506.75,0.0051
1506.50,0.0052
1506.25,0.0050
1506.00,0.0046
1505.75,0.0043
1505.50,0.0044
1505.25,0.0048
1505.00,0.0052
1504.75,0.0053
1504.50,0.0054
1504.25,0.0055
1504.00,0.0056
1503.75,0.0058
1503.50,0.0059
1503.25,0.0060
1503.00,0.0061
1502.75,0.0062
1502.50,0.0062
1502.25,0.0062
1502.00,0.0061
1501.75,0.0060
1501.50,0.0059
1501.25,0.0058
1501.00,0.0057
1500.75,0.0057
1500.50,0.0057
1500.25,0.0058
1500.00,0.0058
1499.75,0.0059
1499.50,0.0060
1499.25,0.0061
1499.00,0.0063
1498.75,0.0065
1498.50,0.0065
1498.25,0.0064
1498.00,0.0062
1497.75,0.0060
1497.50,0.0059
1497.25,0.0058
1497.00,0.0059
1496.75,0.0060
1496.50,0.0062
1496.25,0.0062
1496.00,0.0059
1495.75,0.0055
1495.50,0.0054
1495.25,0.0055
1495.00,0.0056
1494.75,0.0058
1494.50,0.0060
1494.25,0.0061
1494.00,0.0061
1493.75,0.0062
1493.50,0.0064
1493.25,0.0066
1493.00,0.0067
1492.75,0.0066
1492.50,0.0065
1492.25,0.0064
1492.00,0.0062
1491.75,0.0060
1491.50,0.0058
1491.25,0.0058
1491.00,0.0059
1490.75,0.0060
1490.50,0.0061
1490.25,0.0061
1490.00,0.0061
1489.75,0.0062
1489.50,0.0063
1489.25,0.0063
1489.00,0.0062
1488.75,0.0061
1488.50,0.0060
1488.25,0.0060
1488.00,0.0061
1487.75,0.0062
1487.50,0.0063
1487.25,0.0064
1487.00,0.0064
1486.75,0.0064
1486.50,0.0063
1486.25,0.0062
1486.00,0.0062
1485.75,0.0062
1485.50,0.0061
1485.25,0.0061
1485.00,0.0061
1484.75,0.0061
1484.50,0.0062
1484.25,0.0064
1484.00,0.0065
1483.75,0.0066
1483.50,0.0067
1483.25,0.0068
1483.00,0.0068
1482.75,0.0068
1482.50,0.0067
1482.25,0.0066
1482.00,0.0065
1481.75,0.0065
1481.50,0.0065
1481.25,0.0065
1481.00,0.0066
1480.75,0.0067
1480.50,0.0067
1480.25,0.0067
1480.00,0.0067
1479.75,0.0066
1479.50,0.0065
1479.25,0.0065
1479.00,0.0064
1478.75,0.0064
1478.50,0.0065
1478.25,0.0066
1478.00,0.0067
1477.75,0.0068
1477.50,0.0068
1477.25,0.0067
1477.00,0.0066
1476.75,0.0064
1476.50,0.0062
1476.25,0.0061
1476.00,0.0061
1475.75,0.0062
1475.50,0.0063
1475.25,0.0064
1475.00,0.0064
1474.75,0.0064
1474.50,0.0064
1474.25,0.0065
1474.00,0.0065
1473.75,0.0066
1473.50,0.0067
1473.25,0.0067
1473.00,0.0066
1472.75,0.0065
1472.50,0.0065
1472.25,0.0065
1472.00,0.0066
1471.75,0.0067
1471.50,0.0066
1471.25,0.0066
1471.00,0.0066
1470.75,0.0066
1470.50,0.0066
1470.25,0.0067
1470.00,0.0068
1469.75,0.0069
1469.50,0.0070
1469.25,0.0069
1469.00,0.0069
1468.75,0.0068
1468.50,0.0068
1468.25,0.0069
1468.00,0.0069
1467.75,0.0069
1467.50,0.0069
1467.25,0.0068
1467.00,0.0068
1466.75,0.0068
1466.50,0.0068
1466.25,0.0069
1466.00,0.0070
1465.75,0.0071
1465.50,0.0072
1465.25,0.0073
1465.00,0.0074
1464.75,0.0075
1464.50,0.0075
1464.25,0.0074
1464.00,0.0074
1463.75,0.0073
1463.50,0.0073
1463.25,0.0073
1463.00,0.0073
1462.75,0.0073
1462.50,0.0074
1462.25,0.0074
1462.00,0.0075
1461.75,0.0075
1461.50,0.0076
1461.25,0.0076
1461.00,0.0076
1460.75,0.0076
1460.50,0.0076
1460.25,0.0076
1460.00,0.0075
1459.75,0.0074
1459.50,0.0073
1459.25,0.0073
1459.00,0.0073
1458.75,0.0073
1458.50,0.0072
1458.25,0.0071
1458.00,0.0071
1457.75,0.0071
1457.50,0.0072
1457.25,0.0072
1457.00,0.0075
1456.75,0.0078
1456.50,0.0081
1456.25,0.0082
1456.00,0.0082
1455.75,0.0081
1455.50,0.0081
1455.25,0.0081
1455.00,0.0081
1454.75,0.0082
1454.50,0.0083
1454.25,0.0084
1454.00,0.0085
1453.75,0.0084
1453.50,0.0083
1453.25,0.0082
1453.00,0.0082
1452.75,0.0082
1452.50,0.0084
1452.25,0.0085
1452.00,0.0087
1451.75,0.0088
1451.50,0.0089
1451.25,0.0089
1451.00,0.0089
1450.75,0.0089
1450.50,0.0088
1450.25,0.0088
1450.00,0.0088
1449.75,0.0088
1449.50,0.0088
1449.25,0.0090
1449.00,0.0091
1448.75,0.0093
1448.50,0.0093
1448.25,0.0093
1448.00,0.0092
1447.75,0.0091
1447.50,0.0091
1447.25,0.0092
1447.00,0.0093
1446.75,0.0094
1446.50,0.0095
1446.25,0.0096
1446.00,0.0098
1445.75,0.0099
1445.50,0.0100
1445.25,0.0100
1445.00,0.0100
1444.75,0.0099
1444.50,0.0098
1444.25,0.0098
1444.00,0.0097
1443.75,0.0097
1443.50,0.0097
1443.25,0.0097
1443.00,0.0097
1442.75,0.0097
1442.50,0.0097
1442.25,0.0096
1442.00,0.0096
1441.75,0.0095
1441.50,0.0094
1441.25,0.0092
1441.00,0.0090
1440.75,0.0089
1440.50,0.0089
1440.25,0.0090
1440.00,0.0090
1439.75,0.0090
1439.50,0.0091
1439.25,0.0091
1439.00,0.0091
1438.75,0.0090
1438.50,0.0089
1438.25,0.0088
1438.00,0.0088
1437.75,0.0089
1437.50,0.0090
1437.25,0.0093
1437.00,0.0095
1436.75,0.0096
1436.50,0.0094
1436.25,0.0092
1436.00,0.0089
1435.75,0.0087
1435.50,0.0085
1435.25,0.0084
1435.00,0.0083
1434.75,0.0082
1434.50,0.0082
1434.25,0.0083
1434.00,0.0084
1433.75,0.0084
1433.50,0.0085
1433.25,0.0084
1433.00,0.0084
1432.75,0.0083
1432.50,0.0083
1432.25,0.0084
1432.00,0.0085
1431.75,0.0085
1431.50,0.0086
1431.25,0.0086
1431.00,0.0085
1430.75,0.0084
1430.50,0.0083
1430.25,0.0083
1430.00,0.0084
1429.75,0.0086
1429.50,0.0087
1429.25,0.0088
1429.00,0.0088
1428.75,0.0088
1428.50,0.0089
1428.25,0.0090
1428.00,0.0091
1427.75,0.0092
1427.50,0.0092
1427.25,0.0093
1427.00,0.0094
1426.75,0.0095
1426.50,0.0096
1426.25,0.0097
1426.00,0.0099
1425.75,0.0100
1425.50,0.0100
1425.25,0.0100
1425.00,0.0099
1424.75,0.0097
1424.50,0.0096
1424.25,0.0096
1424.00,0.0097
1423.75,0.0098
1423.50,0.0100
1423.25,0.0102
1423.00,0.0104
1422.75,0.0105
1422.50,0.0106
1422.25,0.0108
1422.00,0.0109
1421.75,0.0111
1421.50,0.0113
1421.25,0.0115
1421.00,0.0117
1420.75,0.0119
1420.50,0.0120
1420.25,0.0120
1420.00,0.0119
1419.75,0.0118
1419.50,0.0115
1419.25,0.0115
1419.00,0.0118
1418.75,0.0123
1418.50,0.0126
1418.25,0.0128
1418.00,0.0130
1417.75,0.0132
1417.50,0.0134
1417.25,0.0136
1417.00,0.0138
1416.75,0.0140
1416.50,0.0141
1416.25,0.0142
1416.00,0.0143
1415.75,0.0144
1415.50,0.0144
1415.25,0.0144
1415.00,0.0145
1414.75,0.0145
1414.50,0.0147
1414.25,0.0148
1414.00,0.0150
1413.75,0.0152
1413.50,0.0153
1413.25,0.0154
1413.00,0.0154
1412.75,0.0154
1412.50,0.0154
1412.25,0.0153
1412.00,0.0153
1411.75,0.0154
1411.50,0.0155
1411.25,0.0155
1411.00,0.0155
1410.75,0.0155
1410.50,0.0154
1410.25,0.0153
1410.00,0.0152
1409.75,0.0151
1409.50,0.0150
1409.25,0.0149
1409.00,0.0148
1408.75,0.0148
1408.50,0.0148
1408.25,0.0149
1408.00,0.0149
1407.75,0.0149
1407.50,0.0149
1407.25,0.0149
1407.00,0.0148
1406.75,0.0148
1406.50,0.0148
1406.25,0.0147
1406.00,0.0147
1405.75,0.0147
1405.50,0.0145
1405.25,0.0143
1405.00,0.0142
1404.75,0.0140
1404.50,0.0139
1404.25,0.0139
1404.00,0.0139
1403.75,0.0140
1403.50,0.0139
1403.25,0.0139
1403.00,0.0138
1402.75,0.0138
1402.50,0.0138
1402.25,0.0138
1402.00,0.0138
1401.75,0.0139
1401.50,0.0138
1401.25,0.0138
1401.00,0.0137
1400.75,0.0136
1400.50,0.0134
1400.25,0.0133
1400.00,0.0132
1399.75,0.0130
1399.50,0.0128
1399.25,0.0127
1399.00,0.0126
1398.75,0.0125
1398.50,0.0126
1398.25,0.0125
1398.00,0.0124
1397.75,0.0123
1397.50,0.0122
1397.25,0.0121
1397.00,0.0120
1396.75,0.0118
1396.50,0.0116
1396.25,0.0114
1396.00,0.0113
1395.75,0.0111
1395.50,0.0110
1395.25,0.0110
1395.00,0.0110
1394.75,0.0109
1394.50,0.0108
1394.25,0.0107
1394.00,0.0106
1393.75,0.0106
1393.50,0.0105
1393.25,0.0104
1393.00,0.0103
1392.75,0.0103
1392.50,0.0102
1392.25,0.0102
1392.00,0.0101
1391.75,0.0101
1391.50,0.0101
1391.25,0.0100
1391.00,0.0100
1390.75,0.0098
1390.50,0.0095
1390.25,0.0093
1390.00,0.0092
1389.75,0.0091
1389.50,0.0090
1389.25,0.0090
1389.00,0.0090
1388.75,0.0091
1388.50,0.0091
1388.25,0.0092
1388.00,0.0092
1387.75,0.0092
1387.50,0.0092
1387.25,0.0092
1387.00,0.0092
1386.75,0.0091
1386.50,0.0089
1386.25,0.0088
1386.00,0.0088
1385.75,0.0088
1385.50,0.0088
1385.25,0.0088
1385.00,0.0088
1384.75,0.0087
1384.50,0.0086
1384.25,0.0085
1384.00,0.0085
1383.75,0.0084
1383.50,0.0084
1383.25,0.0084
1383.00,0.0085
1382.75,0.0086
1382.50,0.0086
1382.25,0.0086
1382.00,0.0085
1381.75,0.0084
1381.50,0.0083
1381.25,0.0082
1381.00,0.0082
1380.75,0.0082
1380.50,0.0082
1380.25,0.0083
1380.00,0.0083
1379.75,0.0083
1379.50,0.0082
1379.25,0.0081
1379.00,0.0081
1378.75,0.0080
1378.50,0.0081
1378.25,0.0081
1378.00,0.0082
1377.75,0.0082
1377.50,0.0083
1377.25,0.0083
1377.00,0.0081
1376.75,0.0080
1376.50,0.0080
1376.25,0.0080
1376.00,0.0080
1375.75,0.0080
1375.50,0.0078
1375.25,0.0077
1375.00,0.0076
1374.75,0.0076
1374.50,0.0076
1374.25,0.0077
1374.00,0.0077
1373.75,0.0078
1373.50,0.0078
1373.25,0.0078
1373.00,0.0078
1372.75,0.0079
1372.50,0.0080
1372.25,0.0081
1372.00,0.0081
1371.75,0.0081
1371.50,0.0082
1371.25,0.0082
1371.00,0.0083
1370.75,0.0084
1370.50,0.0084
1370.25,0.0084
1370.00,0.0083
1369.75,0.0083
1369.50,0.0082
1369.25,0.0081
1369.00,0.0080
1368.75,0.0079
1368.50,0.0080
1368.25,0.0080
1368.00,0.0080
1367.75,0.0080
1367.50,0.0080
1367.25,0.0080
1367.00,0.0080
1366.75,0.0079
1366.50,0.0078
1366.25,0.0076
1366.00,0.0076
1365.75,0.0076
1365.50,0.0076
1365.25,0.0076
1365.00,0.0076
1364.75,0.0076
1364.50,0.0076
1364.25,0.0076
1364.00,0.0075
1363.75,0.0075
1363.50,0.0075
1363.25,0.0075
1363.00,0.0076
1362.75,0.0076
1362.50,0.0075
1362.25,0.0075
1362.00,0.0074
1361.75,0.0073
1361.50,0.0072
1361.25,0.0071
1361.00,0.0071
1360.75,0.0073
1360.50,0.0075
1360.25,0.0077
1360.00,0.0078
1359.75,0.0078
1359.50,0.0078
1359.25,0.0078
1359.00,0.0078
1358.75,0.0078
1358.50,0.0077
1358.25,0.0077
1358.00,0.0076
1357.75,0.0075
1357.50,0.0074
1357.25,0.0074
1357.00,0.0074
1356.75,0.0074
1356.50,0.0074
1356.25,0.0074
1356.00,0.0075
1355.75,0.0075
1355.50,0.0076
1355.25,0.0077
1355.00,0.0079
1354.75,0.0080
1354.50,0.0080
1354.25,0.0080
1354.00,0.0080
1353.75,0.0079
1353.50,0.0079
1353.25,0.0078
1353.00,0.0078
1352.75,0.0078
1352.50,0.0078
1352.25,0.0078
1352.00,0.0078
1351.75,0.0078
1351.50,0.0077
1351.25,0.0076
1351.00,0.0074
1350.75,0.0073
1350.50,0.0072
1350.25,0.0072
1350.00,0.0073
1349.75,0.0073
1349.50,0.0074
1349.25,0.0075
1349.00,0.0076
1348.75,0.0076
1348.50,0.0077
1348.25,0.0077
1348.00,0.0076
1347.75,0.0076
1347.50,0.0075
1347.25,0.0075
1347.00,0.0075
1346.75,0.0077
1346.50,0.0078
1346.25,0.0079
1346.00,0.0079
1345.75,0.0079
1345.50,0.0078
1345.25,0.0078
1345.00,0.0076
1344.75,0.0075
1344.50,0.0075
1344.25,0.0075
1344.00,0.0076
1343.75,0.0076
1343.50,0.0077
1343.25,0.0077
1343.00,0.0077
1342.75,0.0078
1342.50,0.0079
1342.25,0.0079
1342.00,0.0079
1341.75,0.0077
1341.50,0.0076
1341.25,0.0075
1341.00,0.0074
1340.75,0.0074
1340.50,0.0076
1340.25,0.0077
1340.00,0.0077
1339.75,0.0077
1339.50,0.0076
1339.25,0.0075
1339.00,0.0075
1338.75,0.0075
1338.50,0.0075
1338.25,0.0075
1338.00,0.0074
1337.75,0.0073
1337.50,0.0073
1337.25,0.0073
1337.00,0.0073
1336.75,0.0074
1336.50,0.0074
1336.25,0.0075
1336.00,0.0075
1335.75,0.0075
1335.50,0.0075
1335.25,0.0075
1335.00,0.0075
1334.75,0.0076
1334.50,0.0077
1334.25,0.0077
1334.00,0.0078
1333.75,0.0080
1333.50,0.0081
1333.25,0.0081
1333.00,0.0081
1332.75,0.0081
1332.50,0.0079
1332.25,0.0078
1332.00,0.0077
1331.75,0.0075
1331.50,0.0075
1331.25,0.0075
1331.00,0.0075
1330.75,0.0077
1330.50,0.0078
1330.25,0.0079
1330.00,0.0079
1329.75,0.0077
1329.50,0.0076
1329.25,0.0076
1329.00,0.0076
1328.75,0.0076
1328.50,0.0077
1328.25,0.0077
1328.00,0.0078
1327.75,0.0078
1327.50,0.0079
1327.25,0.0078
1327.00,0.0078
1326.75,0.0078
1326.50,0.0078
1326.25,0.0078
1326.00,0.0078
1325.75,0.0079
1325.50,0.0079
1325.25,0.0079
1325.00,0.0079
1324.75,0.0080
1324.50,0.0080
1324.25,0.0080
1324.00,0.0079
1323.75,0.0080
1323.50,0.0080
1323.25,0.0081
1323.00,0.0082
1322.75,0.0082
1322.50,0.0083
1322.25,0.0083
1322.00,0.0083
1321.75,0.0083
1321.50,0.0084
1321.25,0.0084
1321.00,0.0084
1320.75,0.0084
1320.50,0.0084
1320.25,0.0084
1320.00,0.0085
1319.75,0.0085
1319.50,0.0085
1319.25,0.0085
1319.00,0.0085
1318.75,0.0085
1318.50,0.0085
1318.25,0.0086
1318.00,0.0087
1317.75,0.0088
1317.50,0.0088
1317.25,0.0087
1317.00,0.0086
1316.75,0.0084
1316.50,0.0084
1316.25,0.0084
1316.00,0.0085
1315.75,0.0086
1315.50,0.0087
1315.25,0.0087
1315.00,0.0086
1314.75,0.0086
1314.50,0.0085
1314.25,0.0085
1314.00,0.0086
1313.75,0.0086
1313.50,0.0087
1313.25,0.0087
1313.00,0.0088
1312.75,0.0088
1312.50,0.0088
1312.25,0.0087
1312.00,0.0086
1311.75,0.0086
1311.50,0.0086
1311.25,0.0086
1311.00,0.0086
1310.75,0.0087
1310.50,0.0088
1310.25,0.0089
1310.00,0.0090
1309.75,0.0090
1309.50,0.0091
1309.25,0.0091
1309.00,0.0091
1308.75,0.0091
1308.50,0.0091
1308.25,0.0091
1308.00,0.0090
1307.75,0.0090
1307.50,0.0089
1307.25,0.0090
1307.00,0.0090
1306.75,0.0091
1306.50,0.0092
1306.25,0.0093
1306.00,0.0093
1305.75,0.0093
1305.50,0.0093
1305.25,0.0092
1305.00,0.0092
1304.75,0.0093
1304.50,0.0094
1304.25,0.0095
1304.00,0.0096
1303.75,0.0096
1303.50,0.0097
1303.25,0.0098
1303.00,0.0099
1302.75,0.0099
1302.50,0.0098
1302.25,0.0097
1302.00,0.0097
1301.75,0.0097
1301.50,0.0099
1301.25,0.0100
1301.00,0.0100
1300.75,0.0100
1300.50,0.0099
1300.25,0.0098
1300.00,0.0099
1299.75,0.0100
1299.50,0.0100
1299.25,0.0101
1299.00,0.0101
1298.75,0.0101
1298.50,0.0101
1298.25,0.0101
1298.00,0.0101
1297.75,0.0102
1297.50,0.0102
1297.25,0.0103
1297.00,0.0104
1296.75,0.0105
1296.50,0.0105
1296.25,0.0106
1296.00,0.0106
1295.75,0.0106
1295.50,0.0106
1295.25,0.0106
1295.00,0.0106
1294.75,0.0106
1294.50,0.0106
1294.25,0.0108
1294.00,0.0109
1293.75,0.0110
1293.50,0.0111
1293.25,0.0111
1293.00,0.0110
1292.75,0.0110
1292.50,0.0110
1292.25,0.0111
1292.00,0.0112
1291.75,0.0113
1291.50,0.0115
1291.25,0.0116
1291.00,0.0116
1290.75,0.0116
1290.50,0.0116
1290.25,0.0115
1290.00,0.0114
1289.75,0.0114
1289.50,0.0115
1289.25,0.0117
1289.00,0.0120
1288.75,0.0121
1288.50,0.0122
1288.25,0.0122
1288.00,0.0121
1287.75,0.0121
1287.50,0.0121
1287.25,0.0121
1287.00,0.0121
1286.75,0.0121
1286.50,0.0120
1286.25,0.0121
1286.00,0.0122
1285.75,0.0123
1285.50,0.0126
1285.25,0.0128
1285.00,0.0131
1284.75,0.0133
1284.50,0.0134
1284.25,0.0135
1284.00,0.0136
1283.75,0.0136
1283.50,0.0135
1283.25,0.0135
1283.00,0.0135
1282.75,0.0135
1282.50,0.0136
1282.25,0.0137
1282.00,0.0139
1281.75,0.0140
1281.50,0.0143
1281.25,0.0145
1281.00,0.0148
1280.75,0.0151
1280.50,0.0153
1280.25,0.0155
1280.00,0.0157
1279.75,0.0157
1279.50,0.0158
1279.25,0.0160
1279.00,0.0162
1278.75,0.0164
1278.50,0.0167
1278.25,0.0169
1278.00,0.0172
1277.75,0.0173
1277.50,0.0175
1277.25,0.0177
1277.00,0.0178
1276.75,0.0181
1276.50,0.0183
1276.25,0.0187
1276.00,0.0190
1275.75,0.0195
1275.50,0.0199
1275.25,0.0204
1275.00,0.0208
1274.75,0.0212
1274.50,0.0216
1274.25,0.0220
1274.00,0.0225
1273.75,0.0230
1273.50,0.0236
1273.25,0.0242
1273.00,0.0247
1272.75,0.0253
1272.50,0.0259
1272.25,0.0267
1272.00,0.0274
1271.75,0.0283
1271.50,0.0291
1271.25,0.0300
1271.00,0.0310
1270.75,0.0320
1270.50,0.0332
1270.25,0.0344
1270.00,0.0358
1269.75,0.0371
1269.50,0.0385
1269.25,0.0399
1269.00,0.0415
1268.75,0.0432
1268.50,0.0451
1268.25,0.0472
1268.00,0.0494
1267.75,0.0518
1267.50,0.0542
1267.25,0.0568
1267.00,0.0596
1266.75,0.0625
1266.50,0.0656
1266.25,0.0690
1266.00,0.0725
1265.75,0.0762
1265.50,0.0800
1265.25,0.0838
1265.00,0.0877
1264.75,0.0917
1264.50,0.0958
1264.25,0.1001
1264.00,0.1046
1263.75,0.1090
1263.50,0.1135
1263.25,0.1179
1263.00,0.1224
1262.75,0.1269
1262.50,0.1312
1262.25,0.1353
1262.00,0.1392
1261.75,0.1428
1261.50,0.1464
1261.25,0.1499
1261.00,0.1532
1260.75,0.1564
1260.50,0.1593
1260.25,0.1619
1260.00,0.1642
1259.75,0.1660
1259.50,0.1674
1259.25,0.1686
1259.00,0.1693
1258.75,0.1698
1258.50,0.1699
1258.25,0.1697
1258.00,0.1693
1257.75,0.1685
1257.50,0.1673
1257.25,0.1659
1257.00,0.1643
1256.75,0.1625
1256.50,0.1606
1256.25,0.1586
1256.00,0.1563
1255.75,0.1539
1255.50,0.1514
1255.25,0.1487
1255.00,0.1461
1254.75,0.1433
1254.50,0.1406
1254.25,0.1379
1254.00,0.1352
1253.75,0.1325
1253.50,0.1297
1253.25,0.1269
1253.00,0.1240
1252.75,0.1209
1252.50,0.1177
1252.25,0.1143
1252.00,0.1108
1251.75,0.1072
1251.50,0.1035
1251.25,0.0998
1251.00,0.0961
1250.75,0.0923
1250.50,0.0886
1250.25,0.0850
1250.00,0.0815
1249.75,0.0780
1249.50,0.0746
1249.25,0.0712
1249.00,0.0679
1248.75,0.0648
1248.50,0.0619
1248.25,0.0591
1248.00,0.0565
1247.75,0.0540
1247.50,0.0516
1247.25,0.0495
1247.00,0.0476
1246.75,0.0457
1246.50,0.0439
1246.25,0.0421
1246.00,0.0403
1245.75,0.0387
1245.50,0.0373
1245.25,0.0361
1245.00,0.0350
1244.75,0.0340
1244.50,0.0331
1244.25,0.0322
1244.00,0.0315
1243.75,0.0308
1243.50,0.0301
1243.25,0.0295
1243.00,0.0287
1242.75,0.0280
1242.50,0.0274
1242.25,0.0268
1242.00,0.0262
1241.75,0.0257
1241.50,0.0252
1241.25,0.0249
1241.00,0.0246
1240.75,0.0244
1240.50,0.0241
1240.25,0.0237
1240.00,0.0233
1239.75,0.0229
1239.50,0.0224
1239.25,0.0221
1239.00,0.0218
1238.75,0.0216
1238.50,0.0213
1238.25,0.0211
1238.00,0.0209
1237.75,0.0207
1237.50,0.0206
1237.25,0.0206
1237.00,0.0205
1236.75,0.0203
1236.50,0.0201
1236.25,0.0198
1236.00,0.0196
1235.75,0.0194
1235.50,0.0194
1235.25,0.0194
1235.00,0.0194
1234.75,0.0193
1234.50,0.0191
1234.25,0.0189
1234.00,0.0187
1233.75,0.0185
1233.50,0.0184
1233.25,0.0183
1233.00,0.0182
1232.75,0.0182
1232.50,0.0181
1232.25,0.0182
1232.00,0.0182
1231.75,0.0184
1231.50,0.0185
1231.25,0.0185
1231.00,0.0184
1230.75,0.0183
1230.50,0.0182
1230.25,0.0181
1230.00,0.0181
1229.75,0.0182
1229.50,0.0183
1229.25,0.0184
1229.00,0.0184
1228.75,0.0184
1228.50,0.0183
1228.25,0.0182
1228.00,0.0181
1227.75,0.0181
1227.50,0.0181
1227.25,0.0180
1227.00,0.0179
1226.75,0.0179
1226.50,0.0179
1226.25,0.0180
1226.00,0.0180
1225.75,0.0181
1225.50,0.0182
1225.25,0.0183
1225.00,0.0184
1224.75,0.0185
1224.50,0.0186
1224.25,0.0186
1224.00,0.0186
1223.75,0.0186
1223.50,0.0187
1223.25,0.0189
1223.00,0.0190
1222.75,0.0190
1222.50,0.0191
1222.25,0.0191
1222.00,0.0191
1221.75,0.0193
1221.50,0.0194
1221.25,0.0195
1221.00,0.0196
1220.75,0.0197
1220.50,0.0197
1220.25,0.0197
1220.00,0.0198
1219.75,0.0198
1219.50,0.0198
1219.25,0.0199
1219.00,0.0201
1218.75,0.0203
1218.50,0.0205
1218.25,0.0208
1218.00,0.0210
1217.75,0.0211
1217.50,0.0211
1217.25,0.0211
1217.00,0.0210
1216.75,0.0210
1216.50,0.0210
1216.25,0.0211
1216.00,0.0213
1215.75,0.0215
1215.50,0.0217
1215.25,0.0219
1215.00,0.0220
1214.75,0.0222
1214.50,0.0223
1214.25,0.0224
1214.00,0.0225
1213.75,0.0225
1213.50,0.0226
1213.25,0.0228
1213.00,0.0230
1212.75,0.0232
1212.50,0.0234
1212.25,0.0235
1212.00,0.0236
1211.75,0.0237
1211.50,0.0238
1211.25,0.0240
1211.00,0.0241
1210.75,0.0243
1210.50,0.0244
1210.25,0.0244
1210.00,0.0244
1209.75,0.0245
1209.50,0.0245
1209.25,0.0246
1209.00,0.0248
1208.75,0.0249
1208.50,0.0250
1208.25,0.0251
1208.00,0.0251
1207.75,0.0251
1207.50,0.0252
1207.25,0.0254
1207.00,0.0256
1206.75,0.0259
1206.50,0.0262
1206.25,0.0263
1206.00,0.0264
1205.75,0.0264
1205.50,0.0265
1205.25,0.0267
1205.00,0.0269
1204.75,0.0271
1204.50,0.0272
1204.25,0.0273
1204.00,0.0274
1203.75,0.0275
1203.50,0.0277
1203.25,0.0280
1203.00,0.0282
1202.75,0.0283
1202.50,0.0283
1202.25,0.0282
1202.00,0.0283
1201.75,0.0284
1201.50,0.0286
1201.25,0.0288
1201.00,0.0289
1200.75,0.0290
1200.50,0.0291
1200.25,0.0292
1200.00,0.0292
1199.75,0.0292
1199.50,0.0292
1199.25,0.0292
1199.00,0.0293
1198.75,0.0294
1198.50,0.0296
1198.25,0.0297
1198.00,0.0299
1197.75,0.0299
1197.50,0.0300
1197.25,0.0300
1197.00,0.0301
1196.75,0.0302
1196.50,0.0302
1196.25,0.0303
1196.00,0.0304
1195.75,0.0304
1195.50,0.0305
1195.25,0.0305
1195.00,0.0306
1194.75,0.0306
1194.50,0.0306
1194.25,0.0306
1194.00,0.0307
1193.75,0.0307
1193.50,0.0308
1193.25,0.0309
1193.00,0.0310
1192.75,0.0311
1192.50,0.0312
1192.25,0.0314
1192.00,0.0315
1191.75,0.0316
1191.50,0.0317
1191.25,0.0317
1191.00,0.0317
1190.75,0.0317
1190.50,0.0317
1190.25,0.0317
1190.00,0.0318
1189.75,0.0318
1189.50,0.0319
1189.25,0.0319
1189.00,0.0319
1188.75,0.0320
1188.50,0.0321
1188.25,0.0322
1188.00,0.0323
1187.75,0.0323
1187.50,0.0323
1187.25,0.0323
1187.00,0.0323
1186.75,0.0323
1186.50,0.0323
1186.25,0.0324
1186.00,0.0325
1185.75,0.0325
1185.50,0.0325
1185.25,0.0325
1185.00,0.0325
1184.75,0.0325
1184.50,0.0327
1184.25,0.0328
1184.00,0.0328
1183.75,0.0328
1183.50,0.0328
1183.25,0.0329
1183.00,0.0329
1182.75,0.0329
1182.50,0.0328
1182.25,0.0326
1182.00,0.0325
1181.75,0.0325
1181.50,0.0326
1181.25,0.0328
1181.00,0.0329
1180.75,0.0329
1180.50,0.0328
1180.25,0.0327
1180.00,0.0328
1179.75,0.0330
1179.50,0.0331
1179.25,0.0332
1179.00,0.0332
1178.75,0.0331
1178.50,0.0330
1178.25,0.0330
1178.00,0.0331
1177.75,0.0332
1177.50,0.0333
1177.25,0.0334
1177.00,0.0335
1176.75,0.0335
1176.50,0.0336
1176.25,0.0335
1176.00,0.0335
1175.75,0.0335
1175.50,0.0335
1175.25,0.0336
1175.00,0.0335
1174.75,0.0335
1174.50,0.0336
1174.25,0.0337
1174.00,0.0337
1173.75,0.0338
1173.50,0.0338
1173.25,0.0338
1173.00,0.0339
1172.75,0.0340
1172.50,0.0341
1172.25,0.0341
1172.00,0.0341
1171.75,0.0341
1171.50,0.0340
1171.25,0.0339
1171.00,0.0339
1170.75,0.0340
1170.50,0.0341
1170.25,0.0343
1170.00,0.0344
1169.75,0.0345
1169.50,0.0345
1169.25,0.0345
1169.00,0.0344
1168.75,0.0344
1168.50,0.0343
1168.25,0.0342
1168.00,0.0342
1167.75,0.0342
1167.50,0.0342
1167.25,0.0343
1167.00,0.0344
1166.75,0.0347
1166.50,0.0349
1166.25,0.0350
1166.00,0.0351
1165.75,0.0351
1165.50,0.0352
1165.25,0.0351
1165.00,0.0351
1164.75,0.0349
1164.50,0.0348
1164.25,0.0348
1164.00,0.0347
1163.75,0.0348
1163.50,0.0348
1163.25,0.0348
1163.00,0.0347
1162.75,0.0347
1162.50,0.0348
1162.25,0.0349
1162.00,0.0350
1161.75,0.0351
1161.50,0.0351
1161.25,0.0351
1161.00,0.0351
1160.75,0.0351
1160.50,0.0352
1160.25,0.0353
1160.00,0.0354
1159.75,0.0354
1159.50,0.0354
1159.25,0.0354
1159.00,0.0353
1158.75,0.0353
1158.50,0.0354
1158.25,0.0355
1158.00,0.0357
1157.75,0.0359
1157.50,0.0359
1157.25,0.0359
1157.00,0.0360
1156.75,0.0361
1156.50,0.0362
1156.25,0.0363
1156.00,0.0364
1155.75,0.0364
1155.50,0.0364
1155.25,0.0364
1155.00,0.0365
1154.75,0.0367
1154.50,0.0369
1154.25,0.0371
1154.00,0.0372
1153.75,0.0371
1153.50,0.0370
1153.25,0.0369
1153.00,0.0369
1152.75,0.0370
1152.50,0.0370
1152.25,0.0372
1152.00,0.0373
1151.75,0.0375
1151.50,0.0377
1151.25,0.0380
1151.00,0.0382
1150.75,0.0385
1150.50,0.0388
1150.25,0.0389
1150.00,0.0390
1149.75,0.0391
1149.50,0.0391
1149.25,0.0392
1149.00,0.0394
1148.75,0.0395
1148.50,0.0395
1148.25,0.0395
1148.00,0.0395
1147.75,0.0395
1147.50,0.0395
1147.25,0.0396
1147.00,0.0397
1146.75,0.0400
1146.50,0.0402
1146.25,0.0404
1146.00,0.0407
1145.75,0.0409
1145.50,0.0410
1145.25,0.0411
1145.00,0.0413
1144.75,0.0414
1144.50,0.0415
1144.25,0.0418
1144.00,0.0420
1143.75,0.0423
1143.50,0.0425
1143.25,0.0427
1143.00,0.0428
1142.75,0.0430
1142.50,0.0432
1142.25,0.0434
1142.00,0.0435
1141.75,0.0437
1141.50,0.0439
1141.25,0.0441
1141.00,0.0443
1140.75,0.0444
1140.50,0.0446
1140.25,0.0448
1140.00,0.0450
1139.75,0.0453
1139.50,0.0456
1139.25,0.0460
1139.00,0.0463
1138.75,0.0466
1138.50,0.0468
1138.25,0.0470
1138.00,0.0471
1137.75,0.0472
1137.50,0.0474
1137.25,0.0476
1137.00,0.0478
1136.75,0.0479
1136.50,0.0480
1136.25,0.0482
1136.00,0.0484
1135.75,0.0486
1135.50,0.0489
1135.25,0.0491
1135.00,0.0494
1134.75,0.0495
1134.50,0.0496
1134.25,0.0496
1134.00,0.0496
1133.75,0.0496
1133.50,0.0498
1133.25,0.0500
1133.00,0.0504
1132.75,0.0506
1132.50,0.0508
1132.25,0.0510
1132.00,0.0513
1131.75,0.0517
1131.50,0.0521
1131.25,0.0525
1131.00,0.0528
1130.75,0.0531
1130.50,0.0535
1130.25,0.0539
1130.00,0.0542
1129.75,0.0544
1129.50,0.0545
1129.25,0.0545
1129.00,0.0545
1128.75,0.0547
1128.50,0.0550
1128.25,0.0554
1128.00,0.0559
1127.75,0.0563
1127.50,0.0568
1127.25,0.0571
1127.00,0.0575
1126.75,0.0578
1126.50,0.0581
1126.25,0.0584
1126.00,0.0588
1125.75,0.0592
1125.50,0.0597
1125.25,0.0602
1125.00,0.0607
1124.75,0.0611
1124.50,0.0615
1124.25,0.0620
1124.00,0.0625
1123.75,0.0631
1123.50,0.0637
1123.25,0.0643
1123.00,0.0650
1122.75,0.0656
1122.50,0.0661
1122.25,0.0667
1122.00,0.0672
1121.75,0.0677
1121.50,0.0682
1121.25,0.0687
1121.00,0.0692
1120.75,0.0698
1120.50,0.0706
1120.25,0.0715
1120.00,0.0723
1119.75,0.0730
1119.50,0.0736
1119.25,0.0741
1119.00,0.0745
1118.75,0.0749
1118.50,0.0754
1118.25,0.0760
1118.00,0.0767
1117.75,0.0776
1117.50,0.0785
1117.25,0.0794
1117.00,0.0802
1116.75,0.0809
1116.50,0.0816
1116.25,0.0822
1116.00,0.0830
1115.75,0.0839
1115.50,0.0849
1115.25,0.0858
1115.00,0.0867
1114.75,0.0875
1114.50,0.0883
1114.25,0.0891
1114.00,0.0901
1113.75,0.0910
1113.50,0.0919
1113.25,0.0928
1113.00,0.0937
1112.75,0.0946
1112.50,0.0954
1112.25,0.0963
1112.00,0.0971
1111.75,0.0980
1111.50,0.0990
1111.25,0.1002
1111.00,0.1014
1110.75,0.1026
1110.50,0.1037
1110.25,0.1048
1110.00,0.1058
1109.75,0.1067
1109.50,0.1077
1109.25,0.1087
1109.00,0.1098
1108.75,0.1109
1108.50,0.1120
1108.25,0.1130
1108.00,0.1141
1107.75,0.1152
1107.50,0.1163
1107.25,0.1175
1107.00,0.1189
1106.75,0.1204
1106.50,0.1219
1106.25,0.1234
1106.00,0.1248
1105.75,0.1261
1105.50,0.1273
1105.25,0.1283
1105.00,0.1293
1104.75,0.1303
1104.50,0.1314
1104.25,0.1326
1104.00,0.1340
1103.75,0.1353
1103.50,0.1366
1103.25,0.1379
1103.00,0.1393
1102.75,0.1409
1102.50,0.1424
1102.25,0.1439
1102.00,0.1453
1101.75,0.1465
1101.50,0.1478
1101.25,0.1490
1101.00,0.1503
1100.75,0.1517
1100.50,0.1531
1100.25,0.1546
1100.00,0.1562
1099.75,0.1578
1099.50,0.1592
1099.25,0.1605
1099.00,0.1619
1098.75,0.1633
1098.50,0.1650
1098.25,0.1666
1098.00,0.1682
1097.75,0.1697
1097.50,0.1711
1097.25,0.1723
1097.00,0.1735
1096.75,0.1749
1096.50,0.1765
1096.25,0.1781
1096.00,0.1798
1095.75,0.1814
1095.50,0.1828
1095.25,0.1841
1095.00,0.1853
1094.75,0.1865
1094.50,0.1879
1094.25,0.1893
1094.00,0.1907
1093.75,0.1922
1093.50,0.1936
1093.25,0.1952
1093.00,0.1969
1092.75,0.1986
1092.50,0.2002
1092.25,0.2017
1092.00,0.2032
1091.75,0.2046
1091.50,0.2059
1091.25,0.2071
1091.00,0.2083
1090.75,0.2097
1090.50,0.2112
1090.25,0.2128
1090.00,0.2144
1089.75,0.2158
1089.50,0.2170
1089.25,0.2182
1089.00,0.2195
1088.75,0.2208
1088.50,0.2221
1088.25,0.2235
1088.00,0.2249
1087.75,0.2261
1087.50,0.2274
1087.25,0.2286
1087.00,0.2300
1086.75,0.2315
1086.50,0.2331
1086.25,0.2346
1086.00,0.2360
1085.75,0.2371
1085.50,0.2382
1085.25,0.2392
1085.00,0.2403
1084.75,0.2413
1084.50,0.2423
1084.25,0.2432
1084.00,0.2441
1083.75,0.2450
1083.50,0.2461
1083.25,0.2473
1083.00,0.2487
1082.75,0.2499
1082.50,0.2510
1082.25,0.2519
1082.00,0.2528
1081.75,0.2537
1081.50,0.2547
1081.25,0.2557
1081.00,0.2564
1080.75,0.2570
1080.50,0.2575
1080.25,0.2580
1080.00,0.2587
1079.75,0.2595
1079.50,0.2602
1079.25,0.2609
1079.00,0.2615
1078.75,0.2622
1078.50,0.2629
1078.25,0.2637
1078.00,0.2644
1077.75,0.2651
1077.50,0.2657
1077.25,0.2662
1077.00,0.2666
1076.75,0.2672
1076.50,0.2679
1076.25,0.2687
1076.00,0.2696
1075.75,0.2706
1075.50,0.2714
1075.25,0.2722
1075.00,0.2729
1074.75,0.2735
1074.50,0.2739
1074.25,0.2741
1074.00,0.2740
1073.75,0.2739
1073.50,0.2740
1073.25,0.2743
1073.00,0.2749
1072.75,0.2755
1072.50,0.2762
1072.25,0.2768
1072.00,0.2774
1071.75,0.2778
1071.50,0.2780
1071.25,0.2780
1071.00,0.2780
1070.75,0.2782
1070.50,0.2787
1070.25,0.2793
1070.00,0.2799
1069.75,0.2802
1069.50,0.2804
1069.25,0.2804
1069.00,0.2805
1068.75,0.2806
1068.50,0.2807
1068.25,0.2808
1068.00,0.2809
1067.75,0.2811
1067.50,0.2813
1067.25,0.2816
1067.00,0.2820
1066.75,0.2824
1066.50,0.2829
1066.25,0.2832
1066.00,0.2833
1065.75,0.2834
1065.50,0.2834
1065.25,0.2836
1065.00,0.2838
1064.75,0.2840
1064.50,0.2840
1064.25,0.2839
1064.00,0.2837
1063.75,0.2836
1063.50,0.2838
1063.25,0.2842
1063.00,0.2846
1062.75,0.2848
1062.50,0.2847
1062.25,0.2844
1062.00,0.2840
1061.75,0.2837
1061.50,0.2836
1061.25,0.2837
1061.00,0.2840
1060.75,0.2842
1060.50,0.2842
1060.25,0.2840
1060.00,0.2837
1059.75,0.2835
1059.50,0.2836
1059.25,0.2840
1059.00,0.2845
1058.75,0.2850
1058.50,0.2854
1058.25,0.2855
1058.00,0.2854
1057.75,0.2850
1057.50,0.2844
1057.25,0.2838
1057.00,0.2833
1056.75,0.2830
1056.50,0.2828
1056.25,0.2828
1056.00,0.2829
1055.75,0.2830
1055.50,0.2830
1055.25,0.2829
1055.00,0.2827
1054.75,0.2824
1054.50,0.2822
1054.25,0.2821
1054.00,0.2822
1053.75,0.2823
1053.50,0.2823
1053.25,0.2821
1053.00,0.2817
1052.75,0.2811
1052.50,0.2806
1052.25,0.2805
1052.00,0.2805
1051.75,0.2804
1051.50,0.2801
1051.25,0.2797
1051.00,0.2792
1050.75,0.2787
1050.50,0.2784
1050.25,0.2783
1050.00,0.2782
1049.75,0.2782
1049.50,0.2780
1049.25,0.2777
1049.00,0.2775
1048.75,0.2775
1048.50,0.2777
1048.25,0.2779
1048.00,0.2780
1047.75,0.2779
1047.50,0.2776
1047.25,0.2774
1047.00,0.2772
1046.75,0.2772
1046.50,0.2773
1046.25,0.2772
1046.00,0.2770
1045.75,0.2767
1045.50,0.2763
1045.25,0.2759
1045.00,0.2756
1044.75,0.2753
1044.50,0.2750
1044.25,0.2747
1044.00,0.2744
1043.75,0.2741
1043.50,0.2740
1043.25,0.2741
1043.00,0.2742
1042.75,0.2743
1042.50,0.2744
1042.25,0.2744
1042.00,0.2745
1041.75,0.2746
1041.50,0.2748
1041.25,0.2750
1041.00,0.2753
1040.75,0.2757
1040.50,0.2760
1040.25,0.2761
1040.00,0.2760
1039.75,0.2759
1039.50,0.2758
1039.25,0.2759
1039.00,0.2761
1038.75,0.2762
1038.50,0.2763
1038.25,0.2763
1038.00,0.2764
1037.75,0.2766
1037.50,0.2768
1037.25,0.2772
1037.00,0.2776
1036.75,0.2782
1036.50,0.2787
1036.25,0.2793
1036.00,0.2799
1035.75,0.2806
1035.50,0.2813
1035.25,0.2819
1035.00,0.2825
1034.75,0.2829
1034.50,0.2832
1034.25,0.2835
1034.00,0.2838
1033.75,0.2841
1033.50,0.2846
1033.25,0.2852
1033.00,0.2857
1032.75,0.2863
1032.50,0.2868
1032.25,0.2874
1032.00,0.2881
1031.75,0.2889
1031.50,0.2898
1031.25,0.2908
1031.00,0.2918
1030.75,0.2929
1030.50,0.2939
1030.25,0.2949
1030.00,0.2958
1029.75,0.2967
1029.50,0.2975
1029.25,0.2982
1029.00,0.2991
1028.75,0.3001
1028.50,0.3012
1028.25,0.3024
1028.00,0.3037
1027.75,0.3048
1027.50,0.3056
1027.25,0.3063
1027.00,0.3070
1026.75,0.3078
1026.50,0.3091
1026.25,0.3106
1026.00,0.3124
1025.75,0.3141
1025.50,0.3158
1025.25,0.3174
1025.00,0.3189
1024.75,0.3204
1024.50,0.3218
1024.25,0.3231
1024.00,0.3242
1023.75,0.3254
1023.50,0.3266
1023.25,0.3280
1023.00,0.3296
1022.75,0.3312
1022.50,0.3329
1022.25,0.3346
1022.00,0.3364
1021.75,0.3383
1021.50,0.3403
1021.25,0.3422
1021.00,0.3438
1020.75,0.3452
1020.50,0.3464
1020.25,0.3478
1020.00,0.3494
1019.75,0.3512
1019.50,0.3533
1019.25,0.3555
1019.00,0.3577
1018.75,0.3597
1018.50,0.3615
1018.25,0.3632
1018.00,0.3649
1017.75,0.3665
1017.50,0.3679
1017.25,0.3693
1017.00,0.3708
1016.75,0.3724
1016.50,0.3741
1016.25,0.3758
1016.00,0.3774
1015.75,0.3789
1015.50,0.3803
1015.25,0.3818
1015.00,0.3832
1014.75,0.3844
1014.50,0.3854
1014.25,0.3860
1014.00,0.3866
1013.75,0.3872
1013.50,0.3876
1013.25,0.3880
1013.00,0.3882
1012.75,0.3882
1012.50,0.3878
1012.25,0.3872
1012.00,0.3864
1011.75,0.3854
1011.50,0.3841
1011.25,0.3826
1011.00,0.3809
1010.75,0.3790
1010.50,0.3772
1010.25,0.3754
1010.00,0.3734
1009.75,0.3710
1009.50,0.3680
1009.25,0.3645
1009.00,0.3606
1008.75,0.3568
1008.50,0.3530
1008.25,0.3492
1008.00,0.3454
1007.75,0.3414
1007.50,0.3372
1007.25,0.3329
1007.00,0.3285
1006.75,0.3239
1006.50,0.3190
1006.25,0.3139
1006.00,0.3085
1005.75,0.3031
1005.50,0.2977
1005.25,0.2923
1005.00,0.2869
1004.75,0.2817
1004.50,0.2766
1004.25,0.2717
1004.00,0.2669
1003.75,0.2621
1003.50,0.2572
1003.25,0.2522
1003.00,0.2471
1002.75,0.2420
1002.50,0.2369
1002.25,0.2319
1002.00,0.2268
1001.75,0.2218
1001.50,0.2168
1001.25,0.2120
1001.00,0.2075
1000.75,0.2030
1000.50,0.1987
1000.25,0.1945
1000.00,0.1902
999.75,0.1860
999.50,0.1819
999.25,0.1779
999.00,0.1741
998.75,0.1704
998.50,0.1667
998.25,0.1630
998.00,0.1594
997.75,0.1560
997.50,0.1528
997.25,0.1497
997.00,0.1466
996.75,0.1437
996.50,0.1408
996.25,0.1381
996.00,0.1355
995.75,0.1328
995.50,0.1300
995.25,0.1271
995.00,0.1243
994.75,0.1216
994.50,0.1192
994.25,0.1170
994.00,0.1151
993.75,0.1133
993.50,0.1114
993.25,0.1095
993.00,0.1075
992.75,0.1053
992.50,0.1031
992.25,0.1010
992.00,0.0990
991.75,0.0972
991.50,0.0955
991.25,0.0939
991.00,0.0924
990.75,0.0908
990.50,0.0892
990.25,0.0876
990.00,0.0859
989.75,0.0844
989.50,0.0830
989.25,0.0818
989.00,0.0807
988.75,0.0796
988.50,0.0784
988.25,0.0771
988.00,0.0758
987.75,0.0746
987.50,0.0733
987.25,0.0721
987.00,0.0710
986.75,0.0699
986.50,0.0688
986.25,0.0677
986.00,0.0667
985.75,0.0657
985.50,0.0647
985.25,0.0637
985.00,0.0627
984.75,0.0618
984.50,0.0611
984.25,0.0604
984.00,0.0596
983.75,0.0588
983.50,0.0578
983.25,0.0570
983.00,0.0561
982.75,0.0554
982.50,0.0546
982.25,0.0538
982.00,0.0531
981.75,0.0524
981.50,0.0519
981.25,0.0515
981.00,0.0511
980.75,0.0506
980.50,0.0501
980.25,0.0494
980.00,0.0487
979.75,0.0480
979.50,0.0474
979.25,0.0468
979.00,0.0463
978.75,0.0458
978.50,0.0454
978.25,0.0449
978.00,0.0444
977.75,0.0439
977.50,0.0434
977.25,0.0428
977.00,0.0422
976.75,0.0416
976.50,0.0412
976.25,0.0408
976.00,0.0405
975.75,0.0400
975.50,0.0395
975.25,0.0390
975.00,0.0385
974.75,0.0381
974.50,0.0378
974.25,0.0375
974.00,0.0373
973.75,0.0371
973.50,0.0370
973.25,0.0368
973.00,0.0364
972.75,0.0359
972.50,0.0353
972.25,0.0348
972.00,0.0345
971.75,0.0344
971.50,0.0345
971.25,0.0347
971.00,0.0347
970.75,0.0344
970.50,0.0339
970.25,0.0334
970.00,0.0330
969.75,0.0328
969.50,0.0327
969.25,0.0326
969.00,0.0324
968.75,0.0320
968.50,0.0316
968.25,0.0312
968.00,0.0309
967.75,0.0308
967.50,0.0309
967.25,0.0310
967.00,0.0310
966.75,0.0307
966.50,0.0303
966.25,0.0299
966.00,0.0296
965.75,0.0295
965.50,0.0294
965.25,0.0292
965.00,0.0290
964.75,0.0287
964.50,0.0284
964.25,0.0282
964.00,0.0280
963.75,0.0280
963.50,0.0279
963.25,0.0279
963.00,0.0277
962.75,0.0275
962.50,0.0274
962.25,0.0274
962.00,0.0273
961.75,0.0272
961.50,0.0270
961.25,0.0269
961.00,0.0267
960.75,0.0267
960.50,0.0267
960.25,0.0266
960.00,0.0266
959.75,0.0265
959.50,0.0265
959.25,0.0264
959.00,0.0262
958.75,0.0261
958.50,0.0259
958.25,0.0257
958.00,0.0256
957.75,0.0256
957.50,0.0255
957.25,0.0254
957.00,0.0253
956.75,0.0253
956.50,0.0254
956.25,0.0255
956.00,0.0256
955.75,0.0256
955.50,0.0255
955.25,0.0253
955.00,0.0252
954.75,0.0251
954.50,0.0249
954.25,0.0248
954.00,0.0246
953.75,0.0244
953.50,0.0243
953.25,0.0243
953.00,0.0241
952.75,0.0237
952.50,0.0232
952.25,0.0228
952.00,0.0225
951.75,0.0224
951.50,0.0223
951.25,0.0223
951.00,0.0222
950.75,0.0222
950.50,0.0222
950.25,0.0223
950.00,0.0224
949.75,0.0224
949.50,0.0224
949.25,0.0222
949.00,0.0221
948.75,0.0219
948.50,0.0217
948.25,0.0217
948.00,0.0216
947.75,0.0214
947.50,0.0211
947.25,0.0209
947.00,0.0207
946.75,0.0207
946.50,0.0208
946.25,0.0209
946.00,0.0209
945.75,0.0208
945.50,0.0206
945.25,0.0204
945.00,0.0203
944.75,0.0203
944.50,0.0203
944.25,0.0203
944.00,0.0203
943.75,0.0202
943.50,0.0200
943.25,0.0198
943.00,0.0198
942.75,0.0200
942.50,0.0202
942.25,0.0204
942.00,0.0204
941.75,0.0203
941.50,0.0201
941.25,0.0198
941.00,0.0197
940.75,0.0197
940.50,0.0196
940.25,0.0196
940.00,0.0194
939.75,0.0192
939.50,0.0191
939.25,0.0191
939.00,0.0192
938.75,0.0194
938.50,0.0196
938.25,0.0196
938.00,0.0196
937.75,0.0196
937.50,0.0196
937.25,0.0196
937.00,0.0195
936.75,0.0194
936.50,0.0193
936.25,0.0192
936.00,0.0191
935.75,0.0191
935.50,0.0191
935.25,0.0192
935.00,0.0194
934.75,0.0197
934.50,0.0199
934.25,0.0201
934.00,0.0201
933.75,0.0199
933.50,0.0197
933.25,0.0197
933.00,0.0197
932.75,0.0198
932.50,0.0199
932.25,0.0200
932.00,0.0201
931.75,0.0201
931.50,0.0201
931.25,0.0202
931.00,0.0203
930.75,0.0206
930.50,0.0207
930.25,0.0207
930.00,0.0205
929.75,0.0205
929.50,0.0206
929.25,0.0209
929.00,0.0212
928.75,0.0213
928.50,0.0213
928.25,0.0212
928.00,0.0212
927.75,0.0212
927.50,0.0212
927.25,0.0213
927.00,0.0214
926.75,0.0215
926.50,0.0216
926.25,0.0216
926.00,0.0215
925.75,0.0214
925.50,0.0214
925.25,0.0215
925.00,0.0216
924.75,0.0218
924.50,0.0220
924.25,0.0222
924.00,0.0222
923.75,0.0222
923.50,0.0221
923.25,0.0221
923.00,0.0221
922.75,0.0222
922.50,0.0225
922.25,0.0228
922.00,0.0230
921.75,0.0233
921.50,0.0236
921.25,0.0240
921.00,0.0243
920.75,0.0245
920.50,0.0246
920.25,0.0247
920.00,0.0248
919.75,0.0250
919.50,0.0253
919.25,0.0256
919.00,0.0259
918.75,0.0261
918.50,0.0262
918.25,0.0264
918.00,0.0266
917.75,0.0269
917.50,0.0273
917.25,0.0277
917.00,0.0280
916.75,0.0283
916.50,0.0286
916.25,0.0289
916.00,0.0292
915.75,0.0294
915.50,0.0296
915.25,0.0297
915.00,0.0299
914.75,0.0302
914.50,0.0304
914.25,0.0306
914.00,0.0308
913.75,0.0310
913.50,0.0312
913.25,0.0313
913.00,0.0314
912.75,0.0315
912.50,0.0317
912.25,0.0318
912.00,0.0320
911.75,0.0321
911.50,0.0321
911.25,0.0321
911.00,0.0320
910.75,0.0319
910.50,0.0318
910.25,0.0318
910.00,0.0318
909.75,0.0318
909.50,0.0317
909.25,0.0317
909.00,0.0316
908.75,0.0315
908.50,0.0317
908.25,0.0319
908.00,0.0321
907.75,0.0322
907.50,0.0321
907.25,0.0319
907.00,0.0316
906.75,0.0314
906.50,0.0313
906.25,0.0314
906.00,0.0314
905.75,0.0314
905.50,0.0312
905.25,0.0307
905.00,0.0301
904.75,0.0296
904.50,0.0293
904.25,0.0292
904.00,0.0294
903.75,0.0296
903.50,0.0297
903.25,0.0296
903.00,0.0295
902.75,0.0293
902.50,0.0293
902.25,0.0294
902.00,0.0295
901.75,0.0296
901.50,0.0296
901.25,0.0297
901.00,0.0298
900.75,0.0299
900.50,0.0298
900.25,0.0297
900.00,0.0297
899.75,0.0297
899.50,0.0297
899.25,0.0298
899.00,0.0299
898.75,0.0300
898.50,0.0301
898.25,0.0303
898.00,0.0306
897.75,0.0308
897.50,0.0310
897.25,0.0311
897.00,0.0310
896.75,0.0309
896.50,0.0308
896.25,0.0308
896.00,0.0308
895.75,0.0308
895.50,0.0310
895.25,0.0313
895.00,0.0319
894.75,0.0325
894.50,0.0331
894.25,0.0334
894.00,0.0335
893.75,0.0335
893.50,0.0335
893.25,0.0336
893.00,0.0337
892.75,0.0338
892.50,0.0339
892.25,0.0341
892.00,0.0344
891.75,0.0348
891.50,0.0353
891.25,0.0356
891.00,0.0359
890.75,0.0360
890.50,0.0361
890.25,0.0360
890.00,0.0360
889.75,0.0360
889.50,0.0362
889.25,0.0367
889.00,0.0373
888.75,0.0380
888.50,0.0385
888.25,0.0388
888.00,0.0389
887.75,0.0390
887.50,0.0392
887.25,0.0396
887.00,0.0400
886.75,0.0404
886.50,0.0408
886.25,0.0412
886.00,0.0417
885.75,0.0424
885.50,0.0431
885.25,0.0439
885.00,0.0446
884.75,0.0453
884.50,0.0459
884.25,0.0463
884.00,0.0467
883.75,0.0470
883.50,0.0475
883.25,0.0480
883.00,0.0485
882.75,0.0491
882.50,0.0497
882.25,0.0504
882.00,0.0511
881.75,0.0518
881.50,0.0524
881.25,0.0528
881.00,0.0531
880.75,0.0536
880.50,0.0542
880.25,0.0550
880.00,0.0559
879.75,0.0567
879.50,0.0574
879.25,0.0580
879.00,0.0588
878.75,0.0597
878.50,0.0607
878.25,0.0617
878.00,0.0627
877.75,0.0635
877.50,0.0643
877.25,0.0649
877.00,0.0656
876.75,0.0662
876.50,0.0669
876.25,0.0676
876.00,0.0685
875.75,0.0696
875.50,0.0708
875.25,0.0720
875.00,0.0732
874.75,0.0743
874.50,0.0754
874.25,0.0764
874.00,0.0774
873.75,0.0786
873.50,0.0799
873.25,0.0813
873.00,0.0827
872.75,0.0841
872.50,0.0855
872.25,0.0869
872.00,0.0882
871.75,0.0894
871.50,0.0906
871.25,0.0918
871.00,0.0932
870.75,0.0947
870.50,0.0962
870.25,0.0977
870.00,0.0991
869.75,0.1003
869.50,0.1014
869.25,0.1023
869.00,0.1030
868.75,0.1037
868.50,0.1045
868.25,0.1055
868.00,0.1067
867.75,0.1079
867.50,0.1090
867.25,0.1097
867.00,0.1102
866.75,0.1107
866.50,0.1112
866.25,0.1119
866.00,0.1126
865.75,0.1131
865.50,0.1134
865.25,0.1135
865.00,0.1134
864.75,0.1133
864.50,0.1132
864.25,0.1131
864.00,0.1133
863.75,0.1136
863.50,0.1138
863.25,0.1138
863.00,0.1135
862.75,0.1129
862.50,0.1123
862.25,0.1119
862.00,0.1116
861.75,0.1114
861.50,0.1112
861.25,0.1108
861.00,0.1105
860.75,0.1101
860.50,0.1098
860.25,0.1093
860.00,0.1087
859.75,0.1079
859.50,0.1070
859.25,0.1064
859.00,0.1060
858.75,0.1059
858.50,0.1059
858.25,0.1058
858.00,0.1057
857.75,0.1053
857.50,0.1049
857.25,0.1043
857.00,0.1038
856.75,0.1034
856.50,0.1030
856.25,0.1028
856.00,0.1028
855.75,0.1031
855.50,0.1036
855.25,0.1042
855.00,0.1047
854.75,0.1050
854.50,0.1051
854.25,0.1052
854.00,0.1054
853.75,0.1058
853.50,0.1066
853.25,0.1074
853.00,0.1081
852.75,0.1087
852.50,0.1092
852.25,0.1097
852.00,0.1105
851.75,0.1115
851.50,0.1126
851.25,0.1137
851.00,0.1148
850.75,0.1160
850.50,0.1172
850.25,0.1182
850.00,0.1190
849.75,0.1197
849.50,0.1205
849.25,0.1215
849.00,0.1229
848.75,0.1244
848.50,0.1258
848.25,0.1269
848.00,0.1279
847.75,0.1288
847.50,0.1297
847.25,0.1306
847.00,0.1315
846.75,0.1322
846.50,0.1330
846.25,0.1340
846.00,0.1354
845.75,0.1369
845.50,0.1381
845.25,0.1387
845.00,0.1388
844.75,0.1387
844.50,0.1388
844.25,0.1393
844.00,0.1400
843.75,0.1409
843.50,0.1415
843.25,0.1417
843.00,0.1414
842.75,0.1409
842.50,0.1402
842.25,0.1396
842.00,0.1392
841.75,0.1390
841.50,0.1387
841.25,0.1381
841.00,0.1372
840.75,0.1361
840.50,0.1350
840.25,0.1341
840.00,0.1336
839.75,0.1332
839.50,0.1326
839.25,0.1315
839.00,0.1301
838.75,0.1287
838.50,0.1274
838.25,0.1262
838.00,0.1251
837.75,0.1238
837.50,0.1224
837.25,0.1209
837.00,0.1195
836.75,0.1182
836.50,0.1172
836.25,0.1164
836.00,0.1156
835.75,0.1146
835.50,0.1132
835.25,0.1115
835.00,0.1101
834.75,0.1091
834.50,0.1085
834.25,0.1082
834.00,0.1078
833.75,0.1073
833.50,0.1066
833.25,0.1061
833.00,0.1057
832.75,0.1057
832.50,0.1058
832.25,0.1060
832.00,0.1061
831.75,0.1060
831.50,0.1059
831.25,0.1058
831.00,0.1057
830.75,0.1055
830.50,0.1053
830.25,0.1054
830.00,0.1059
829.75,0.1068
829.50,0.1079
829.25,0.1091
829.00,0.1099
828.75,0.1103
828.50,0.1104
828.25,0.1107
828.00,0.1114
827.75,0.1127
827.50,0.1142
827.25,0.1156
827.00,0.1166
826.75,0.1174
826.50,0.1182
826.25,0.1195
826.00,0.1214
825.75,0.1236
825.50,0.1259
825.25,0.1279
825.00,0.1300
824.75,0.1321
824.50,0.1343
824.25,0.1363
824.00,0.1380
823.75,0.1394
823.50,0.1409
823.25,0.1429
823.00,0.1453
822.75,0.1479
822.50,0.1503
822.25,0.1525
822.00,0.1544
821.75,0.1562
821.50,0.1580
821.25,0.1600
821.00,0.1623
820.75,0.1646
820.50,0.1668
820.25,0.1688
820.00,0.1704
819.75,0.1718
819.50,0.1733
819.25,0.1750
819.00,0.1769
818.75,0.1789
818.50,0.1806
818.25,0.1819
818.00,0.1829
817.75,0.1838
817.50,0.1848
817.25,0.1860
817.00,0.1872
816.75,0.1883
816.50,0.1893
816.25,0.1906
816.00,0.1921
815.75,0.1940
815.50,0.1959
815.25,0.1975
815.00,0.1989
814.75,0.1999
814.50,0.2008
814.25,0.2016
814.00,0.2025
813.75,0.2035
813.50,0.2047
813.25,0.2059
813.00,0.2074
812.75,0.2091
812.50,0.2110
812.25,0.2132
812.00,0.2155
811.75,0.2178
811.50,0.2198
811.25,0.2217
811.00,0.2236
810.75,0.2257
810.50,0.2279
810.25,0.2300
810.00,0.2321
809.75,0.2341
809.50,0.2364
809.25,0.2390
809.00,0.2419
808.75,0.2449
808.50,0.2479
808.25,0.2509
808.00,0.2540
807.75,0.2574
807.50,0.2610
807.25,0.2645
807.00,0.2680
806.75,0.2712
806.50,0.2743
806.25,0.2774
806.00,0.2806
805.75,0.2839
805.50,0.2875
805.25,0.2914
805.00,0.2953
804.75,0.2994
804.50,0.3036
804.25,0.3079
804.00,0.3125
803.75,0.3171
803.50,0.3215
803.25,0.3258
803.00,0.3299
802.75,0.3341
802.50,0.3385
802.25,0.3431
802.00,0.3478
801.75,0.3527
801.50,0.3578
801.25,0.3629
801.00,0.3679
800.75,0.3725
800.50,0.3768
800.25,0.3811
800.00,0.3857
