Created as New Dataset,Sample 030 By irlear Date Thursday, January 01 2009
cm-1,A
4000.00,0.0045
3999.75,0.0045
3999.50,0.0045
3999.25,0.0044
3999.00,0.0042
3998.75,0.0041
3998.50,0.0040
3998.25,0.0039
3998.00,0.0039
3997.75,0.0040
3997.50,0.0041
3997.25,0.0042
3997.00,0.0043
3996.75,0.0044
3996.50,0.0045
3996.25,0.0045
3996.00,0.0045
3995.75,0.0044
3995.50,0.0043
3995.25,0.0043
3995.00,0.0042
3994.75,0.0042
3994.50,0.0043
3994.25,0.0043
3994.00,0.0043
3993.75,0.0042
3993.50,0.0041
3993.25,0.0040
3993.00,0.0040
3992.75,0.0041
3992.50,0.0041
3992.25,0.0041
3992.00,0.0042
3991.75,0.0042
3991.50,0.0042
3991.25,0.0042
3991.00,0.0040
3990.75,0.0039
3990.50,0.0038
3990.25,0.0039
3990.00,0.0040
3989.75,0.0041
3989.50,0.0041
3989.25,0.0042
3989.00,0.0043
3988.75,0.0043
3988.50,0.0043
3988.25,0.0042
3988.00,0.0041
3987.75,0.0041
3987.50,0.0042
3987.25,0.0043
3987.00,0.0044
3986.75,0.0044
3986.50,0.0044
3986.25,0.0045
3986.00,0.0045
3985.75,0.0044
3985.50,0.0044
3985.25,0.0044
3985.00,0.0044
3984.75,0.0045
3984.50,0.0046
3984.25,0.0047
3984.00,0.0047
3983.75,0.0047
3983.50,0.0047
3983.25,0.0047
3983.00,0.0047
3982.75,0.0046
3982.50,0.0045
3982.25,0.0044
3982.00,0.0043
3981.75,0.0042
3981.50,0.0041
3981.25,0.0040
3981.00,0.0039
3980.75,0.0039
3980.50,0.0040
3980.25,0.0040
3980.00,0.0041
3979.75,0.0042
3979.50,0.0043
3979.25,0.0044
3979.00,0.0044
3978.75,0.0044
3978.50,0.0044
3978.25,0.0044
3978.00,0.0044
3977.75,0.0044
3977.50,0.0044
3977.25,0.0044
3977.00,0.0044
3976.75,0.0044
3976.50,0.0044
3976.25,0.0045
3976.00,0.0045
3975.75,0.0044
3975.50,0.0043
3975.25,0.0042
3975.00,0.0040
3974.75,0.0040
3974.50,0.0039
3974.25,0.0040
3974.00,0.0040
3973.75,0.0041
3973.50,0.0042
3973.25,0.0042
3973.00,0.0042
3972.75,0.0042
3972.50,0.0042
3972.25,0.0043
3972.00,0.0043
3971.75,0.0043
3971.50,0.0043
3971.25,0.0043
3971.00,0.0043
3970.75,0.0043
3970.50,0.0043
3970.25,0.0042
3970.00,0.0042
3969.75,0.0042
3969.50,0.0041
3969.25,0.0040
3969.00,0.0039
3968.75,0.0038
3968.50,0.0037
3968.25,0.0038
3968.00,0.0039
3967.75,0.0040
3967.50,0.0042
3967.25,0.0044
3967.00,0.0045
3966.75,0.0046
3966.50,0.0047
3966.25,0.0048
3966.00,0.0047
3965.75,0.0046
3965.50,0.0045
3965.25,0.0043
3965.00,0.0041
3964.75,0.0040
3964.50,0.0039
3964.25,0.0039
3964.00,0.0039
3963.75,0.0040
3963.50,0.0041
3963.25,0.0041
3963.00,0.0041
3962.75,0.0042
3962.50,0.0042
3962.25,0.0043
3962.00,0.0044
3961.75,0.0045
3961.50,0.0045
3961.25,0.0044
3961.00,0.0043
3960.75,0.0042
3960.50,0.0042
3960.25,0.0042
3960.00,0.0042
3959.75,0.0042
3959.50,0.0041
3959.25,0.0041
3959.00,0.0042
3958.75,0.0043
3958.50,0.0044
3958.25,0.0045
3958.00,0.0045
3957.75,0.0045
3957.50,0.0044
3957.25,0.0044
3957.00,0.0043
3956.75,0.0043
3956.50,0.0043
3956.25,0.0043
3956.00,0.0043
3955.75,0.0043
3955.50,0.0044
3955.25,0.0044
3955.00,0.0043
3954.75,0.0043
3954.50,0.0043
3954.25,0.0042
3954.00,0.0042
3953.75,0.0042
3953.50,0.0042
3953.25,0.0042
3953.00,0.0042
3952.75,0.0042
3952.50,0.0042
3952.25,0.0041
3952.00,0.0041
3951.75,0.0042
3951.50,0.0043
3951.25,0.0044
3951.00,0.0045
3950.75,0.0045
3950.50,0.0044
3950.25,0.0042
3950.00,0.0041
3949.75,0.0040
3949.50,0.0040
3949.25,0.0039
3949.00,0.0039
3948.75,0.0039
3948.50,0.0039
3948.25,0.0040
3948.00,0.0040
3947.75,0.0039
3947.50,0.0039
3947.25,0.0038
3947.00,0.0038
3946.75,0.0038
3946.50,0.0039
3946.25,0.0039
3946.00,0.0040
3945.75,0.0040
3945.50,0.0041
3945.25,0.0042
3945.00,0.0044
3944.75,0.0045
3944.50,0.0046
3944.25,0.0046
3944.00,0.0045
3943.75,0.0043
3943.50,0.0042
3943.25,0.0041
3943.00,0.0041
3942.75,0.0041
3942.50,0.0041
3942.25,0.0040
3942.00,0.0040
3941.75,0.0039
3941.50,0.0040
3941.25,0.0041
3941.00,0.0042
3940.75,0.0043
3940.50,0.0043
3940.25,0.0044
3940.00,0.0045
3939.75,0.0045
3939.50,0.0044
3939.25,0.0043
3939.00,0.0041
3938.75,0.0040
3938.50,0.0040
3938.25,0.0040
3938.00,0.0041
3937.75,0.0041
3937.50,0.0041
3937.25,0.0041
3937.00,0.0040
3936.75,0.0039
3936.50,0.0039
3936.25,0.0039
3936.00,0.0039
3935.75,0.0040
3935.50,0.0042
3935.25,0.0043
3935.00,0.0044
3934.75,0.0044
3934.50,0.0044
3934.25,0.0044
3934.00,0.0044
3933.75,0.0044
3933.50,0.0044
3933.25,0.0043
3933.00,0.0043
3932.75,0.0042
3932.50,0.0043
3932.25,0.0045
3932.00,0.0046
3931.75,0.0046
3931.50,0.0045
3931.25,0.0044
3931.00,0.0043
3930.75,0.0042
3930.50,0.0042
3930.25,0.0041
3930.00,0.0040
3929.75,0.0040
3929.50,0.0040
3929.25,0.0041
3929.00,0.0043
3928.75,0.0044
3928.50,0.0044
3928.25,0.0044
3928.00,0.0043
3927.75,0.0043
3927.50,0.0043
3927.25,0.0042
3927.00,0.0041
3926.75,0.0040
3926.50,0.0038
3926.25,0.0038
3926.00,0.0038
3925.75,0.0040
3925.50,0.0042
3925.25,0.0043
3925.00,0.0043
3924.75,0.0043
3924.50,0.0041
3924.25,0.0040
3924.00,0.0039
3923.75,0.0039
3923.50,0.0040
3923.25,0.0041
3923.00,0.0043
3922.75,0.0044
3922.50,0.0045
3922.25,0.0045
3922.00,0.0045
3921.75,0.0045
3921.50,0.0044
3921.25,0.0043
3921.00,0.0041
3920.75,0.0041
3920.50,0.0040
3920.25,0.0041
3920.00,0.0041
3919.75,0.0040
3919.50,0.0038
3919.25,0.0037
3919.00,0.0036
3918.75,0.0036
3918.50,0.0037
3918.25,0.0039
3918.00,0.0040
3917.75,0.0040
3917.50,0.0039
3917.25,0.0038
3917.00,0.0038
3916.75,0.0038
3916.50,0.0038
3916.25,0.0038
3916.00,0.0039
3915.75,0.0040
3915.50,0.0041
3915.25,0.0043
3915.00,0.0045
3914.75,0.0046
3914.50,0.0047
3914.25,0.0046
3914.00,0.0045
3913.75,0.0044
3913.50,0.0043
3913.25,0.0041
3913.00,0.0041
3912.75,0.0040
3912.50,0.0040
3912.25,0.0040
3912.00,0.0040
3911.75,0.0040
3911.50,0.0040
3911.25,0.0041
3911.00,0.0041
3910.75,0.0041
3910.50,0.0041
3910.25,0.0041
3910.00,0.0041
3909.75,0.0041
3909.50,0.0041
3909.25,0.0042
3909.00,0.0043
3908.75,0.0045
3908.50,0.0045
3908.25,0.0045
3908.00,0.0044
3907.75,0.0043
3907.50,0.0043
3907.25,0.0042
3907.00,0.0042
3906.75,0.0041
3906.50,0.0041
3906.25,0.0042
3906.00,0.0043
3905.75,0.0045
3905.50,0.0045
3905.25,0.0045
3905.00,0.0044
3904.75,0.0042
3904.50,0.0039
3904.25,0.0036
3904.00,0.0034
3903.75,0.0034
3903.50,0.0035
3903.25,0.0036
3903.00,0.0037
3902.75,0.0039
3902.50,0.0040
3902.25,0.0041
3902.00,0.0042
3901.75,0.0041
3901.50,0.0039
3901.25,0.0037
3901.00,0.0038
3900.75,0.0039
3900.50,0.0041
3900.25,0.0044
3900.00,0.0045
3899.75,0.0045
3899.50,0.0043
3899.25,0.0040
3899.00,0.0037
3898.75,0.0036
3898.50,0.0036
3898.25,0.0038
3898.00,0.0039
3897.75,0.0041
3897.50,0.0042
3897.25,0.0043
3897.00,0.0043
3896.75,0.0042
3896.50,0.0042
3896.25,0.0042
3896.00,0.0043
3895.75,0.0044
3895.50,0.0045
3895.25,0.0046
3895.00,0.0045
3894.75,0.0044
3894.50,0.0043
3894.25,0.0042
3894.00,0.0042
3893.75,0.0042
3893.50,0.0042
3893.25,0.0042
3893.00,0.0043
3892.75,0.0044
3892.50,0.0046
3892.25,0.0047
3892.00,0.0047
3891.75,0.0046
3891.50,0.0045
3891.25,0.0044
3891.00,0.0042
3890.75,0.0041
3890.50,0.0040
3890.25,0.0039
3890.00,0.0039
3889.75,0.0040
3889.50,0.0041
3889.25,0.0042
3889.00,0.0043
3888.75,0.0044
3888.50,0.0045
3888.25,0.0045
3888.00,0.0045
3887.75,0.0045
3887.50,0.0044
3887.25,0.0043
3887.00,0.0043
3886.75,0.0044
3886.50,0.0045
3886.25,0.0044
3886.00,0.0043
3885.75,0.0042
3885.50,0.0040
3885.25,0.0038
3885.00,0.0039
3884.75,0.0040
3884.50,0.0042
3884.25,0.0044
3884.00,0.0046
3883.75,0.0047
3883.50,0.0047
3883.25,0.0046
3883.00,0.0044
3882.75,0.0042
3882.50,0.0041
3882.25,0.0041
3882.00,0.0041
3881.75,0.0042
3881.50,0.0043
3881.25,0.0043
3881.00,0.0042
3880.75,0.0042
3880.50,0.0041
3880.25,0.0040
3880.00,0.0039
3879.75,0.0038
3879.50,0.0038
3879.25,0.0037
3879.00,0.0037
3878.75,0.0038
3878.50,0.0039
3878.25,0.0040
3878.00,0.0041
3877.75,0.0042
3877.50,0.0042
3877.25,0.0041
3877.00,0.0040
3876.75,0.0039
3876.50,0.0038
3876.25,0.0039
3876.00,0.0040
3875.75,0.0042
3875.50,0.0043
3875.25,0.0045
3875.00,0.0045
3874.75,0.0045
3874.50,0.0046
3874.25,0.0047
3874.00,0.0047
3873.75,0.0044
3873.50,0.0041
3873.25,0.0039
3873.00,0.0039
3872.75,0.0039
3872.50,0.0040
3872.25,0.0042
3872.00,0.0044
3871.75,0.0046
3871.50,0.0048
3871.25,0.0049
3871.00,0.0049
3870.75,0.0048
3870.50,0.0046
3870.25,0.0044
3870.00,0.0042
3869.75,0.0041
3869.50,0.0041
3869.25,0.0042
3869.00,0.0042
3868.75,0.0042
3868.50,0.0043
3868.25,0.0042
3868.00,0.0041
3867.75,0.0040
3867.50,0.0038
3867.25,0.0037
3867.00,0.0036
3866.75,0.0037
3866.50,0.0039
3866.25,0.0041
3866.00,0.0043
3865.75,0.0044
3865.50,0.0044
3865.25,0.0042
3865.00,0.0041
3864.75,0.0040
3864.50,0.0040
3864.25,0.0040
3864.00,0.0041
3863.75,0.0042
3863.50,0.0043
3863.25,0.0044
3863.00,0.0045
3862.75,0.0044
3862.50,0.0043
3862.25,0.0041
3862.00,0.0040
3861.75,0.0040
3861.50,0.0041
3861.25,0.0041
3861.00,0.0040
3860.75,0.0039
3860.50,0.0037
3860.25,0.0036
3860.00,0.0037
3859.75,0.0038
3859.50,0.0039
3859.25,0.0040
3859.00,0.0041
3858.75,0.0042
3858.50,0.0043
3858.25,0.0044
3858.00,0.0044
3857.75,0.0044
3857.50,0.0044
3857.25,0.0044
3857.00,0.0044
3856.75,0.0044
3856.50,0.0042
3856.25,0.0041
3856.00,0.0040
3855.75,0.0040
3855.50,0.0040
3855.25,0.0042
3855.00,0.0043
3854.75,0.0043
3854.50,0.0043
3854.25,0.0044
3854.00,0.0052
3853.75,0.0052
3853.50,0.0049
3853.25,0.0046
3853.00,0.0044
3852.75,0.0042
3852.50,0.0038
3852.25,0.0036
3852.00,0.0035
3851.75,0.0036
3851.50,0.0038
3851.25,0.0039
3851.00,0.0040
3850.75,0.0040
3850.50,0.0040
3850.25,0.0040
3850.00,0.0041
3849.75,0.0042
3849.50,0.0043
3849.25,0.0043
3849.00,0.0044
3848.75,0.0044
3848.50,0.0043
3848.25,0.0043
3848.00,0.0044
3847.75,0.0045
3847.50,0.0046
3847.25,0.0046
3847.00,0.0045
3846.75,0.0044
3846.50,0.0042
3846.25,0.0041
3846.00,0.0041
3845.75,0.0041
3845.50,0.0041
3845.25,0.0041
3845.00,0.0042
3844.75,0.0043
3844.50,0.0044
3844.25,0.0045
3844.00,0.0046
3843.75,0.0047
3843.50,0.0046
3843.25,0.0043
3843.00,0.0041
3842.75,0.0040
3842.50,0.0041
3842.25,0.0043
3842.00,0.0044
3841.75,0.0045
3841.50,0.0044
3841.25,0.0042
3841.00,0.0040
3840.75,0.0039
3840.50,0.0039
3840.25,0.0039
3840.00,0.0041
3839.75,0.0042
3839.50,0.0043
3839.25,0.0044
3839.00,0.0045
3838.75,0.0045
3838.50,0.0044
3838.25,0.0042
3838.00,0.0040
3837.75,0.0038
3837.50,0.0037
3837.25,0.0038
3837.00,0.0040
3836.75,0.0040
3836.50,0.0040
3836.25,0.0040
3836.00,0.0041
3835.75,0.0041
3835.50,0.0041
3835.25,0.0041
3835.00,0.0041
3834.75,0.0042
3834.50,0.0042
3834.25,0.0041
3834.00,0.0040
3833.75,0.0039
3833.50,0.0039
3833.25,0.0040
3833.00,0.0042
3832.75,0.0043
3832.50,0.0044
3832.25,0.0044
3832.00,0.0044
3831.75,0.0045
3831.50,0.0048
3831.25,0.0050
3831.00,0.0049
3830.75,0.0047
3830.50,0.0045
3830.25,0.0043
3830.00,0.0043
3829.75,0.0043
3829.50,0.0042
3829.25,0.0042
3829.00,0.0042
3828.75,0.0042
3828.50,0.0042
3828.25,0.0042
3828.00,0.0044
3827.75,0.0045
3827.50,0.0046
3827.25,0.0046
3827.00,0.0047
3826.75,0.0047
3826.50,0.0048
3826.25,0.0047
3826.00,0.0046
3825.75,0.0044
3825.50,0.0043
3825.25,0.0043
3825.00,0.0044
3824.75,0.0045
3824.50,0.0047
3824.25,0.0048
3824.00,0.0049
3823.75,0.0048
3823.50,0.0048
3823.25,0.0046
3823.00,0.0044
3822.75,0.0043
3822.50,0.0041
3822.25,0.0040
3822.00,0.0039
3821.75,0.0038
3821.50,0.0039
3821.25,0.0038
3821.00,0.0035
3820.75,0.0034
3820.50,0.0035
3820.25,0.0039
3820.00,0.0043
3819.75,0.0045
3819.50,0.0045
3819.25,0.0043
3819.00,0.0042
3818.75,0.0041
3818.50,0.0041
3818.25,0.0043
3818.00,0.0044
3817.75,0.0045
3817.50,0.0045
3817.25,0.0046
3817.00,0.0048
3816.75,0.0049
3816.50,0.0049
3816.25,0.0050
3816.00,0.0051
3815.75,0.0053
3815.50,0.0052
3815.25,0.0050
3815.00,0.0047
3814.75,0.0044
3814.50,0.0042
3814.25,0.0042
3814.00,0.0043
3813.75,0.0045
3813.50,0.0046
3813.25,0.0047
3813.00,0.0047
3812.75,0.0047
3812.50,0.0047
3812.25,0.0047
3812.00,0.0046
3811.75,0.0045
3811.50,0.0043
3811.25,0.0042
3811.00,0.0041
3810.75,0.0040
3810.50,0.0041
3810.25,0.0042
3810.00,0.0042
3809.75,0.0043
3809.50,0.0043
3809.25,0.0042
3809.00,0.0041
3808.75,0.0040
3808.50,0.0040
3808.25,0.0040
3808.00,0.0042
3807.75,0.0043
3807.50,0.0045
3807.25,0.0046
3807.00,0.0048
3806.75,0.0047
3806.50,0.0044
3806.25,0.0041
3806.00,0.0039
3805.75,0.0039
3805.50,0.0039
3805.25,0.0040
3805.00,0.0041
3804.75,0.0041
3804.50,0.0041
3804.25,0.0042
3804.00,0.0042
3803.75,0.0043
3803.50,0.0042
3803.25,0.0042
3803.00,0.0042
3802.75,0.0043
3802.50,0.0044
3802.25,0.0045
3802.00,0.0044
3801.75,0.0042
3801.50,0.0041
3801.25,0.0043
3801.00,0.0044
3800.75,0.0044
3800.50,0.0043
3800.25,0.0041
3800.00,0.0039
3799.75,0.0039
3799.50,0.0039
3799.25,0.0040
3799.00,0.0042
3798.75,0.0043
3798.50,0.0044
3798.25,0.0045
3798.00,0.0047
3797.75,0.0049
3797.50,0.0051
3797.25,0.0051
3797.00,0.0050
3796.75,0.0049
3796.50,0.0048
3796.25,0.0047
3796.00,0.0046
3795.75,0.0044
3795.50,0.0041
3795.25,0.0040
3795.00,0.0039
3794.75,0.0040
3794.50,0.0041
3794.25,0.0043
3794.00,0.0045
3793.75,0.0045
3793.50,0.0045
3793.25,0.0044
3793.00,0.0043
3792.75,0.0043
3792.50,0.0043
3792.25,0.0043
3792.00,0.0044
3791.75,0.0043
3791.50,0.0042
3791.25,0.0041
3791.00,0.0040
3790.75,0.0040
3790.50,0.0041
3790.25,0.0042
3790.00,0.0042
3789.75,0.0042
3789.50,0.0041
3789.25,0.0041
3789.00,0.0041
3788.75,0.0042
3788.50,0.0042
3788.25,0.0043
3788.00,0.0044
3787.75,0.0045
3787.50,0.0046
3787.25,0.0047
3787.00,0.0047
3786.75,0.0047
3786.50,0.0047
3786.25,0.0047
3786.00,0.0047
3785.75,0.0048
3785.50,0.0047
3785.25,0.0046
3785.00,0.0046
3784.75,0.0047
3784.50,0.0048
3784.25,0.0049
3784.00,0.0049
3783.75,0.0048
3783.50,0.0047
3783.25,0.0046
3783.00,0.0046
3782.75,0.0045
3782.50,0.0045
3782.25,0.0045
3782.00,0.0045
3781.75,0.0046
3781.50,0.0046
3781.25,0.0047
3781.00,0.0047
3780.75,0.0047
3780.50,0.0047
3780.25,0.0046
3780.00,0.0043
3779.75,0.0039
3779.50,0.0037
3779.25,0.0038
3779.00,0.0040
3778.75,0.0043
3778.50,0.0046
3778.25,0.0047
3778.00,0.0047
3777.75,0.0046
3777.50,0.0045
3777.25,0.0045
3777.00,0.0045
3776.75,0.0045
3776.50,0.0046
3776.25,0.0046
3776.00,0.0046
3775.75,0.0045
3775.50,0.0044
3775.25,0.0043
3775.00,0.0043
3774.75,0.0042
3774.50,0.0042
3774.25,0.0041
3774.00,0.0040
3773.75,0.0040
3773.50,0.0040
3773.25,0.0040
3773.00,0.0041
3772.75,0.0042
3772.50,0.0044
3772.25,0.0045
3772.00,0.0046
3771.75,0.0048
3771.50,0.0049
3771.25,0.0049
3771.00,0.0048
3770.75,0.0047
3770.50,0.0045
3770.25,0.0043
3770.00,0.0042
3769.75,0.0041
3769.50,0.0041
3769.25,0.0041
3769.00,0.0042
3768.75,0.0043
3768.50,0.0043
3768.25,0.0043
3768.00,0.0043
3767.75,0.0042
3767.50,0.0043
3767.25,0.0044
3767.00,0.0045
3766.75,0.0047
3766.50,0.0049
3766.25,0.0050
3766.00,0.0050
3765.75,0.0049
3765.50,0.0048
3765.25,0.0047
3765.00,0.0047
3764.75,0.0048
3764.50,0.0048
3764.25,0.0047
3764.00,0.0046
3763.75,0.0046
3763.50,0.0047
3763.25,0.0048
3763.00,0.0048
3762.75,0.0049
3762.50,0.0049
3762.25,0.0049
3762.00,0.0049
3761.75,0.0049
3761.50,0.0049
3761.25,0.0048
3761.00,0.0047
3760.75,0.0047
3760.50,0.0045
3760.25,0.0044
3760.00,0.0042
3759.75,0.0041
3759.50,0.0041
3759.25,0.0042
3759.00,0.0043
3758.75,0.0045
3758.50,0.0046
3758.25,0.0047
3758.00,0.0048
3757.75,0.0049
3757.50,0.0050
3757.25,0.0051
3757.00,0.0051
3756.75,0.0050
3756.50,0.0047
3756.25,0.0044
3756.00,0.0041
3755.75,0.0040
3755.50,0.0041
3755.25,0.0044
3755.00,0.0046
3754.75,0.0047
3754.50,0.0047
3754.25,0.0046
3754.00,0.0045
3753.75,0.0045
3753.50,0.0045
3753.25,0.0046
3753.00,0.0048
3752.75,0.0048
3752.50,0.0048
3752.25,0.0048
3752.00,0.0048
3751.75,0.0047
3751.50,0.0047
3751.25,0.0048
3751.00,0.0049
3750.75,0.0051
3750.50,0.0054
3750.25,0.0058
3750.00,0.0062
3749.75,0.0065
3749.50,0.0065
3749.25,0.0058
3749.00,0.0046
3748.75,0.0038
3748.50,0.0036
3748.25,0.0037
3748.00,0.0039
3747.75,0.0042
3747.50,0.0044
3747.25,0.0047
3747.00,0.0048
3746.75,0.0048
3746.50,0.0048
3746.25,0.0048
3746.00,0.0047
3745.75,0.0047
3745.50,0.0047
3745.25,0.0044
3745.00,0.0037
3744.75,0.0027
3744.50,0.0022
3744.25,0.0021
3744.00,0.0025
3743.75,0.0031
3743.50,0.0035
3743.25,0.0038
3743.00,0.0039
3742.75,0.0041
3742.50,0.0043
3742.25,0.0044
3742.00,0.0045
3741.75,0.0045
3741.50,0.0046
3741.25,0.0047
3741.00,0.0050
3740.75,0.0052
3740.50,0.0052
3740.25,0.0051
3740.00,0.0048
3739.75,0.0046
3739.50,0.0045
3739.25,0.0045
3739.00,0.0045
3738.75,0.0046
3738.50,0.0048
3738.25,0.0050
3738.00,0.0052
3737.75,0.0053
3737.50,0.0052
3737.25,0.0050
3737.00,0.0047
3736.75,0.0044
3736.50,0.0042
3736.25,0.0041
3736.00,0.0040
3735.75,0.0039
3735.50,0.0037
3735.25,0.0036
3735.00,0.0038
3734.75,0.0042
3734.50,0.0044
3734.25,0.0044
3734.00,0.0043
3733.75,0.0043
3733.50,0.0043
3733.25,0.0045
3733.00,0.0046
3732.75,0.0049
3732.50,0.0052
3732.25,0.0056
3732.00,0.0058
3731.75,0.0055
3731.50,0.0050
3731.25,0.0045
3731.00,0.0043
3730.75,0.0042
3730.50,0.0043
3730.25,0.0045
3730.00,0.0046
3729.75,0.0047
3729.50,0.0047
3729.25,0.0046
3729.00,0.0045
3728.75,0.0045
3728.50,0.0045
3728.25,0.0045
3728.00,0.0045
3727.75,0.0045
3727.50,0.0046
3727.25,0.0046
3727.00,0.0046
3726.75,0.0044
3726.50,0.0043
3726.25,0.0043
3726.00,0.0043
3725.75,0.0044
3725.50,0.0045
3725.25,0.0047
3725.00,0.0049
3724.75,0.0051
3724.50,0.0051
3724.25,0.0050
3724.00,0.0049
3723.75,0.0048
3723.50,0.0049
3723.25,0.0051
3723.00,0.0054
3722.75,0.0057
3722.50,0.0059
3722.25,0.0058
3722.00,0.0055
3721.75,0.0051
3721.50,0.0047
3721.25,0.0045
3721.00,0.0044
3720.75,0.0044
3720.50,0.0046
3720.25,0.0047
3720.00,0.0048
3719.75,0.0047
3719.50,0.0046
3719.25,0.0044
3719.00,0.0044
3718.75,0.0043
3718.50,0.0043
3718.25,0.0043
3718.00,0.0044
3717.75,0.0045
3717.50,0.0047
3717.25,0.0047
3717.00,0.0047
3716.75,0.0046
3716.50,0.0046
3716.25,0.0046
3716.00,0.0048
3715.75,0.0049
3715.50,0.0050
3715.25,0.0051
3715.00,0.0051
3714.75,0.0051
3714.50,0.0050
3714.25,0.0048
3714.00,0.0046
3713.75,0.0046
3713.50,0.0047
3713.25,0.0049
3713.00,0.0051
3712.75,0.0053
3712.50,0.0054
3712.25,0.0054
3712.00,0.0055
3711.75,0.0054
3711.50,0.0053
3711.25,0.0052
3711.00,0.0051
3710.75,0.0051
3710.50,0.0051
3710.25,0.0050
3710.00,0.0049
3709.75,0.0048
3709.50,0.0047
3709.25,0.0047
3709.00,0.0048
3708.75,0.0048
3708.50,0.0049
3708.25,0.0049
3708.00,0.0049
3707.75,0.0049
3707.50,0.0048
3707.25,0.0048
3707.00,0.0048
3706.75,0.0048
3706.50,0.0050
3706.25,0.0051
3706.00,0.0052
3705.75,0.0053
3705.50,0.0052
3705.25,0.0052
3705.00,0.0050
3704.75,0.0048
3704.50,0.0046
3704.25,0.0045
3704.00,0.0046
3703.75,0.0046
3703.50,0.0048
3703.25,0.0048
3703.00,0.0048
3702.75,0.0047
3702.50,0.0046
3702.25,0.0046
3702.00,0.0045
3701.75,0.0045
3701.50,0.0044
3701.25,0.0043
3701.00,0.0043
3700.75,0.0045
3700.50,0.0047
3700.25,0.0048
3700.00,0.0049
3699.75,0.0049
3699.50,0.0049
3699.25,0.0049
3699.00,0.0049
3698.75,0.0050
3698.50,0.0051
3698.25,0.0052
3698.00,0.0051
3697.75,0.0049
3697.50,0.0047
3697.25,0.0045
3697.00,0.0045
3696.75,0.0045
3696.50,0.0046
3696.25,0.0046
3696.00,0.0046
3695.75,0.0045
3695.50,0.0045
3695.25,0.0046
3695.00,0.0046
3694.75,0.0047
3694.50,0.0048
3694.25,0.0048
3694.00,0.0049
3693.75,0.0048
3693.50,0.0047
3693.25,0.0046
3693.00,0.0045
3692.75,0.0044
3692.50,0.0044
3692.25,0.0044
3692.00,0.0044
3691.75,0.0043
3691.50,0.0043
3691.25,0.0044
3691.00,0.0046
3690.75,0.0047
3690.50,0.0045
3690.25,0.0043
3690.00,0.0042
3689.75,0.0042
3689.50,0.0043
3689.25,0.0045
3689.00,0.0047
3688.75,0.0047
3688.50,0.0049
3688.25,0.0051
3688.00,0.0051
3687.75,0.0049
3687.50,0.0046
3687.25,0.0045
3687.00,0.0045
3686.75,0.0046
3686.50,0.0046
3686.25,0.0045
3686.00,0.0044
3685.75,0.0042
3685.50,0.0041
3685.25,0.0041
3685.00,0.0042
3684.75,0.0043
3684.50,0.0044
3684.25,0.0044
3684.00,0.0043
3683.75,0.0043
3683.50,0.0044
3683.25,0.0045
3683.00,0.0047
3682.75,0.0048
3682.50,0.0048
3682.25,0.0048
3682.00,0.0047
3681.75,0.0047
3681.50,0.0047
3681.25,0.0048
3681.00,0.0048
3680.75,0.0048
3680.50,0.0048
3680.25,0.0047
3680.00,0.0047
3679.75,0.0046
3679.50,0.0046
3679.25,0.0045
3679.00,0.0044
3678.75,0.0044
3678.50,0.0044
3678.25,0.0045
3678.00,0.0046
3677.75,0.0047
3677.50,0.0049
3677.25,0.0051
3677.00,0.0052
3676.75,0.0052
3676.50,0.0049
3676.25,0.0046
3676.00,0.0044
3675.75,0.0045
3675.50,0.0048
3675.25,0.0049
3675.00,0.0047
3674.75,0.0044
3674.50,0.0043
3674.25,0.0042
3674.00,0.0043
3673.75,0.0044
3673.50,0.0044
3673.25,0.0045
3673.00,0.0046
3672.75,0.0046
3672.50,0.0046
3672.25,0.0045
3672.00,0.0045
3671.75,0.0045
3671.50,0.0046
3671.25,0.0046
3671.00,0.0047
3670.75,0.0048
3670.50,0.0049
3670.25,0.0048
3670.00,0.0046
3669.75,0.0044
3669.50,0.0042
3669.25,0.0042
3669.00,0.0042
3668.75,0.0043
3668.50,0.0043
3668.25,0.0042
3668.00,0.0041
3667.75,0.0040
3667.50,0.0041
3667.25,0.0042
3667.00,0.0043
3666.75,0.0044
3666.50,0.0044
3666.25,0.0044
3666.00,0.0045
3665.75,0.0046
3665.50,0.0047
3665.25,0.0049
3665.00,0.0050
3664.75,0.0050
3664.50,0.0050
3664.25,0.0049
3664.00,0.0048
3663.75,0.0048
3663.50,0.0048
3663.25,0.0048
3663.00,0.0048
3662.75,0.0048
3662.50,0.0048
3662.25,0.0048
3662.00,0.0046
3661.75,0.0046
3661.50,0.0045
3661.25,0.0046
3661.00,0.0047
3660.75,0.0047
3660.50,0.0048
3660.25,0.0048
3660.00,0.0049
3659.75,0.0050
3659.50,0.0051
3659.25,0.0050
3659.00,0.0048
3658.75,0.0045
3658.50,0.0043
3658.25,0.0042
3658.00,0.0042
3657.75,0.0043
3657.50,0.0044
3657.25,0.0045
3657.00,0.0045
3656.75,0.0043
3656.50,0.0041
3656.25,0.0041
3656.00,0.0044
3655.75,0.0048
3655.50,0.0051
3655.25,0.0053
3655.00,0.0053
3654.75,0.0052
3654.50,0.0050
3654.25,0.0048
3654.00,0.0047
3653.75,0.0045
3653.50,0.0045
3653.25,0.0046
3653.00,0.0047
3652.75,0.0047
3652.50,0.0046
3652.25,0.0045
3652.00,0.0044
3651.75,0.0043
3651.50,0.0042
3651.25,0.0042
3651.00,0.0040
3650.75,0.0038
3650.50,0.0037
3650.25,0.0038
3650.00,0.0042
3649.75,0.0044
3649.50,0.0046
3649.25,0.0048
3649.00,0.0050
3648.75,0.0050
3648.50,0.0050
3648.25,0.0049
3648.00,0.0048
3647.75,0.0047
3647.50,0.0047
3647.25,0.0049
3647.00,0.0049
3646.75,0.0049
3646.50,0.0049
3646.25,0.0049
3646.00,0.0051
3645.75,0.0052
3645.50,0.0052
3645.25,0.0052
3645.00,0.0051
3644.75,0.0051
3644.50,0.0051
3644.25,0.0051
3644.00,0.0051
3643.75,0.0051
3643.50,0.0049
3643.25,0.0047
3643.00,0.0046
3642.75,0.0045
3642.50,0.0046
3642.25,0.0047
3642.00,0.0048
3641.75,0.0048
3641.50,0.0047
3641.25,0.0045
3641.00,0.0043
3640.75,0.0042
3640.50,0.0042
3640.25,0.0043
3640.00,0.0045
3639.75,0.0047
3639.50,0.0049
3639.25,0.0050
3639.00,0.0051
3638.75,0.0051
3638.50,0.0051
3638.25,0.0051
3638.00,0.0052
3637.75,0.0052
3637.50,0.0051
3637.25,0.0049
3637.00,0.0047
3636.75,0.0046
3636.50,0.0046
3636.25,0.0047
3636.00,0.0048
3635.75,0.0049
3635.50,0.0048
3635.25,0.0048
3635.00,0.0048
3634.75,0.0048
3634.50,0.0050
3634.25,0.0052
3634.00,0.0055
3633.75,0.0058
3633.50,0.0059
3633.25,0.0058
3633.00,0.0056
3632.75,0.0054
3632.50,0.0053
3632.25,0.0053
3632.00,0.0053
3631.75,0.0054
3631.50,0.0055
3631.25,0.0056
3631.00,0.0057
3630.75,0.0058
3630.50,0.0058
3630.25,0.0057
3630.00,0.0053
3629.75,0.0050
3629.50,0.0049
3629.25,0.0051
3629.00,0.0050
3628.75,0.0045
3628.50,0.0038
3628.25,0.0033
3628.00,0.0033
3627.75,0.0037
3627.50,0.0043
3627.25,0.0048
3627.00,0.0051
3626.75,0.0054
3626.50,0.0055
3626.25,0.0055
3626.00,0.0053
3625.75,0.0051
3625.50,0.0049
3625.25,0.0046
3625.00,0.0045
3624.75,0.0045
3624.50,0.0046
3624.25,0.0047
3624.00,0.0049
3623.75,0.0050
3623.50,0.0050
3623.25,0.0050
3623.00,0.0049
3622.75,0.0048
3622.50,0.0048
3622.25,0.0047
3622.00,0.0048
3621.75,0.0049
3621.50,0.0051
3621.25,0.0053
3621.00,0.0054
3620.75,0.0053
3620.50,0.0051
3620.25,0.0048
3620.00,0.0044
3619.75,0.0040
3619.50,0.0041
3619.25,0.0046
3619.00,0.0052
3618.75,0.0056
3618.50,0.0058
3618.25,0.0058
3618.00,0.0057
3617.75,0.0056
3617.50,0.0054
3617.25,0.0052
3617.00,0.0049
3616.75,0.0048
3616.50,0.0048
3616.25,0.0048
3616.00,0.0049
3615.75,0.0051
3615.50,0.0052
3615.25,0.0053
3615.00,0.0053
3614.75,0.0051
3614.50,0.0049
3614.25,0.0047
3614.00,0.0047
3613.75,0.0049
3613.50,0.0050
3613.25,0.0050
3613.00,0.0050
3612.75,0.0049
3612.50,0.0047
3612.25,0.0045
3612.00,0.0045
3611.75,0.0046
3611.50,0.0047
3611.25,0.0048
3611.00,0.0048
3610.75,0.0047
3610.50,0.0047
3610.25,0.0046
3610.00,0.0044
3609.75,0.0043
3609.50,0.0043
3609.25,0.0046
3609.00,0.0051
3608.75,0.0054
3608.50,0.0055
3608.25,0.0054
3608.00,0.0053
3607.75,0.0052
3607.50,0.0052
3607.25,0.0052
3607.00,0.0053
3606.75,0.0052
3606.50,0.0048
3606.25,0.0045
3606.00,0.0042
3605.75,0.0041
3605.50,0.0042
3605.25,0.0043
3605.00,0.0045
3604.75,0.0047
3604.50,0.0048
3604.25,0.0049
3604.00,0.0050
3603.75,0.0051
3603.50,0.0051
3603.25,0.0052
3603.00,0.0052
3602.75,0.0051
3602.50,0.0051
3602.25,0.0050
3602.00,0.0049
3601.75,0.0048
3601.50,0.0048
3601.25,0.0049
3601.00,0.0050
3600.75,0.0051
3600.50,0.0052
3600.25,0.0053
3600.00,0.0054
3599.75,0.0055
3599.50,0.0056
3599.25,0.0057
3599.00,0.0057
3598.75,0.0056
3598.50,0.0055
3598.25,0.0054
3598.00,0.0051
3597.75,0.0049
3597.50,0.0047
3597.25,0.0047
3597.00,0.0049
3596.75,0.0050
3596.50,0.0051
3596.25,0.0050
3596.00,0.0049
3595.75,0.0048
3595.50,0.0048
3595.25,0.0050
3595.00,0.0052
3594.75,0.0053
3594.50,0.0053
3594.25,0.0053
3594.00,0.0052
3593.75,0.0051
3593.50,0.0050
3593.25,0.0051
3593.00,0.0052
3592.75,0.0053
3592.50,0.0054
3592.25,0.0054
3592.00,0.0053
3591.75,0.0052
3591.50,0.0051
3591.25,0.0051
3591.00,0.0052
3590.75,0.0053
3590.50,0.0054
3590.25,0.0054
3590.00,0.0054
3589.75,0.0053
3589.50,0.0053
3589.25,0.0051
3589.00,0.0048
3588.75,0.0046
3588.50,0.0046
3588.25,0.0047
3588.00,0.0048
3587.75,0.0048
3587.50,0.0048
3587.25,0.0048
3587.00,0.0048
3586.75,0.0046
3586.50,0.0044
3586.25,0.0042
3586.00,0.0042
3585.75,0.0044
3585.50,0.0047
3585.25,0.0048
3585.00,0.0048
3584.75,0.0048
3584.50,0.0047
3584.25,0.0047
3584.00,0.0048
3583.75,0.0050
3583.50,0.0052
3583.25,0.0052
3583.00,0.0051
3582.75,0.0050
3582.50,0.0049
3582.25,0.0049
3582.00,0.0048
3581.75,0.0048
3581.50,0.0047
3581.25,0.0046
3581.00,0.0047
3580.75,0.0047
3580.50,0.0047
3580.25,0.0047
3580.00,0.0046
3579.75,0.0047
3579.50,0.0048
3579.25,0.0050
3579.00,0.0052
3578.75,0.0053
3578.50,0.0053
3578.25,0.0051
3578.00,0.0049
3577.75,0.0048
3577.50,0.0048
3577.25,0.0048
3577.00,0.0048
3576.75,0.0048
3576.50,0.0048
3576.25,0.0047
3576.00,0.0047
3575.75,0.0047
3575.50,0.0048
3575.25,0.0049
3575.00,0.0049
3574.75,0.0049
3574.50,0.0050
3574.25,0.0051
3574.00,0.0052
3573.75,0.0053
3573.50,0.0054
3573.25,0.0053
3573.00,0.0053
3572.75,0.0052
3572.50,0.0052
3572.25,0.0051
3572.00,0.0051
3571.75,0.0050
3571.50,0.0050
3571.25,0.0050
3571.00,0.0051
3570.75,0.0051
3570.50,0.0052
3570.25,0.0051
3570.00,0.0050
3569.75,0.0049
3569.50,0.0048
3569.25,0.0048
3569.00,0.0047
3568.75,0.0046
3568.50,0.0046
3568.25,0.0046
3568.00,0.0047
3567.75,0.0048
3567.50,0.0050
3567.25,0.0052
3567.00,0.0054
3566.75,0.0056
3566.50,0.0058
3566.25,0.0058
3566.00,0.0056
3565.75,0.0053
3565.50,0.0050
3565.25,0.0049
3565.00,0.0048
3564.75,0.0049
3564.50,0.0050
3564.25,0.0051
3564.00,0.0050
3563.75,0.0049
3563.50,0.0048
3563.25,0.0047
3563.00,0.0046
3562.75,0.0046
3562.50,0.0046
3562.25,0.0047
3562.00,0.0048
3561.75,0.0049
3561.50,0.0049
3561.25,0.0049
3561.00,0.0050
3560.75,0.0050
3560.50,0.0050
3560.25,0.0050
3560.00,0.0050
3559.75,0.0050
3559.50,0.0050
3559.25,0.0051
3559.00,0.0053
3558.75,0.0054
3558.50,0.0055
3558.25,0.0053
3558.00,0.0051
3557.75,0.0049
3557.50,0.0047
3557.25,0.0046
3557.00,0.0045
3556.75,0.0045
3556.50,0.0045
3556.25,0.0045
3556.00,0.0045
3555.75,0.0046
3555.50,0.0047
3555.25,0.0048
3555.00,0.0049
3554.75,0.0049
3554.50,0.0048
3554.25,0.0048
3554.00,0.0049
3553.75,0.0049
3553.50,0.0048
3553.25,0.0048
3553.00,0.0049
3552.75,0.0050
3552.50,0.0050
3552.25,0.0051
3552.00,0.0051
3551.75,0.0050
3551.50,0.0050
3551.25,0.0050
3551.00,0.0050
3550.75,0.0050
3550.50,0.0050
3550.25,0.0051
3550.00,0.0052
3549.75,0.0052
3549.50,0.0053
3549.25,0.0052
3549.00,0.0051
3548.75,0.0050
3548.50,0.0050
3548.25,0.0051
3548.00,0.0052
3547.75,0.0053
3547.50,0.0053
3547.25,0.0051
3547.00,0.0049
3546.75,0.0048
3546.50,0.0048
3546.25,0.0049
3546.00,0.0051
3545.75,0.0053
3545.50,0.0054
3545.25,0.0055
3545.00,0.0054
3544.75,0.0054
3544.50,0.0053
3544.25,0.0053
3544.00,0.0053
3543.75,0.0052
3543.50,0.0052
3543.25,0.0051
3543.00,0.0051
3542.75,0.0050
3542.50,0.0049
3542.25,0.0049
3542.00,0.0049
3541.75,0.0049
3541.50,0.0049
3541.25,0.0049
3541.00,0.0049
3540.75,0.0049
3540.50,0.0049
3540.25,0.0049
3540.00,0.0048
3539.75,0.0046
3539.50,0.0045
3539.25,0.0044
3539.00,0.0044
3538.75,0.0045
3538.50,0.0047
3538.25,0.0048
3538.00,0.0049
3537.75,0.0049
3537.50,0.0048
3537.25,0.0047
3537.00,0.0047
3536.75,0.0049
3536.50,0.0050
3536.25,0.0052
3536.00,0.0052
3535.75,0.0052
3535.50,0.0050
3535.25,0.0048
3535.00,0.0047
3534.75,0.0046
3534.50,0.0046
3534.25,0.0046
3534.00,0.0047
3533.75,0.0048
3533.50,0.0049
3533.25,0.0051
3533.00,0.0052
3532.75,0.0053
3532.50,0.0053
3532.25,0.0053
3532.00,0.0053
3531.75,0.0054
3531.50,0.0054
3531.25,0.0054
3531.00,0.0052
3530.75,0.0051
3530.50,0.0050
3530.25,0.0049
3530.00,0.0049
3529.75,0.0050
3529.50,0.0051
3529.25,0.0052
3529.00,0.0052
3528.75,0.0051
3528.50,0.0048
3528.25,0.0046
3528.00,0.0045
3527.75,0.0045
3527.50,0.0046
3527.25,0.0048
3527.00,0.0049
3526.75,0.0049
3526.50,0.0049
3526.25,0.0050
3526.00,0.0050
3525.75,0.0049
3525.50,0.0049
3525.25,0.0049
3525.00,0.0049
3524.75,0.0049
3524.50,0.0050
3524.25,0.0051
3524.00,0.0052
3523.75,0.0053
3523.50,0.0052
3523.25,0.0052
3523.00,0.0051
3522.75,0.0051
3522.50,0.0051
3522.25,0.0051
3522.00,0.0052
3521.75,0.0052
3521.50,0.0051
3521.25,0.0050
3521.00,0.0049
3520.75,0.0047
3520.50,0.0046
3520.25,0.0046
3520.00,0.0046
3519.75,0.0045
3519.50,0.0045
3519.25,0.0045
3519.00,0.0045
3518.75,0.0046
3518.50,0.0047
3518.25,0.0047
3518.00,0.0046
3517.75,0.0045
3517.50,0.0044
3517.25,0.0043
3517.00,0.0043
3516.75,0.0044
3516.50,0.0046
3516.25,0.0047
3516.00,0.0047
3515.75,0.0046
3515.50,0.0045
3515.25,0.0045
3515.00,0.0046
3514.75,0.0047
3514.50,0.0049
3514.25,0.0051
3514.00,0.0052
3513.75,0.0052
3513.50,0.0052
3513.25,0.0052
3513.00,0.0052
3512.75,0.0052
3512.50,0.0052
3512.25,0.0051
3512.00,0.0050
3511.75,0.0049
3511.50,0.0049
3511.25,0.0049
3511.00,0.0049
3510.75,0.0049
3510.50,0.0049
3510.25,0.0050
3510.00,0.0050
3509.75,0.0051
3509.50,0.0052
3509.25,0.0053
3509.00,0.0052
3508.75,0.0051
3508.50,0.0051
3508.25,0.0052
3508.00,0.0053
3507.75,0.0055
3507.50,0.0057
3507.25,0.0057
3507.00,0.0056
3506.75,0.0054
3506.50,0.0052
3506.25,0.0050
3506.00,0.0049
3505.75,0.0048
3505.50,0.0048
3505.25,0.0049
3505.00,0.0052
3504.75,0.0054
3504.50,0.0056
3504.25,0.0055
3504.00,0.0054
3503.75,0.0051
3503.50,0.0049
3503.25,0.0048
3503.00,0.0049
3502.75,0.0049
3502.50,0.0050
3502.25,0.0051
3502.00,0.0052
3501.75,0.0053
3501.50,0.0053
3501.25,0.0052
3501.00,0.0051
3500.75,0.0050
3500.50,0.0049
3500.25,0.0049
3500.00,0.0049
3499.75,0.0049
3499.50,0.0050
3499.25,0.0051
3499.00,0.0052
3498.75,0.0053
3498.50,0.0053
3498.25,0.0052
3498.00,0.0050
3497.75,0.0049
3497.50,0.0049
3497.25,0.0048
3497.00,0.0048
3496.75,0.0048
3496.50,0.0048
3496.25,0.0049
3496.00,0.0049
3495.75,0.0050
3495.50,0.0051
3495.25,0.0051
3495.00,0.0051
3494.75,0.0051
3494.50,0.0051
3494.25,0.0051
3494.00,0.0051
3493.75,0.0051
3493.50,0.0051
3493.25,0.0050
3493.00,0.0050
3492.75,0.0050
3492.50,0.0050
3492.25,0.0050
3492.00,0.0050
3491.75,0.0048
3491.50,0.0047
3491.25,0.0047
3491.00,0.0047
3490.75,0.0048
3490.50,0.0048
3490.25,0.0048
3490.00,0.0047
3489.75,0.0047
3489.50,0.0046
3489.25,0.0046
3489.00,0.0046
3488.75,0.0047
3488.50,0.0049
3488.25,0.0050
3488.00,0.0051
3487.75,0.0051
3487.50,0.0051
3487.25,0.0050
3487.00,0.0050
3486.75,0.0049
3486.50,0.0049
3486.25,0.0048
3486.00,0.0047
3485.75,0.0048
3485.50,0.0049
3485.25,0.0050
3485.00,0.0051
3484.75,0.0052
3484.50,0.0052
3484.25,0.0051
3484.00,0.0051
3483.75,0.0051
3483.50,0.0051
3483.25,0.0051
3483.00,0.0050
3482.75,0.0049
3482.50,0.0048
3482.25,0.0047
3482.00,0.0045
3481.75,0.0045
3481.50,0.0045
3481.25,0.0046
3481.00,0.0047
3480.75,0.0048
3480.50,0.0049
3480.25,0.0050
3480.00,0.0051
3479.75,0.0052
3479.50,0.0051
3479.25,0.0051
3479.00,0.0050
3478.75,0.0050
3478.50,0.0049
3478.25,0.0048
3478.00,0.0047
3477.75,0.0047
3477.50,0.0046
3477.25,0.0046
3477.00,0.0047
3476.75,0.0047
3476.50,0.0047
3476.25,0.0047
3476.00,0.0047
3475.75,0.0048
3475.50,0.0049
3475.25,0.0050
3475.00,0.0051
3474.75,0.0052
3474.50,0.0052
3474.25,0.0052
3474.00,0.0052
3473.75,0.0051
3473.50,0.0050
3473.25,0.0048
3473.00,0.0047
3472.75,0.0046
3472.50,0.0046
3472.25,0.0047
3472.00,0.0049
3471.75,0.0051
3471.50,0.0052
3471.25,0.0052
3471.00,0.0052
3470.75,0.0052
3470.50,0.0052
3470.25,0.0052
3470.00,0.0052
3469.75,0.0051
3469.50,0.0050
3469.25,0.0049
3469.00,0.0048
3468.75,0.0049
3468.50,0.0050
3468.25,0.0052
3468.00,0.0053
3467.75,0.0054
3467.50,0.0055
3467.25,0.0054
3467.00,0.0053
3466.75,0.0053
3466.50,0.0052
3466.25,0.0053
3466.00,0.0053
3465.75,0.0053
3465.50,0.0051
3465.25,0.0049
3465.00,0.0047
3464.75,0.0045
3464.50,0.0044
3464.25,0.0045
3464.00,0.0046
3463.75,0.0048
3463.50,0.0049
3463.25,0.0050
3463.00,0.0051
3462.75,0.0051
3462.50,0.0050
3462.25,0.0049
3462.00,0.0048
3461.75,0.0048
3461.50,0.0049
3461.25,0.0051
3461.00,0.0052
3460.75,0.0052
3460.50,0.0051
3460.25,0.0050
3460.00,0.0049
3459.75,0.0049
3459.50,0.0050
3459.25,0.0051
3459.00,0.0052
3458.75,0.0052
3458.50,0.0051
3458.25,0.0049
3458.00,0.0048
3457.75,0.0047
3457.50,0.0048
3457.25,0.0049
3457.00,0.0050
3456.75,0.0051
3456.50,0.0050
3456.25,0.0049
3456.00,0.0048
3455.75,0.0047
3455.50,0.0046
3455.25,0.0046
3455.00,0.0046
3454.75,0.0047
3454.50,0.0047
3454.25,0.0046
3454.00,0.0046
3453.75,0.0045
3453.50,0.0046
3453.25,0.0048
3453.00,0.0050
3452.75,0.0051
3452.50,0.0051
3452.25,0.0051
3452.00,0.0051
3451.75,0.0051
3451.50,0.0051
3451.25,0.0050
3451.00,0.0048
3450.75,0.0047
3450.50,0.0047
3450.25,0.0047
3450.00,0.0048
3449.75,0.0049
3449.50,0.0050
3449.25,0.0050
3449.00,0.0050
3448.75,0.0050
3448.50,0.0050
3448.25,0.0050
3448.00,0.0050
3447.75,0.0051
3447.50,0.0053
3447.25,0.0055
3447.00,0.0057
3446.75,0.0057
3446.50,0.0056
3446.25,0.0053
3446.00,0.0050
3445.75,0.0049
3445.50,0.0049
3445.25,0.0051
3445.00,0.0052
3444.75,0.0054
3444.50,0.0056
3444.25,0.0056
3444.00,0.0055
3443.75,0.0054
3443.50,0.0053
3443.25,0.0052
3443.00,0.0053
3442.75,0.0052
3442.50,0.0051
3442.25,0.0049
3442.00,0.0047
3441.75,0.0046
3441.50,0.0047
3441.25,0.0047
3441.00,0.0048
3440.75,0.0048
3440.50,0.0048
3440.25,0.0047
3440.00,0.0047
3439.75,0.0048
3439.50,0.0049
3439.25,0.0050
3439.00,0.0051
3438.75,0.0050
3438.50,0.0049
3438.25,0.0049
3438.00,0.0049
3437.75,0.0050
3437.50,0.0050
3437.25,0.0049
3437.00,0.0049
3436.75,0.0049
3436.50,0.0050
3436.25,0.0051
3436.00,0.0051
3435.75,0.0050
3435.50,0.0050
3435.25,0.0049
3435.00,0.0049
3434.75,0.0050
3434.50,0.0050
3434.25,0.0049
3434.00,0.0048
3433.75,0.0047
3433.50,0.0046
3433.25,0.0046
3433.00,0.0047
3432.75,0.0048
3432.50,0.0049
3432.25,0.0051
3432.00,0.0051
3431.75,0.0051
3431.50,0.0051
3431.25,0.0052
3431.00,0.0052
3430.75,0.0053
3430.50,0.0053
3430.25,0.0052
3430.00,0.0050
3429.75,0.0049
3429.50,0.0049
3429.25,0.0050
3429.00,0.0050
3428.75,0.0051
3428.50,0.0051
3428.25,0.0051
3428.00,0.0050
3427.75,0.0050
3427.50,0.0050
3427.25,0.0050
3427.00,0.0051
3426.75,0.0051
3426.50,0.0052
3426.25,0.0053
3426.00,0.0053
3425.75,0.0053
3425.50,0.0053
3425.25,0.0053
3425.00,0.0052
3424.75,0.0052
3424.50,0.0052
3424.25,0.0052
3424.00,0.0052
3423.75,0.0052
3423.50,0.0051
3423.25,0.0050
3423.00,0.0049
3422.75,0.0048
3422.50,0.0048
3422.25,0.0049
3422.00,0.0049
3421.75,0.0049
3421.50,0.0049
3421.25,0.0048
3421.00,0.0048
3420.75,0.0049
3420.50,0.0049
3420.25,0.0050
3420.00,0.0050
3419.75,0.0049
3419.50,0.0049
3419.25,0.0048
3419.00,0.0047
3418.75,0.0046
3418.50,0.0044
3418.25,0.0043
3418.00,0.0042
3417.75,0.0043
3417.50,0.0044
3417.25,0.0047
3417.00,0.0049
3416.75,0.0052
3416.50,0.0053
3416.25,0.0053
3416.00,0.0052
3415.75,0.0051
3415.50,0.0050
3415.25,0.0050
3415.00,0.0050
3414.75,0.0051
3414.50,0.0051
3414.25,0.0051
3414.00,0.0050
3413.75,0.0048
3413.50,0.0047
3413.25,0.0047
3413.00,0.0047
3412.75,0.0048
3412.50,0.0048
3412.25,0.0048
3412.00,0.0048
3411.75,0.0048
3411.50,0.0048
3411.25,0.0050
3411.00,0.0051
3410.75,0.0052
3410.50,0.0052
3410.25,0.0051
3410.00,0.0050
3409.75,0.0049
3409.50,0.0048
3409.25,0.0047
3409.00,0.0046
3408.75,0.0045
3408.50,0.0045
3408.25,0.0046
3408.00,0.0048
3407.75,0.0050
3407.50,0.0051
3407.25,0.0050
3407.00,0.0049
3406.75,0.0049
3406.50,0.0049
3406.25,0.0049
3406.00,0.0050
3405.75,0.0050
3405.50,0.0050
3405.25,0.0050
3405.00,0.0049
3404.75,0.0049
3404.50,0.0049
3404.25,0.0050
3404.00,0.0051
3403.75,0.0052
3403.50,0.0051
3403.25,0.0050
3403.00,0.0048
3402.75,0.0047
3402.50,0.0046
3402.25,0.0047
3402.00,0.0048
3401.75,0.0050
3401.50,0.0051
3401.25,0.0051
3401.00,0.0051
3400.75,0.0050
3400.50,0.0049
3400.25,0.0047
3400.00,0.0045
3399.75,0.0044
3399.50,0.0044
3399.25,0.0045
3399.00,0.0047
3398.75,0.0048
3398.50,0.0050
3398.25,0.0051
3398.00,0.0052
3397.75,0.0053
3397.50,0.0054
3397.25,0.0054
3397.00,0.0054
3396.75,0.0054
3396.50,0.0054
3396.25,0.0055
3396.00,0.0055
3395.75,0.0055
3395.50,0.0054
3395.25,0.0052
3395.00,0.0050
3394.75,0.0049
3394.50,0.0048
3394.25,0.0048
3394.00,0.0049
3393.75,0.0050
3393.50,0.0051
3393.25,0.0052
3393.00,0.0052
3392.75,0.0052
3392.50,0.0052
3392.25,0.0052
3392.00,0.0052
3391.75,0.0052
3391.50,0.0052
3391.25,0.0051
3391.00,0.0049
3390.75,0.0048
3390.50,0.0046
3390.25,0.0046
3390.00,0.0047
3389.75,0.0049
3389.50,0.0051
3389.25,0.0052
3389.00,0.0053
3388.75,0.0052
3388.50,0.0051
3388.25,0.0050
3388.00,0.0049
3387.75,0.0050
3387.50,0.0051
3387.25,0.0052
3387.00,0.0052
3386.75,0.0052
3386.50,0.0051
3386.25,0.0051
3386.00,0.0051
3385.75,0.0051
3385.50,0.0052
3385.25,0.0052
3385.00,0.0052
3384.75,0.0053
3384.50,0.0053
3384.25,0.0052
3384.00,0.0050
3383.75,0.0048
3383.50,0.0045
3383.25,0.0044
3383.00,0.0044
3382.75,0.0044
3382.50,0.0046
3382.25,0.0047
3382.00,0.0048
3381.75,0.0050
3381.50,0.0051
3381.25,0.0052
3381.00,0.0053
3380.75,0.0053
3380.50,0.0053
3380.25,0.0052
3380.00,0.0051
3379.75,0.0050
3379.50,0.0049
3379.25,0.0049
3379.00,0.0050
3378.75,0.0053
3378.50,0.0055
3378.25,0.0057
3378.00,0.0058
3377.75,0.0058
3377.50,0.0058
3377.25,0.0057
3377.00,0.0056
3376.75,0.0054
3376.50,0.0053
3376.25,0.0052
3376.00,0.0051
3375.75,0.0051
3375.50,0.0050
3375.25,0.0050
3375.00,0.0051
3374.75,0.0051
3374.50,0.0051
3374.25,0.0050
3374.00,0.0050
3373.75,0.0049
3373.50,0.0049
3373.25,0.0049
3373.00,0.0049
3372.75,0.0049
3372.50,0.0048
3372.25,0.0048
3372.00,0.0047
3371.75,0.0048
3371.50,0.0048
3371.25,0.0049
3371.00,0.0049
3370.75,0.0049
3370.50,0.0049
3370.25,0.0049
3370.00,0.0050
3369.75,0.0051
3369.50,0.0052
3369.25,0.0053
3369.00,0.0052
3368.75,0.0051
3368.50,0.0050
3368.25,0.0049
3368.00,0.0049
3367.75,0.0049
3367.50,0.0050
3367.25,0.0051
3367.00,0.0052
3366.75,0.0053
3366.50,0.0053
3366.25,0.0053
3366.00,0.0053
3365.75,0.0052
3365.50,0.0051
3365.25,0.0050
3365.00,0.0049
3364.75,0.0049
3364.50,0.0050
3364.25,0.0051
3364.00,0.0052
3363.75,0.0051
3363.50,0.0050
3363.25,0.0050
3363.00,0.0050
3362.75,0.0051
3362.50,0.0052
3362.25,0.0052
3362.00,0.0053
3361.75,0.0053
3361.50,0.0052
3361.25,0.0050
3361.00,0.0049
3360.75,0.0048
3360.50,0.0048
3360.25,0.0049
3360.00,0.0051
3359.75,0.0053
3359.50,0.0053
3359.25,0.0053
3359.00,0.0052
3358.75,0.0052
3358.50,0.0052
3358.25,0.0054
3358.00,0.0055
3357.75,0.0055
3357.50,0.0055
3357.25,0.0054
3357.00,0.0052
3356.75,0.0052
3356.50,0.0052
3356.25,0.0053
3356.00,0.0054
3355.75,0.0055
3355.50,0.0055
3355.25,0.0054
3355.00,0.0053
3354.75,0.0052
3354.50,0.0051
3354.25,0.0052
3354.00,0.0052
3353.75,0.0053
3353.50,0.0052
3353.25,0.0051
3353.00,0.0050
3352.75,0.0049
3352.50,0.0049
3352.25,0.0049
3352.00,0.0050
3351.75,0.0051
3351.50,0.0052
3351.25,0.0053
3351.00,0.0052
3350.75,0.0051
3350.50,0.0049
3350.25,0.0048
3350.00,0.0048
3349.75,0.0050
3349.50,0.0052
3349.25,0.0053
3349.00,0.0054
3348.75,0.0053
3348.50,0.0053
3348.25,0.0052
3348.00,0.0052
3347.75,0.0053
3347.50,0.0053
3347.25,0.0052
3347.00,0.0051
3346.75,0.0050
3346.50,0.0049
3346.25,0.0049
3346.00,0.0051
3345.75,0.0053
3345.50,0.0055
3345.25,0.0056
3345.00,0.0057
3344.75,0.0057
3344.50,0.0057
3344.25,0.0055
3344.00,0.0053
3343.75,0.0052
3343.50,0.0051
3343.25,0.0051
3343.00,0.0051
3342.75,0.0053
3342.50,0.0054
3342.25,0.0053
3342.00,0.0052
3341.75,0.0050
3341.50,0.0049
3341.25,0.0048
3341.00,0.0048
3340.75,0.0049
3340.50,0.0050
3340.25,0.0051
3340.00,0.0051
3339.75,0.0051
3339.50,0.0052
3339.25,0.0052
3339.00,0.0052
3338.75,0.0051
3338.50,0.0051
3338.25,0.0052
3338.00,0.0053
3337.75,0.0054
3337.50,0.0055
3337.25,0.0054
3337.00,0.0052
3336.75,0.0051
3336.50,0.0050
3336.25,0.0050
3336.00,0.0051
3335.75,0.0051
3335.50,0.0051
3335.25,0.0051
3335.00,0.0050
3334.75,0.0050
3334.50,0.0051
3334.25,0.0052
3334.00,0.0053
3333.75,0.0053
3333.50,0.0052
3333.25,0.0051
3333.00,0.0050
3332.75,0.0050
3332.50,0.0051
3332.25,0.0053
3332.00,0.0053
3331.75,0.0052
3331.50,0.0050
3331.25,0.0048
3331.00,0.0047
3330.75,0.0047
3330.50,0.0048
3330.25,0.0050
3330.00,0.0051
3329.75,0.0052
3329.50,0.0053
3329.25,0.0053
3329.00,0.0052
3328.75,0.0052
3328.50,0.0051
3328.25,0.0050
3328.00,0.0049
3327.75,0.0049
3327.50,0.0049
3327.25,0.0050
3327.00,0.0051
3326.75,0.0051
3326.50,0.0050
3326.25,0.0049
3326.00,0.0047
3325.75,0.0046
3325.50,0.0045
3325.25,0.0045
3325.00,0.0047
3324.75,0.0050
3324.50,0.0053
3324.25,0.0055
3324.00,0.0055
3323.75,0.0055
3323.50,0.0053
3323.25,0.0052
3323.00,0.0050
3322.75,0.0049
3322.50,0.0049
3322.25,0.0050
3322.00,0.0050
3321.75,0.0051
3321.50,0.0051
3321.25,0.0051
3321.00,0.0050
3320.75,0.0049
3320.50,0.0049
3320.25,0.0049
3320.00,0.0050
3319.75,0.0050
3319.50,0.0050
3319.25,0.0050
3319.00,0.0051
3318.75,0.0051
3318.50,0.0052
3318.25,0.0052
3318.00,0.0053
3317.75,0.0053
3317.50,0.0053
3317.25,0.0053
3317.00,0.0052
3316.75,0.0051
3316.50,0.0050
3316.25,0.0049
3316.00,0.0048
3315.75,0.0049
3315.50,0.0050
3315.25,0.0051
3315.00,0.0053
3314.75,0.0054
3314.50,0.0055
3314.25,0.0054
3314.00,0.0053
3313.75,0.0052
3313.50,0.0052
3313.25,0.0053
3313.00,0.0053
3312.75,0.0053
3312.50,0.0052
3312.25,0.0051
3312.00,0.0051
3311.75,0.0051
3311.50,0.0052
3311.25,0.0052
3311.00,0.0052
3310.75,0.0052
3310.50,0.0052
3310.25,0.0052
3310.00,0.0052
3309.75,0.0052
3309.50,0.0052
3309.25,0.0051
3309.00,0.0049
3308.75,0.0048
3308.50,0.0048
3308.25,0.0048
3308.00,0.0049
3307.75,0.0050
3307.50,0.0051
3307.25,0.0052
3307.00,0.0052
3306.75,0.0052
3306.50,0.0052
3306.25,0.0052
3306.00,0.0052
3305.75,0.0050
3305.50,0.0049
3305.25,0.0048
3305.00,0.0049
3304.75,0.0050
3304.50,0.0051
3304.25,0.0052
3304.00,0.0053
3303.75,0.0053
3303.50,0.0052
3303.25,0.0052
3303.00,0.0052
3302.75,0.0051
3302.50,0.0051
3302.25,0.0050
3302.00,0.0049
3301.75,0.0048
3301.50,0.0048
3301.25,0.0049
3301.00,0.0050
3300.75,0.0050
3300.50,0.0050
3300.25,0.0049
3300.00,0.0049
3299.75,0.0049
3299.50,0.0049
3299.25,0.0049
3299.00,0.0050
3298.75,0.0052
3298.50,0.0054
3298.25,0.0055
3298.00,0.0056
3297.75,0.0056
3297.50,0.0055
3297.25,0.0053
3297.00,0.0051
3296.75,0.0050
3296.50,0.0050
3296.25,0.0050
3296.00,0.0050
3295.75,0.0050
3295.50,0.0050
3295.25,0.0050
3295.00,0.0050
3294.75,0.0051
3294.50,0.0050
3294.25,0.0050
3294.00,0.0050
3293.75,0.0051
3293.50,0.0052
3293.25,0.0052
3293.00,0.0051
3292.75,0.0050
3292.50,0.0048
3292.25,0.0047
3292.00,0.0047
3291.75,0.0048
3291.50,0.0050
3291.25,0.0051
3291.00,0.0052
3290.75,0.0053
3290.50,0.0053
3290.25,0.0053
3290.00,0.0054
3289.75,0.0054
3289.50,0.0054
3289.25,0.0053
3289.00,0.0052
3288.75,0.0050
3288.50,0.0048
3288.25,0.0047
3288.00,0.0048
3287.75,0.0049
3287.50,0.0050
3287.25,0.0051
3287.00,0.0051
3286.75,0.0051
3286.50,0.0052
3286.25,0.0052
3286.00,0.0053
3285.75,0.0053
3285.50,0.0053
3285.25,0.0052
3285.00,0.0052
3284.75,0.0051
3284.50,0.0052
3284.25,0.0053
3284.00,0.0053
3283.75,0.0053
3283.50,0.0053
3283.25,0.0052
3283.00,0.0052
3282.75,0.0053
3282.50,0.0053
3282.25,0.0054
3282.00,0.0054
3281.75,0.0054
3281.50,0.0054
3281.25,0.0053
3281.00,0.0053
3280.75,0.0053
3280.50,0.0053
3280.25,0.0054
3280.00,0.0054
3279.75,0.0054
3279.50,0.0052
3279.25,0.0051
3279.00,0.0049
3278.75,0.0049
3278.50,0.0049
3278.25,0.0049
3278.00,0.0051
3277.75,0.0052
3277.50,0.0053
3277.25,0.0053
3277.00,0.0053
3276.75,0.0053
3276.50,0.0052
3276.25,0.0051
3276.00,0.0050
3275.75,0.0048
3275.50,0.0047
3275.25,0.0047
3275.00,0.0048
3274.75,0.0048
3274.50,0.0049
3274.25,0.0050
3274.00,0.0050
3273.75,0.0050
3273.50,0.0051
3273.25,0.0051
3273.00,0.0052
3272.75,0.0052
3272.50,0.0052
3272.25,0.0052
3272.00,0.0052
3271.75,0.0052
3271.50,0.0052
3271.25,0.0052
3271.00,0.0052
3270.75,0.0052
3270.50,0.0052
3270.25,0.0053
3270.00,0.0053
3269.75,0.0053
3269.50,0.0052
3269.25,0.0051
3269.00,0.0051
3268.75,0.0050
3268.50,0.0050
3268.25,0.0051
3268.00,0.0051
3267.75,0.0052
3267.50,0.0053
3267.25,0.0054
3267.00,0.0055
3266.75,0.0056
3266.50,0.0055
3266.25,0.0054
3266.00,0.0053
3265.75,0.0051
3265.50,0.0050
3265.25,0.0050
3265.00,0.0050
3264.75,0.0050
3264.50,0.0050
3264.25,0.0050
3264.00,0.0050
3263.75,0.0051
3263.50,0.0051
3263.25,0.0051
3263.00,0.0051
3262.75,0.0050
3262.50,0.0050
3262.25,0.0050
3262.00,0.0050
3261.75,0.0049
3261.50,0.0048
3261.25,0.0048
3261.00,0.0049
3260.75,0.0050
3260.50,0.0051
3260.25,0.0051
3260.00,0.0051
3259.75,0.0050
3259.50,0.0049
3259.25,0.0049
3259.00,0.0050
3258.75,0.0051
3258.50,0.0052
3258.25,0.0052
3258.00,0.0053
3257.75,0.0053
3257.50,0.0053
3257.25,0.0053
3257.00,0.0053
3256.75,0.0053
3256.50,0.0053
3256.25,0.0054
3256.00,0.0055
3255.75,0.0055
3255.50,0.0055
3255.25,0.0054
3255.00,0.0053
3254.75,0.0054
3254.50,0.0055
3254.25,0.0056
3254.00,0.0056
3253.75,0.0055
3253.50,0.0055
3253.25,0.0054
3253.00,0.0053
3252.75,0.0051
3252.50,0.0050
3252.25,0.0049
3252.00,0.0050
3251.75,0.0051
3251.50,0.0053
3251.25,0.0054
3251.00,0.0054
3250.75,0.0052
3250.50,0.0051
3250.25,0.0050
3250.00,0.0050
3249.75,0.0052
3249.50,0.0053
3249.25,0.0055
3249.00,0.0056
3248.75,0.0056
3248.50,0.0056
3248.25,0.0055
3248.00,0.0054
3247.75,0.0053
3247.50,0.0052
3247.25,0.0052
3247.00,0.0051
3246.75,0.0052
3246.50,0.0052
3246.25,0.0052
3246.00,0.0052
3245.75,0.0051
3245.50,0.0050
3245.25,0.0049
3245.00,0.0049
3244.75,0.0049
3244.50,0.0051
3244.25,0.0052
3244.00,0.0052
3243.75,0.0052
3243.50,0.0052
3243.25,0.0052
3243.00,0.0051
3242.75,0.0050
3242.50,0.0049
3242.25,0.0047
3242.00,0.0045
3241.75,0.0044
3241.50,0.0044
3241.25,0.0046
3241.00,0.0049
3240.75,0.0052
3240.50,0.0054
3240.25,0.0055
3240.00,0.0054
3239.75,0.0052
3239.50,0.0051
3239.25,0.0051
3239.00,0.0050
3238.75,0.0049
3238.50,0.0049
3238.25,0.0049
3238.00,0.0050
3237.75,0.0050
3237.50,0.0051
3237.25,0.0051
3237.00,0.0051
3236.75,0.0051
3236.50,0.0050
3236.25,0.0049
3236.00,0.0048
3235.75,0.0048
3235.50,0.0049
3235.25,0.0050
3235.00,0.0051
3234.75,0.0052
3234.50,0.0052
3234.25,0.0052
3234.00,0.0052
3233.75,0.0052
3233.50,0.0052
3233.25,0.0052
3233.00,0.0052
3232.75,0.0051
3232.50,0.0050
3232.25,0.0049
3232.00,0.0048
3231.75,0.0047
3231.50,0.0047
3231.25,0.0046
3231.00,0.0047
3230.75,0.0048
3230.50,0.0050
3230.25,0.0051
3230.00,0.0052
3229.75,0.0052
3229.50,0.0052
3229.25,0.0052
3229.00,0.0051
3228.75,0.0051
3228.50,0.0051
3228.25,0.0051
3228.00,0.0051
3227.75,0.0052
3227.50,0.0053
3227.25,0.0053
3227.00,0.0053
3226.75,0.0053
3226.50,0.0052
3226.25,0.0051
3226.00,0.0051
3225.75,0.0050
3225.50,0.0050
3225.25,0.0051
3225.00,0.0051
3224.75,0.0051
3224.50,0.0051
3224.25,0.0050
3224.00,0.0049
3223.75,0.0049
3223.50,0.0049
3223.25,0.0049
3223.00,0.0049
3222.75,0.0050
3222.50,0.0050
3222.25,0.0050
3222.00,0.0049
3221.75,0.0049
3221.50,0.0049
3221.25,0.0049
3221.00,0.0050
3220.75,0.0051
3220.50,0.0051
3220.25,0.0051
3220.00,0.0051
3219.75,0.0051
3219.50,0.0051
3219.25,0.0051
3219.00,0.0051
3218.75,0.0049
3218.50,0.0048
3218.25,0.0048
3218.00,0.0048
3217.75,0.0049
3217.50,0.0050
3217.25,0.0050
3217.00,0.0049
3216.75,0.0049
3216.50,0.0049
3216.25,0.0049
3216.00,0.0049
3215.75,0.0049
3215.50,0.0050
3215.25,0.0052
3215.00,0.0053
3214.75,0.0054
3214.50,0.0055
3214.25,0.0056
3214.00,0.0055
3213.75,0.0054
3213.50,0.0052
3213.25,0.0051
3213.00,0.0050
3212.75,0.0049
3212.50,0.0049
3212.25,0.0049
3212.00,0.0050
3211.75,0.0051
3211.50,0.0052
3211.25,0.0053
3211.00,0.0052
3210.75,0.0051
3210.50,0.0050
3210.25,0.0050
3210.00,0.0051
3209.75,0.0052
3209.50,0.0053
3209.25,0.0054
3209.00,0.0055
3208.75,0.0055
3208.50,0.0053
3208.25,0.0051
3208.00,0.0049
3207.75,0.0048
3207.50,0.0049
3207.25,0.0050
3207.00,0.0051
3206.75,0.0052
3206.50,0.0052
3206.25,0.0053
3206.00,0.0053
3205.75,0.0052
3205.50,0.0052
3205.25,0.0051
3205.00,0.0050
3204.75,0.0050
3204.50,0.0049
3204.25,0.0049
3204.00,0.0049
3203.75,0.0048
3203.50,0.0048
3203.25,0.0048
3203.00,0.0048
3202.75,0.0049
3202.50,0.0049
3202.25,0.0049
3202.00,0.0048
3201.75,0.0048
3201.50,0.0047
3201.25,0.0047
3201.00,0.0048
3200.75,0.0050
3200.50,0.0051
3200.25,0.0052
3200.00,0.0053
3199.75,0.0052
3199.50,0.0051
3199.25,0.0050
3199.00,0.0048
3198.75,0.0047
3198.50,0.0048
3198.25,0.0049
3198.00,0.0050
3197.75,0.0052
3197.50,0.0053
3197.25,0.0054
3197.00,0.0054
3196.75,0.0054
3196.50,0.0052
3196.25,0.0051
3196.00,0.0049
3195.75,0.0048
3195.50,0.0048
3195.25,0.0048
3195.00,0.0049
3194.75,0.0049
3194.50,0.0049
3194.25,0.0049
3194.00,0.0049
3193.75,0.0050
3193.50,0.0052
3193.25,0.0054
3193.00,0.0055
3192.75,0.0055
3192.50,0.0055
3192.25,0.0054
3192.00,0.0053
3191.75,0.0052
3191.50,0.0051
3191.25,0.0051
3191.00,0.0050
3190.75,0.0049
3190.50,0.0049
3190.25,0.0049
3190.00,0.0049
3189.75,0.0050
3189.50,0.0051
3189.25,0.0051
3189.00,0.0052
3188.75,0.0053
3188.50,0.0054
3188.25,0.0054
3188.00,0.0054
3187.75,0.0053
3187.50,0.0053
3187.25,0.0052
3187.00,0.0052
3186.75,0.0052
3186.50,0.0052
3186.25,0.0052
3186.00,0.0053
3185.75,0.0053
3185.50,0.0052
3185.25,0.0050
3185.00,0.0048
3184.75,0.0047
3184.50,0.0047
3184.25,0.0048
3184.00,0.0050
3183.75,0.0050
3183.50,0.0050
3183.25,0.0050
3183.00,0.0049
3182.75,0.0049
3182.50,0.0049
3182.25,0.0049
3182.00,0.0049
3181.75,0.0049
3181.50,0.0049
3181.25,0.0050
3181.00,0.0050
3180.75,0.0050
3180.50,0.0050
3180.25,0.0050
3180.00,0.0049
3179.75,0.0049
3179.50,0.0049
3179.25,0.0049
3179.00,0.0049
3178.75,0.0050
3178.50,0.0052
3178.25,0.0054
3178.00,0.0055
3177.75,0.0055
3177.50,0.0053
3177.25,0.0052
3177.00,0.0051
3176.75,0.0051
3176.50,0.0051
3176.25,0.0051
3176.00,0.0051
3175.75,0.0052
3175.50,0.0052
3175.25,0.0053
3175.00,0.0052
3174.75,0.0051
3174.50,0.0050
3174.25,0.0050
3174.00,0.0051
3173.75,0.0052
3173.50,0.0052
3173.25,0.0051
3173.00,0.0049
3172.75,0.0048
3172.50,0.0048
3172.25,0.0048
3172.00,0.0050
3171.75,0.0051
3171.50,0.0051
3171.25,0.0051
3171.00,0.0051
3170.75,0.0050
3170.50,0.0048
3170.25,0.0047
3170.00,0.0046
3169.75,0.0045
3169.50,0.0045
3169.25,0.0047
3169.00,0.0048
3168.75,0.0049
3168.50,0.0049
3168.25,0.0049
3168.00,0.0049
3167.75,0.0050
3167.50,0.0050
3167.25,0.0051
3167.00,0.0051
3166.75,0.0052
3166.50,0.0052
3166.25,0.0051
3166.00,0.0051
3165.75,0.0050
3165.50,0.0050
3165.25,0.0050
3165.00,0.0050
3164.75,0.0051
3164.50,0.0050
3164.25,0.0049
3164.00,0.0046
3163.75,0.0044
3163.50,0.0043
3163.25,0.0043
3163.00,0.0044
3162.75,0.0046
3162.50,0.0049
3162.25,0.0050
3162.00,0.0051
3161.75,0.0050
3161.50,0.0049
3161.25,0.0047
3161.00,0.0047
3160.75,0.0047
3160.50,0.0049
3160.25,0.0051
3160.00,0.0052
3159.75,0.0053
3159.50,0.0053
3159.25,0.0053
3159.00,0.0053
3158.75,0.0052
3158.50,0.0052
3158.25,0.0052
3158.00,0.0051
3157.75,0.0050
3157.50,0.0049
3157.25,0.0048
3157.00,0.0047
3156.75,0.0047
3156.50,0.0048
3156.25,0.0049
3156.00,0.0051
3155.75,0.0052
3155.50,0.0053
3155.25,0.0054
3155.00,0.0054
3154.75,0.0055
3154.50,0.0055
3154.25,0.0054
3154.00,0.0052
3153.75,0.0049
3153.50,0.0048
3153.25,0.0048
3153.00,0.0049
3152.75,0.0051
3152.50,0.0052
3152.25,0.0053
3152.00,0.0053
3151.75,0.0053
3151.50,0.0053
3151.25,0.0053
3151.00,0.0053
3150.75,0.0053
3150.50,0.0053
3150.25,0.0053
3150.00,0.0052
3149.75,0.0052
3149.50,0.0052
3149.25,0.0052
3149.00,0.0051
3148.75,0.0051
3148.50,0.0051
3148.25,0.0051
3148.00,0.0052
3147.75,0.0053
3147.50,0.0053
3147.25,0.0053
3147.00,0.0052
3146.75,0.0050
3146.50,0.0050
3146.25,0.0049
3146.00,0.0050
3145.75,0.0051
3145.50,0.0051
3145.25,0.0052
3145.00,0.0052
3144.75,0.0051
3144.50,0.0051
3144.25,0.0050
3144.00,0.0050
3143.75,0.0051
3143.50,0.0051
3143.25,0.0051
3143.00,0.0052
3142.75,0.0052
3142.50,0.0051
3142.25,0.0050
3142.00,0.0050
3141.75,0.0050
3141.50,0.0050
3141.25,0.0051
3141.00,0.0052
3140.75,0.0052
3140.50,0.0052
3140.25,0.0051
3140.00,0.0051
3139.75,0.0052
3139.50,0.0053
3139.25,0.0054
3139.00,0.0055
3138.75,0.0055
3138.50,0.0055
3138.25,0.0054
3138.00,0.0052
3137.75,0.0050
3137.50,0.0048
3137.25,0.0047
3137.00,0.0047
3136.75,0.0047
3136.50,0.0049
3136.25,0.0050
3136.00,0.0050
3135.75,0.0050
3135.50,0.0049
3135.25,0.0048
3135.00,0.0048
3134.75,0.0048
3134.50,0.0049
3134.25,0.0050
3134.00,0.0050
3133.75,0.0050
3133.50,0.0050
3133.25,0.0049
3133.00,0.0049
3132.75,0.0050
3132.50,0.0050
3132.25,0.0050
3132.00,0.0050
3131.75,0.0050
3131.50,0.0051
3131.25,0.0053
3131.00,0.0054
3130.75,0.0054
3130.50,0.0054
3130.25,0.0053
3130.00,0.0052
3129.75,0.0051
3129.50,0.0050
3129.25,0.0049
3129.00,0.0049
3128.75,0.0048
3128.50,0.0047
3128.25,0.0048
3128.00,0.0048
3127.75,0.0049
3127.50,0.0050
3127.25,0.0050
3127.00,0.0049
3126.75,0.0049
3126.50,0.0050
3126.25,0.0052
3126.00,0.0053
3125.75,0.0053
3125.50,0.0053
3125.25,0.0052
3125.00,0.0051
3124.75,0.0051
3124.50,0.0051
3124.25,0.0052
3124.00,0.0052
3123.75,0.0052
3123.50,0.0052
3123.25,0.0053
3123.00,0.0053
3122.75,0.0053
3122.50,0.0053
3122.25,0.0053
3122.00,0.0053
3121.75,0.0053
3121.50,0.0054
3121.25,0.0054
3121.00,0.0054
3120.75,0.0054
3120.50,0.0053
3120.25,0.0053
3120.00,0.0053
3119.75,0.0053
3119.50,0.0053
3119.25,0.0052
3119.00,0.0052
3118.75,0.0051
3118.50,0.0051
3118.25,0.0050
3118.00,0.0050
3117.75,0.0049
3117.50,0.0048
3117.25,0.0048
3117.00,0.0049
3116.75,0.0050
3116.50,0.0051
3116.25,0.0052
3116.00,0.0053
3115.75,0.0052
3115.50,0.0051
3115.25,0.0051
3115.00,0.0052
3114.75,0.0053
3114.50,0.0055
3114.25,0.0056
3114.00,0.0056
3113.75,0.0055
3113.50,0.0053
3113.25,0.0051
3113.00,0.0049
3112.75,0.0049
3112.50,0.0050
3112.25,0.0050
3112.00,0.0051
3111.75,0.0050
3111.50,0.0050
3111.25,0.0049
3111.00,0.0048
3110.75,0.0048
3110.50,0.0049
3110.25,0.0050
3110.00,0.0051
3109.75,0.0052
3109.50,0.0053
3109.25,0.0052
3109.00,0.0051
3108.75,0.0050
3108.50,0.0048
3108.25,0.0047
3108.00,0.0047
3107.75,0.0048
3107.50,0.0050
3107.25,0.0051
3107.00,0.0052
3106.75,0.0052
3106.50,0.0052
3106.25,0.0052
3106.00,0.0052
3105.75,0.0053
3105.50,0.0053
3105.25,0.0053
3105.00,0.0052
3104.75,0.0050
3104.50,0.0049
3104.25,0.0048
3104.00,0.0047
3103.75,0.0048
3103.50,0.0049
3103.25,0.0051
3103.00,0.0051
3102.75,0.0051
3102.50,0.0050
3102.25,0.0049
3102.00,0.0049
3101.75,0.0049
3101.50,0.0050
3101.25,0.0051
3101.00,0.0052
3100.75,0.0052
3100.50,0.0052
3100.25,0.0052
3100.00,0.0052
3099.75,0.0052
3099.50,0.0052
3099.25,0.0052
3099.00,0.0050
3098.75,0.0049
3098.50,0.0048
3098.25,0.0047
3098.00,0.0047
3097.75,0.0048
3097.50,0.0049
3097.25,0.0050
3097.00,0.0051
3096.75,0.0051
3096.50,0.0051
3096.25,0.0052
3096.00,0.0053
3095.75,0.0054
3095.50,0.0054
3095.25,0.0053
3095.00,0.0052
3094.75,0.0050
3094.50,0.0049
3094.25,0.0048
3094.00,0.0048
3093.75,0.0049
3093.50,0.0050
3093.25,0.0051
3093.00,0.0052
3092.75,0.0052
3092.50,0.0051
3092.25,0.0050
3092.00,0.0049
3091.75,0.0048
3091.50,0.0048
3091.25,0.0048
3091.00,0.0048
3090.75,0.0048
3090.50,0.0047
3090.25,0.0046
3090.00,0.0045
3089.75,0.0044
3089.50,0.0044
3089.25,0.0045
3089.00,0.0046
3088.75,0.0047
3088.50,0.0049
3088.25,0.0050
3088.00,0.0051
3087.75,0.0051
3087.50,0.0050
3087.25,0.0049
3087.00,0.0048
3086.75,0.0047
3086.50,0.0047
3086.25,0.0047
3086.00,0.0047
3085.75,0.0046
3085.50,0.0045
3085.25,0.0045
3085.00,0.0046
3084.75,0.0047
3084.50,0.0049
3084.25,0.0049
3084.00,0.0049
3083.75,0.0048
3083.50,0.0047
3083.25,0.0046
3083.00,0.0046
3082.75,0.0046
3082.50,0.0047
3082.25,0.0049
3082.00,0.0050
3081.75,0.0051
3081.50,0.0050
3081.25,0.0049
3081.00,0.0048
3080.75,0.0047
3080.50,0.0047
3080.25,0.0047
3080.00,0.0047
3079.75,0.0047
3079.50,0.0047
3079.25,0.0048
3079.00,0.0049
3078.75,0.0050
3078.50,0.0050
3078.25,0.0051
3078.00,0.0051
3077.75,0.0052
3077.50,0.0053
3077.25,0.0054
3077.00,0.0053
3076.75,0.0052
3076.50,0.0051
3076.25,0.0050
3076.00,0.0050
3075.75,0.0051
3075.50,0.0051
3075.25,0.0051
3075.00,0.0051
3074.75,0.0050
3074.50,0.0048
3074.25,0.0047
3074.00,0.0046
3073.75,0.0045
3073.50,0.0045
3073.25,0.0046
3073.00,0.0046
3072.75,0.0047
3072.50,0.0047
3072.25,0.0048
3072.00,0.0048
3071.75,0.0048
3071.50,0.0048
3071.25,0.0048
3071.00,0.0047
3070.75,0.0047
3070.50,0.0049
3070.25,0.0050
3070.00,0.0051
3069.75,0.0052
3069.50,0.0051
3069.25,0.0050
3069.00,0.0049
3068.75,0.0048
3068.50,0.0047
3068.25,0.0047
3068.00,0.0047
3067.75,0.0047
3067.50,0.0047
3067.25,0.0048
3067.00,0.0048
3066.75,0.0048
3066.50,0.0048
3066.25,0.0048
3066.00,0.0048
3065.75,0.0048
3065.50,0.0049
3065.25,0.0049
3065.00,0.0049
3064.75,0.0049
3064.50,0.0047
3064.25,0.0047
3064.00,0.0047
3063.75,0.0047
3063.50,0.0048
3063.25,0.0049
3063.00,0.0049
3062.75,0.0049
3062.50,0.0048
3062.25,0.0048
3062.00,0.0049
3061.75,0.0049
3061.50,0.0051
3061.25,0.0052
3061.00,0.0052
3060.75,0.0052
3060.50,0.0052
3060.25,0.0051
3060.00,0.0051
3059.75,0.0052
3059.50,0.0052
3059.25,0.0052
3059.00,0.0052
3058.75,0.0052
3058.50,0.0052
3058.25,0.0052
3058.00,0.0051
3057.75,0.0051
3057.50,0.0051
3057.25,0.0052
3057.00,0.0051
3056.75,0.0051
3056.50,0.0049
3056.25,0.0049
3056.00,0.0049
3055.75,0.0050
3055.50,0.0051
3055.25,0.0052
3055.00,0.0052
3054.75,0.0052
3054.50,0.0052
3054.25,0.0052
3054.00,0.0052
3053.75,0.0051
3053.50,0.0050
3053.25,0.0050
3053.00,0.0050
3052.75,0.0051
3052.50,0.0051
3052.25,0.0052
3052.00,0.0052
3051.75,0.0052
3051.50,0.0051
3051.25,0.0050
3051.00,0.0049
3050.75,0.0048
3050.50,0.0047
3050.25,0.0046
3050.00,0.0045
3049.75,0.0046
3049.50,0.0046
3049.25,0.0046
3049.00,0.0046
3048.75,0.0046
3048.50,0.0045
3048.25,0.0045
3048.00,0.0045
3047.75,0.0047
3047.50,0.0048
3047.25,0.0049
3047.00,0.0050
3046.75,0.0049
3046.50,0.0048
3046.25,0.0047
3046.00,0.0045
3045.75,0.0045
3045.50,0.0044
3045.25,0.0044
3045.00,0.0044
3044.75,0.0044
3044.50,0.0044
3044.25,0.0044
3044.00,0.0044
3043.75,0.0042
3043.50,0.0041
3043.25,0.0040
3043.00,0.0040
3042.75,0.0040
3042.50,0.0041
3042.25,0.0042
3042.00,0.0042
3041.75,0.0043
3041.50,0.0045
3041.25,0.0047
3041.00,0.0049
3040.75,0.0050
3040.50,0.0050
3040.25,0.0050
3040.00,0.0049
3039.75,0.0048
3039.50,0.0045
3039.25,0.0042
3039.00,0.0040
3038.75,0.0040
3038.50,0.0041
3038.25,0.0043
3038.00,0.0045
3037.75,0.0047
3037.50,0.0047
3037.25,0.0047
3037.00,0.0046
3036.75,0.0046
3036.50,0.0045
3036.25,0.0045
3036.00,0.0046
3035.75,0.0047
3035.50,0.0047
3035.25,0.0047
3035.00,0.0047
3034.75,0.0046
3034.50,0.0045
3034.25,0.0044
3034.00,0.0045
3033.75,0.0045
3033.50,0.0045
3033.25,0.0044
3033.00,0.0042
3032.75,0.0040
3032.50,0.0040
3032.25,0.0040
3032.00,0.0042
3031.75,0.0044
3031.50,0.0046
3031.25,0.0047
3031.00,0.0047
3030.75,0.0046
3030.50,0.0046
3030.25,0.0046
3030.00,0.0046
3029.75,0.0046
3029.50,0.0045
3029.25,0.0044
3029.00,0.0043
3028.75,0.0043
3028.50,0.0044
3028.25,0.0046
3028.00,0.0047
3027.75,0.0048
3027.50,0.0048
3027.25,0.0048
3027.00,0.0048
3026.75,0.0048
3026.50,0.0048
3026.25,0.0048
3026.00,0.0047
3025.75,0.0047
3025.50,0.0048
3025.25,0.0048
3025.00,0.0048
3024.75,0.0049
3024.50,0.0050
3024.25,0.0051
3024.00,0.0052
3023.75,0.0053
3023.50,0.0052
3023.25,0.0050
3023.00,0.0048
3022.75,0.0046
3022.50,0.0046
3022.25,0.0046
3022.00,0.0046
3021.75,0.0047
3021.50,0.0047
3021.25,0.0048
3021.00,0.0048
3020.75,0.0049
3020.50,0.0050
3020.25,0.0051
3020.00,0.0051
3019.75,0.0049
3019.50,0.0048
3019.25,0.0047
3019.00,0.0046
3018.75,0.0047
3018.50,0.0048
3018.25,0.0049
3018.00,0.0051
3017.75,0.0052
3017.50,0.0053
3017.25,0.0054
3017.00,0.0054
3016.75,0.0053
3016.50,0.0051
3016.25,0.0050
3016.00,0.0049
3015.75,0.0049
3015.50,0.0050
3015.25,0.0050
3015.00,0.0051
3014.75,0.0052
3014.50,0.0052
3014.25,0.0053
3014.00,0.0054
3013.75,0.0055
3013.50,0.0055
3013.25,0.0055
3013.00,0.0054
3012.75,0.0053
3012.50,0.0052
3012.25,0.0052
3012.00,0.0052
3011.75,0.0053
3011.50,0.0054
3011.25,0.0055
3011.00,0.0056
3010.75,0.0057
3010.50,0.0057
3010.25,0.0057
3010.00,0.0057
3009.75,0.0056
3009.50,0.0055
3009.25,0.0054
3009.00,0.0054
3008.75,0.0054
3008.50,0.0055
3008.25,0.0056
3008.00,0.0057
3007.75,0.0057
3007.50,0.0058
3007.25,0.0059
3007.00,0.0059
3006.75,0.0059
3006.50,0.0058
3006.25,0.0057
3006.00,0.0057
3005.75,0.0057
3005.50,0.0057
3005.25,0.0056
3005.00,0.0055
3004.75,0.0054
3004.50,0.0054
3004.25,0.0054
3004.00,0.0054
3003.75,0.0055
3003.50,0.0056
3003.25,0.0058
3003.00,0.0059
3002.75,0.0060
3002.50,0.0060
3002.25,0.0059
3002.00,0.0059
3001.75,0.0059
3001.50,0.0058
3001.25,0.0058
3001.00,0.0058
3000.75,0.0057
3000.50,0.0057
3000.25,0.0057
3000.00,0.0057
2999.75,0.0057
2999.50,0.0057
2999.25,0.0056
2999.00,0.0056
2998.75,0.0056
2998.50,0.0057
2998.25,0.0058
2998.00,0.0059
2997.75,0.0059
2997.50,0.0059
2997.25,0.0060
2997.00,0.0061
2996.75,0.0062
2996.50,0.0063
2996.25,0.0063
2996.00,0.0064
2995.75,0.0065
2995.50,0.0066
2995.25,0.0066
2995.00,0.0066
2994.75,0.0065
2994.50,0.0063
2994.25,0.0061
2994.00,0.0060
2993.75,0.0060
2993.50,0.0061
2993.25,0.0062
2993.00,0.0064
2992.75,0.0066
2992.50,0.0067
2992.25,0.0068
2992.00,0.0068
2991.75,0.0069
2991.50,0.0068
2991.25,0.0068
2991.00,0.0066
2990.75,0.0065
2990.50,0.0064
2990.25,0.0064
2990.00,0.0065
2989.75,0.0066
2989.50,0.0068
2989.25,0.0069
2989.00,0.0070
2988.75,0.0070
2988.50,0.0070
2988.25,0.0070
2988.00,0.0071
2987.75,0.0072
2987.50,0.0072
2987.25,0.0072
2987.00,0.0073
2986.75,0.0073
2986.50,0.0074
2986.25,0.0074
2986.00,0.0074
2985.75,0.0074
2985.50,0.0075
2985.25,0.0077
2985.00,0.0078
2984.75,0.0080
2984.50,0.0081
2984.25,0.0081
2984.00,0.0081
2983.75,0.0080
2983.50,0.0080
2983.25,0.0081
2983.00,0.0082
2982.75,0.0085
2982.50,0.0087
2982.25,0.0089
2982.00,0.0091
2981.75,0.0093
2981.50,0.0095
2981.25,0.0095
2981.00,0.0094
2980.75,0.0093
2980.50,0.0092
2980.25,0.0093
2980.00,0.0095
2979.75,0.0099
2979.50,0.0103
2979.25,0.0106
2979.00,0.0108
2978.75,0.0109
2978.50,0.0110
2978.25,0.0111
2978.00,0.0113
2977.75,0.0115
2977.50,0.0117
2977.25,0.0118
2977.00,0.0120
2976.75,0.0122
2976.50,0.0124
2976.25,0.0126
2976.00,0.0128
2975.75,0.0131
2975.50,0.0133
2975.25,0.0136
2975.00,0.0138
2974.75,0.0141
2974.50,0.0144
2974.25,0.0148
2974.00,0.0151
2973.75,0.0155
2973.50,0.0159
2973.25,0.0162
2973.00,0.0166
2972.75,0.0169
2972.50,0.0173
2972.25,0.0177
2972.00,0.0183
2971.75,0.0188
2971.50,0.0194
2971.25,0.0199
2971.00,0.0203
2970.75,0.0207
2970.50,0.0211
2970.25,0.0215
2970.00,0.0219
2969.75,0.0224
2969.50,0.0228
2969.25,0.0234
2969.00,0.0239
2968.75,0.0245
2968.50,0.0251
2968.25,0.0256
2968.00,0.0262
2967.75,0.0267
2967.50,0.0274
2967.25,0.0280
2967.00,0.0286
2966.75,0.0292
2966.50,0.0297
2966.25,0.0302
2966.00,0.0307
2965.75,0.0312
2965.50,0.0317
2965.25,0.0322
2965.00,0.0326
2964.75,0.0331
2964.50,0.0337
2964.25,0.0342
2964.00,0.0346
2963.75,0.0348
2963.50,0.0349
2963.25,0.0350
2963.00,0.0351
2962.75,0.0352
2962.50,0.0354
2962.25,0.0355
2962.00,0.0356
2961.75,0.0357
2961.50,0.0358
2961.25,0.0357
2961.00,0.0356
2960.75,0.0353
2960.50,0.0348
2960.25,0.0343
2960.00,0.0338
2959.75,0.0334
2959.50,0.0330
2959.25,0.0326
2959.00,0.0323
2958.75,0.0318
2958.50,0.0312
2958.25,0.0306
2958.00,0.0299
2957.75,0.0294
2957.50,0.0288
2957.25,0.0282
2957.00,0.0276
2956.75,0.0268
2956.50,0.0260
2956.25,0.0253
2956.00,0.0247
2955.75,0.0240
2955.50,0.0235
2955.25,0.0230
2955.00,0.0226
2954.75,0.0221
2954.50,0.0216
2954.25,0.0210
2954.00,0.0205
2953.75,0.0199
2953.50,0.0194
2953.25,0.0189
2953.00,0.0184
2952.75,0.0180
2952.50,0.0175
2952.25,0.0171
2952.00,0.0167
2951.75,0.0164
2951.50,0.0160
2951.25,0.0157
2951.00,0.0154
2950.75,0.0151
2950.50,0.0149
2950.25,0.0146
2950.00,0.0142
2949.75,0.0139
2949.50,0.0136
2949.25,0.0133
2949.00,0.0130
2948.75,0.0128
2948.50,0.0125
2948.25,0.0122
2948.00,0.0119
2947.75,0.0117
2947.50,0.0115
2947.25,0.0115
2947.00,0.0115
2946.75,0.0115
2946.50,0.0114
2946.25,0.0113
2946.00,0.0111
2945.75,0.0109
2945.50,0.0107
2945.25,0.0104
2945.00,0.0101
2944.75,0.0098
2944.50,0.0095
2944.25,0.0094
2944.00,0.0093
2943.75,0.0093
2943.50,0.0093
2943.25,0.0092
2943.00,0.0092
2942.75,0.0092
2942.50,0.0092
2942.25,0.0092
2942.00,0.0092
2941.75,0.0091
2941.50,0.0090
2941.25,0.0088
2941.00,0.0086
2940.75,0.0084
2940.50,0.0082
2940.25,0.0081
2940.00,0.0079
2939.75,0.0078
2939.50,0.0078
2939.25,0.0078
2939.00,0.0078
2938.75,0.0078
2938.50,0.0078
2938.25,0.0079
2938.00,0.0079
2937.75,0.0079
2937.50,0.0079
2937.25,0.0079
2937.00,0.0078
2936.75,0.0078
2936.50,0.0078
2936.25,0.0078
2936.00,0.0077
2935.75,0.0076
2935.50,0.0075
2935.25,0.0075
2935.00,0.0074
2934.75,0.0074
2934.50,0.0073
2934.25,0.0073
2934.00,0.0072
2933.75,0.0072
2933.50,0.0071
2933.25,0.0072
2933.00,0.0072
2932.75,0.0072
2932.50,0.0072
2932.25,0.0072
2932.00,0.0072
2931.75,0.0071
2931.50,0.0070
2931.25,0.0069
2931.00,0.0068
2930.75,0.0067
2930.50,0.0067
2930.25,0.0067
2930.00,0.0067
2929.75,0.0068
2929.50,0.0069
2929.25,0.0069
2929.00,0.0069
2928.75,0.0068
2928.50,0.0067
2928.25,0.0067
2928.00,0.0066
2927.75,0.0067
2927.50,0.0067
2927.25,0.0067
2927.00,0.0068
2926.75,0.0068
2926.50,0.0070
2926.25,0.0071
2926.00,0.0071
2925.75,0.0070
2925.50,0.0069
2925.25,0.0068
2925.00,0.0068
2924.75,0.0067
2924.50,0.0068
2924.25,0.0068
2924.00,0.0068
2923.75,0.0068
2923.50,0.0068
2923.25,0.0068
2923.00,0.0068
2922.75,0.0068
2922.50,0.0068
2922.25,0.0068
2922.00,0.0069
2921.75,0.0070
2921.50,0.0070
2921.25,0.0070
2921.00,0.0070
2920.75,0.0070
2920.50,0.0070
2920.25,0.0069
2920.00,0.0068
2919.75,0.0067
2919.50,0.0067
2919.25,0.0068
2919.00,0.0069
2918.75,0.0069
2918.50,0.0070
2918.25,0.0070
2918.00,0.0071
2917.75,0.0072
2917.50,0.0073
2917.25,0.0074
2917.00,0.0074
2916.75,0.0074
2916.50,0.0074
2916.25,0.0075
2916.00,0.0075
2915.75,0.0076
2915.50,0.0076
2915.25,0.0076
2915.00,0.0075
2914.75,0.0074
2914.50,0.0074
2914.25,0.0074
2914.00,0.0075
2913.75,0.0076
2913.50,0.0078
2913.25,0.0079
2913.00,0.0080
2912.75,0.0080
2912.50,0.0081
2912.25,0.0081
2912.00,0.0081
2911.75,0.0081
2911.50,0.0080
2911.25,0.0080
2911.00,0.0079
2910.75,0.0078
2910.50,0.0077
2910.25,0.0077
2910.00,0.0078
2909.75,0.0079
2909.50,0.0081
2909.25,0.0083
2909.00,0.0085
2908.75,0.0087
2908.50,0.0089
2908.25,0.0090
2908.00,0.0091
2907.75,0.0091
2907.50,0.0090
2907.25,0.0089
2907.00,0.0088
2906.75,0.0089
2906.50,0.0090
2906.25,0.0092
2906.00,0.0093
2905.75,0.0094
2905.50,0.0094
2905.25,0.0093
2905.00,0.0092
2904.75,0.0092
2904.50,0.0092
2904.25,0.0092
2904.00,0.0091
2903.75,0.0091
2903.50,0.0091
2903.25,0.0090
2903.00,0.0090
2902.75,0.0090
2902.50,0.0091
2902.25,0.0092
2902.00,0.0092
2901.75,0.0092
2901.50,0.0091
2901.25,0.0089
2901.00,0.0088
2900.75,0.0087
2900.50,0.0087
2900.25,0.0087
2900.00,0.0087
2899.75,0.0087
2899.50,0.0086
2899.25,0.0085
2899.00,0.0084
2898.75,0.0083
2898.50,0.0082
2898.25,0.0082
2898.00,0.0082
2897.75,0.0082
2897.50,0.0082
2897.25,0.0081
2897.00,0.0081
2896.75,0.0081
2896.50,0.0080
2896.25,0.0080
2896.00,0.0079
2895.75,0.0078
2895.50,0.0077
2895.25,0.0076
2895.00,0.0075
2894.75,0.0074
2894.50,0.0073
2894.25,0.0072
2894.00,0.0071
2893.75,0.0070
2893.50,0.0070
2893.25,0.0070
2893.00,0.0071
2892.75,0.0071
2892.50,0.0070
2892.25,0.0070
2892.00,0.0069
2891.75,0.0069
2891.50,0.0069
2891.25,0.0069
2891.00,0.0069
2890.75,0.0068
2890.50,0.0067
2890.25,0.0066
2890.00,0.0064
2889.75,0.0063
2889.50,0.0062
2889.25,0.0063
2889.00,0.0063
2888.75,0.0064
2888.50,0.0065
2888.25,0.0064
2888.00,0.0063
2887.75,0.0062
2887.50,0.0062
2887.25,0.0062
2887.00,0.0062
2886.75,0.0063
2886.50,0.0062
2886.25,0.0062
2886.00,0.0061
2885.75,0.0061
2885.50,0.0060
2885.25,0.0059
2885.00,0.0059
2884.75,0.0059
2884.50,0.0059
2884.25,0.0060
2884.00,0.0060
2883.75,0.0061
2883.50,0.0061
2883.25,0.0061
2883.00,0.0060
2882.75,0.0060
2882.50,0.0061
2882.25,0.0061
2882.00,0.0062
2881.75,0.0063
2881.50,0.0064
2881.25,0.0064
2881.00,0.0063
2880.75,0.0063
2880.50,0.0062
2880.25,0.0061
2880.00,0.0061
2879.75,0.0060
2879.50,0.0060
2879.25,0.0059
2879.00,0.0058
2878.75,0.0058
2878.50,0.0058
2878.25,0.0059
2878.00,0.0059
2877.75,0.0059
2877.50,0.0059
2877.25,0.0059
2877.00,0.0059
2876.75,0.0058
2876.50,0.0057
2876.25,0.0056
2876.00,0.0055
2875.75,0.0054
2875.50,0.0054
2875.25,0.0055
2875.00,0.0056
2874.75,0.0058
2874.50,0.0059
2874.25,0.0059
2874.00,0.0059
2873.75,0.0059
2873.50,0.0058
2873.25,0.0057
2873.00,0.0056
2872.75,0.0055
2872.50,0.0055
2872.25,0.0055
2872.00,0.0055
2871.75,0.0055
2871.50,0.0055
2871.25,0.0055
2871.00,0.0054
2870.75,0.0054
2870.50,0.0054
2870.25,0.0054
2870.00,0.0054
2869.75,0.0054
2869.50,0.0054
2869.25,0.0055
2869.00,0.0056
2868.75,0.0057
2868.50,0.0058
2868.25,0.0059
2868.00,0.0059
2867.75,0.0059
2867.50,0.0058
2867.25,0.0058
2867.00,0.0057
2866.75,0.0056
2866.50,0.0056
2866.25,0.0055
2866.00,0.0055
2865.75,0.0055
2865.50,0.0055
2865.25,0.0055
2865.00,0.0055
2864.75,0.0055
2864.50,0.0055
2864.25,0.0055
2864.00,0.0054
2863.75,0.0055
2863.50,0.0055
2863.25,0.0056
2863.00,0.0056
2862.75,0.0056
2862.50,0.0056
2862.25,0.0055
2862.00,0.0054
2861.75,0.0055
2861.50,0.0056
2861.25,0.0056
2861.00,0.0056
2860.75,0.0055
2860.50,0.0055
2860.25,0.0054
2860.00,0.0054
2859.75,0.0055
2859.50,0.0055
2859.25,0.0055
2859.00,0.0054
2858.75,0.0053
2858.50,0.0053
2858.25,0.0052
2858.00,0.0053
2857.75,0.0055
2857.50,0.0057
2857.25,0.0058
2857.00,0.0059
2856.75,0.0059
2856.50,0.0058
2856.25,0.0057
2856.00,0.0056
2855.75,0.0055
2855.50,0.0054
2855.25,0.0053
2855.00,0.0053
2854.75,0.0052
2854.50,0.0053
2854.25,0.0054
2854.00,0.0055
2853.75,0.0056
2853.50,0.0057
2853.25,0.0057
2853.00,0.0057
2852.75,0.0057
2852.50,0.0056
2852.25,0.0055
2852.00,0.0054
2851.75,0.0053
2851.50,0.0053
2851.25,0.0054
2851.00,0.0055
2850.75,0.0056
2850.50,0.0057
2850.25,0.0057
2850.00,0.0058
2849.75,0.0058
2849.50,0.0057
2849.25,0.0056
2849.00,0.0055
2848.75,0.0055
2848.50,0.0054
2848.25,0.0053
2848.00,0.0053
2847.75,0.0053
2847.50,0.0054
2847.25,0.0054
2847.00,0.0054
2846.75,0.0054
2846.50,0.0054
2846.25,0.0054
2846.00,0.0054
2845.75,0.0054
2845.50,0.0053
2845.25,0.0052
2845.00,0.0051
2844.75,0.0051
2844.50,0.0051
2844.25,0.0052
2844.00,0.0053
2843.75,0.0054
2843.50,0.0055
2843.25,0.0055
2843.00,0.0055
2842.75,0.0054
2842.50,0.0054
2842.25,0.0053
2842.00,0.0052
2841.75,0.0051
2841.50,0.0050
2841.25,0.0050
2841.00,0.0051
2840.75,0.0052
2840.50,0.0053
2840.25,0.0054
2840.00,0.0054
2839.75,0.0054
2839.50,0.0054
2839.25,0.0054
2839.00,0.0053
2838.75,0.0054
2838.50,0.0055
2838.25,0.0056
2838.00,0.0057
2837.75,0.0058
2837.50,0.0059
2837.25,0.0058
2837.00,0.0056
2836.75,0.0055
2836.50,0.0053
2836.25,0.0052
2836.00,0.0052
2835.75,0.0052
2835.50,0.0052
2835.25,0.0052
2835.00,0.0052
2834.75,0.0052
2834.50,0.0052
2834.25,0.0053
2834.00,0.0053
2833.75,0.0054
2833.50,0.0054
2833.25,0.0054
2833.00,0.0054
2832.75,0.0054
2832.50,0.0053
2832.25,0.0053
2832.00,0.0053
2831.75,0.0054
2831.50,0.0055
2831.25,0.0055
2831.00,0.0054
2830.75,0.0053
2830.50,0.0052
2830.25,0.0051
2830.00,0.0050
2829.75,0.0050
2829.50,0.0051
2829.25,0.0053
2829.00,0.0054
2828.75,0.0054
2828.50,0.0054
2828.25,0.0054
2828.00,0.0054
2827.75,0.0054
2827.50,0.0054
2827.25,0.0055
2827.00,0.0055
2826.75,0.0054
2826.50,0.0053
2826.25,0.0052
2826.00,0.0052
2825.75,0.0053
2825.50,0.0053
2825.25,0.0054
2825.00,0.0054
2824.75,0.0054
2824.50,0.0054
2824.25,0.0054
2824.00,0.0054
2823.75,0.0055
2823.50,0.0055
2823.25,0.0055
2823.00,0.0055
2822.75,0.0054
2822.50,0.0053
2822.25,0.0052
2822.00,0.0052
2821.75,0.0052
2821.50,0.0053
2821.25,0.0054
2821.00,0.0054
2820.75,0.0054
2820.50,0.0054
2820.25,0.0053
2820.00,0.0052
2819.75,0.0052
2819.50,0.0053
2819.25,0.0054
2819.00,0.0054
2818.75,0.0054
2818.50,0.0053
2818.25,0.0052
2818.00,0.0050
2817.75,0.0049
2817.50,0.0049
2817.25,0.0050
2817.00,0.0051
2816.75,0.0053
2816.50,0.0053
2816.25,0.0054
2816.00,0.0053
2815.75,0.0053
2815.50,0.0053
2815.25,0.0053
2815.00,0.0053
2814.75,0.0053
2814.50,0.0054
2814.25,0.0055
2814.00,0.0056
2813.75,0.0056
2813.50,0.0056
2813.25,0.0056
2813.00,0.0055
2812.75,0.0055
2812.50,0.0054
2812.25,0.0054
2812.00,0.0054
2811.75,0.0053
2811.50,0.0053
2811.25,0.0052
2811.00,0.0053
2810.75,0.0053
2810.50,0.0053
2810.25,0.0053
2810.00,0.0054
2809.75,0.0055
2809.50,0.0055
2809.25,0.0055
2809.00,0.0055
2808.75,0.0055
2808.50,0.0054
2808.25,0.0054
2808.00,0.0053
2807.75,0.0053
2807.50,0.0054
2807.25,0.0054
2807.00,0.0054
2806.75,0.0054
2806.50,0.0054
2806.25,0.0054
2806.00,0.0054
2805.75,0.0055
2805.50,0.0055
2805.25,0.0054
2805.00,0.0054
2804.75,0.0053
2804.50,0.0052
2804.25,0.0051
2804.00,0.0051
2803.75,0.0052
2803.50,0.0052
2803.25,0.0052
2803.00,0.0051
2802.75,0.0051
2802.50,0.0051
2802.25,0.0052
2802.00,0.0053
2801.75,0.0054
2801.50,0.0054
2801.25,0.0054
2801.00,0.0054
2800.75,0.0053
2800.50,0.0053
2800.25,0.0054
2800.00,0.0054
2799.75,0.0054
2799.50,0.0055
2799.25,0.0055
2799.00,0.0054
2798.75,0.0053
2798.50,0.0052
2798.25,0.0051
2798.00,0.0051
2797.75,0.0052
2797.50,0.0054
2797.25,0.0055
2797.00,0.0055
2796.75,0.0055
2796.50,0.0055
2796.25,0.0054
2796.00,0.0054
2795.75,0.0053
2795.50,0.0052
2795.25,0.0051
2795.00,0.0050
2794.75,0.0050
2794.50,0.0050
2794.25,0.0051
2794.00,0.0053
2793.75,0.0053
2793.50,0.0054
2793.25,0.0053
2793.00,0.0053
2792.75,0.0052
2792.50,0.0053
2792.25,0.0054
2792.00,0.0054
2791.75,0.0055
2791.50,0.0054
2791.25,0.0054
2791.00,0.0054
2790.75,0.0055
2790.50,0.0055
2790.25,0.0055
2790.00,0.0055
2789.75,0.0054
2789.50,0.0053
2789.25,0.0052
2789.00,0.0052
2788.75,0.0051
2788.50,0.0051
2788.25,0.0051
2788.00,0.0052
2787.75,0.0053
2787.50,0.0054
2787.25,0.0054
2787.00,0.0054
2786.75,0.0053
2786.50,0.0052
2786.25,0.0051
2786.00,0.0050
2785.75,0.0049
2785.50,0.0049
2785.25,0.0049
2785.00,0.0050
2784.75,0.0051
2784.50,0.0052
2784.25,0.0053
2784.00,0.0054
2783.75,0.0055
2783.50,0.0054
2783.25,0.0054
2783.00,0.0053
2782.75,0.0052
2782.50,0.0051
2782.25,0.0051
2782.00,0.0050
2781.75,0.0050
2781.50,0.0050
2781.25,0.0050
2781.00,0.0050
2780.75,0.0051
2780.50,0.0052
2780.25,0.0053
2780.00,0.0054
2779.75,0.0055
2779.50,0.0054
2779.25,0.0053
2779.00,0.0052
2778.75,0.0051
2778.50,0.0051
2778.25,0.0051
2778.00,0.0051
2777.75,0.0050
2777.50,0.0050
2777.25,0.0049
2777.00,0.0048
2776.75,0.0048
2776.50,0.0048
2776.25,0.0049
2776.00,0.0049
2775.75,0.0049
2775.50,0.0049
2775.25,0.0050
2775.00,0.0050
2774.75,0.0051
2774.50,0.0050
2774.25,0.0049
2774.00,0.0048
2773.75,0.0048
2773.50,0.0048
2773.25,0.0049
2773.00,0.0050
2772.75,0.0050
2772.50,0.0051
2772.25,0.0051
2772.00,0.0050
2771.75,0.0050
2771.50,0.0049
2771.25,0.0048
2771.00,0.0048
2770.75,0.0048
2770.50,0.0048
2770.25,0.0048
2770.00,0.0049
2769.75,0.0049
2769.50,0.0048
2769.25,0.0048
2769.00,0.0047
2768.75,0.0047
2768.50,0.0048
2768.25,0.0049
2768.00,0.0049
2767.75,0.0049
2767.50,0.0048
2767.25,0.0047
2767.00,0.0047
2766.75,0.0047
2766.50,0.0047
2766.25,0.0048
2766.00,0.0048
2765.75,0.0049
2765.50,0.0049
2765.25,0.0049
2765.00,0.0050
2764.75,0.0049
2764.50,0.0049
2764.25,0.0049
2764.00,0.0049
2763.75,0.0049
2763.50,0.0050
2763.25,0.0050
2763.00,0.0050
2762.75,0.0050
2762.50,0.0049
2762.25,0.0048
2762.00,0.0046
2761.75,0.0046
2761.50,0.0045
2761.25,0.0045
2761.00,0.0045
2760.75,0.0046
2760.50,0.0047
2760.25,0.0048
2760.00,0.0048
2759.75,0.0047
2759.50,0.0046
2759.25,0.0045
2759.00,0.0045
2758.75,0.0045
2758.50,0.0045
2758.25,0.0045
2758.00,0.0046
2757.75,0.0047
2757.50,0.0048
2757.25,0.0049
2757.00,0.0049
2756.75,0.0048
2756.50,0.0047
2756.25,0.0046
2756.00,0.0046
2755.75,0.0045
2755.50,0.0046
2755.25,0.0047
2755.00,0.0049
2754.75,0.0050
2754.50,0.0050
2754.25,0.0049
2754.00,0.0047
2753.75,0.0046
2753.50,0.0044
2753.25,0.0044
2753.00,0.0044
2752.75,0.0045
2752.50,0.0045
2752.25,0.0046
2752.00,0.0048
2751.75,0.0049
2751.50,0.0050
2751.25,0.0049
2751.00,0.0049
2750.75,0.0047
2750.50,0.0046
2750.25,0.0046
2750.00,0.0045
2749.75,0.0044
2749.50,0.0043
2749.25,0.0042
2749.00,0.0042
2748.75,0.0042
2748.50,0.0044
2748.25,0.0046
2748.00,0.0048
2747.75,0.0048
2747.50,0.0048
2747.25,0.0048
2747.00,0.0048
2746.75,0.0048
2746.50,0.0048
2746.25,0.0047
2746.00,0.0047
2745.75,0.0047
2745.50,0.0047
2745.25,0.0047
2745.00,0.0046
2744.75,0.0045
2744.50,0.0044
2744.25,0.0044
2744.00,0.0044
2743.75,0.0044
2743.50,0.0045
2743.25,0.0045
2743.00,0.0046
2742.75,0.0047
2742.50,0.0047
2742.25,0.0047
2742.00,0.0047
2741.75,0.0047
2741.50,0.0046
2741.25,0.0046
2741.00,0.0046
2740.75,0.0045
2740.50,0.0046
2740.25,0.0046
2740.00,0.0047
2739.75,0.0047
2739.50,0.0048
2739.25,0.0048
2739.00,0.0048
2738.75,0.0047
2738.50,0.0046
2738.25,0.0045
2738.00,0.0044
2737.75,0.0044
2737.50,0.0044
2737.25,0.0044
2737.00,0.0045
2736.75,0.0045
2736.50,0.0046
2736.25,0.0047
2736.00,0.0047
2735.75,0.0047
2735.50,0.0047
2735.25,0.0047
2735.00,0.0047
2734.75,0.0047
2734.50,0.0047
2734.25,0.0047
2734.00,0.0048
2733.75,0.0048
2733.50,0.0048
2733.25,0.0047
2733.00,0.0047
2732.75,0.0046
2732.50,0.0046
2732.25,0.0046
2732.00,0.0046
2731.75,0.0047
2731.50,0.0047
2731.25,0.0047
2731.00,0.0046
2730.75,0.0045
2730.50,0.0044
2730.25,0.0044
2730.00,0.0045
2729.75,0.0046
2729.50,0.0046
2729.25,0.0046
2729.00,0.0046
2728.75,0.0046
2728.50,0.0046
2728.25,0.0046
2728.00,0.0046
2727.75,0.0046
2727.50,0.0046
2727.25,0.0046
2727.00,0.0046
2726.75,0.0047
2726.50,0.0047
2726.25,0.0048
2726.00,0.0048
2725.75,0.0048
2725.50,0.0048
2725.25,0.0048
2725.00,0.0048
2724.75,0.0047
2724.50,0.0045
2724.25,0.0044
2724.00,0.0042
2723.75,0.0042
2723.50,0.0042
2723.25,0.0043
2723.00,0.0045
2722.75,0.0047
2722.50,0.0048
2722.25,0.0049
2722.00,0.0050
2721.75,0.0050
2721.50,0.0050
2721.25,0.0049
2721.00,0.0048
2720.75,0.0047
2720.50,0.0047
2720.25,0.0047
2720.00,0.0048
2719.75,0.0048
2719.50,0.0048
2719.25,0.0048
2719.00,0.0048
2718.75,0.0048
2718.50,0.0048
2718.25,0.0048
2718.00,0.0048
2717.75,0.0048
2717.50,0.0047
2717.25,0.0046
2717.00,0.0045
2716.75,0.0045
2716.50,0.0045
2716.25,0.0045
2716.00,0.0045
2715.75,0.0045
2715.50,0.0045
2715.25,0.0044
2715.00,0.0044
2714.75,0.0045
2714.50,0.0045
2714.25,0.0045
2714.00,0.0045
2713.75,0.0046
2713.50,0.0046
2713.25,0.0046
2713.00,0.0047
2712.75,0.0047
2712.50,0.0047
2712.25,0.0047
2712.00,0.0046
2711.75,0.0046
2711.50,0.0046
2711.25,0.0046
2711.00,0.0046
2710.75,0.0045
2710.50,0.0045
2710.25,0.0045
2710.00,0.0045
2709.75,0.0045
2709.50,0.0046
2709.25,0.0046
2709.00,0.0047
2708.75,0.0047
2708.50,0.0047
2708.25,0.0047
2708.00,0.0046
2707.75,0.0046
2707.50,0.0045
2707.25,0.0044
2707.00,0.0045
2706.75,0.0045
2706.50,0.0045
2706.25,0.0046
2706.00,0.0046
2705.75,0.0047
2705.50,0.0047
2705.25,0.0047
2705.00,0.0046
2704.75,0.0045
2704.50,0.0045
2704.25,0.0045
2704.00,0.0045
2703.75,0.0046
2703.50,0.0047
2703.25,0.0048
2703.00,0.0049
2702.75,0.0050
2702.50,0.0050
2702.25,0.0049
2702.00,0.0048
2701.75,0.0047
2701.50,0.0047
2701.25,0.0047
2701.00,0.0047
2700.75,0.0047
2700.50,0.0047
2700.25,0.0047
2700.00,0.0047
2699.75,0.0046
2699.50,0.0046
2699.25,0.0046
2699.00,0.0046
2698.75,0.0046
2698.50,0.0048
2698.25,0.0048
2698.00,0.0049
2697.75,0.0048
2697.50,0.0047
2697.25,0.0047
2697.00,0.0047
2696.75,0.0048
2696.50,0.0048
2696.25,0.0049
2696.00,0.0048
2695.75,0.0047
2695.50,0.0046
2695.25,0.0046
2695.00,0.0047
2694.75,0.0049
2694.50,0.0050
2694.25,0.0051
2694.00,0.0050
2693.75,0.0049
2693.50,0.0047
2693.25,0.0046
2693.00,0.0045
2692.75,0.0045
2692.50,0.0046
2692.25,0.0046
2692.00,0.0047
2691.75,0.0047
2691.50,0.0047
2691.25,0.0046
2691.00,0.0046
2690.75,0.0046
2690.50,0.0046
2690.25,0.0046
2690.00,0.0047
2689.75,0.0047
2689.50,0.0048
2689.25,0.0049
2689.00,0.0049
2688.75,0.0050
2688.50,0.0050
2688.25,0.0050
2688.00,0.0049
2687.75,0.0049
2687.50,0.0048
2687.25,0.0048
2687.00,0.0048
2686.75,0.0048
2686.50,0.0049
2686.25,0.0050
2686.00,0.0050
2685.75,0.0050
2685.50,0.0049
2685.25,0.0048
2685.00,0.0046
2684.75,0.0045
2684.50,0.0044
2684.25,0.0044
2684.00,0.0044
2683.75,0.0045
2683.50,0.0046
2683.25,0.0047
2683.00,0.0048
2682.75,0.0048
2682.50,0.0049
2682.25,0.0049
2682.00,0.0049
2681.75,0.0049
2681.50,0.0049
2681.25,0.0049
2681.00,0.0050
2680.75,0.0049
2680.50,0.0049
2680.25,0.0047
2680.00,0.0046
2679.75,0.0045
2679.50,0.0045
2679.25,0.0046
2679.00,0.0046
2678.75,0.0046
2678.50,0.0046
2678.25,0.0046
2678.00,0.0046
2677.75,0.0046
2677.50,0.0046
2677.25,0.0045
2677.00,0.0045
2676.75,0.0046
2676.50,0.0047
2676.25,0.0047
2676.00,0.0047
2675.75,0.0047
2675.50,0.0047
2675.25,0.0048
2675.00,0.0048
2674.75,0.0048
2674.50,0.0048
2674.25,0.0048
2674.00,0.0048
2673.75,0.0047
2673.50,0.0047
2673.25,0.0047
2673.00,0.0047
2672.75,0.0048
2672.50,0.0048
2672.25,0.0047
2672.00,0.0047
2671.75,0.0046
2671.50,0.0046
2671.25,0.0046
2671.00,0.0046
2670.75,0.0047
2670.50,0.0047
2670.25,0.0047
2670.00,0.0046
2669.75,0.0046
2669.50,0.0045
2669.25,0.0045
2669.00,0.0046
2668.75,0.0046
2668.50,0.0046
2668.25,0.0045
2668.00,0.0045
2667.75,0.0045
2667.50,0.0045
2667.25,0.0046
2667.00,0.0047
2666.75,0.0047
2666.50,0.0047
2666.25,0.0046
2666.00,0.0046
2665.75,0.0046
2665.50,0.0046
2665.25,0.0047
2665.00,0.0048
2664.75,0.0049
2664.50,0.0049
2664.25,0.0048
2664.00,0.0048
2663.75,0.0048
2663.50,0.0047
2663.25,0.0046
2663.00,0.0045
2662.75,0.0046
2662.50,0.0047
2662.25,0.0048
2662.00,0.0049
2661.75,0.0049
2661.50,0.0049
2661.25,0.0049
2661.00,0.0048
2660.75,0.0048
2660.50,0.0048
2660.25,0.0047
2660.00,0.0047
2659.75,0.0047
2659.50,0.0046
2659.25,0.0046
2659.00,0.0046
2658.75,0.0046
2658.50,0.0047
2658.25,0.0049
2658.00,0.0050
2657.75,0.0050
2657.50,0.0049
2657.25,0.0048
2657.00,0.0047
2656.75,0.0046
2656.50,0.0046
2656.25,0.0046
2656.00,0.0045
2655.75,0.0045
2655.50,0.0045
2655.25,0.0045
2655.00,0.0045
2654.75,0.0044
2654.50,0.0044
2654.25,0.0044
2654.00,0.0045
2653.75,0.0047
2653.50,0.0048
2653.25,0.0048
2653.00,0.0048
2652.75,0.0048
2652.50,0.0047
2652.25,0.0046
2652.00,0.0046
2651.75,0.0046
2651.50,0.0047
2651.25,0.0048
2651.00,0.0049
2650.75,0.0049
2650.50,0.0048
2650.25,0.0047
2650.00,0.0046
2649.75,0.0045
2649.50,0.0044
2649.25,0.0045
2649.00,0.0046
2648.75,0.0046
2648.50,0.0047
2648.25,0.0046
2648.00,0.0045
2647.75,0.0045
2647.50,0.0045
2647.25,0.0046
2647.00,0.0047
2646.75,0.0048
2646.50,0.0048
2646.25,0.0047
2646.00,0.0046
2645.75,0.0046
2645.50,0.0046
2645.25,0.0046
2645.00,0.0046
2644.75,0.0046
2644.50,0.0045
2644.25,0.0045
2644.00,0.0044
2643.75,0.0044
2643.50,0.0044
2643.25,0.0044
2643.00,0.0044
2642.75,0.0044
2642.50,0.0044
2642.25,0.0043
2642.00,0.0042
2641.75,0.0042
2641.50,0.0043
2641.25,0.0044
2641.00,0.0045
2640.75,0.0046
2640.50,0.0046
2640.25,0.0046
2640.00,0.0045
2639.75,0.0044
2639.50,0.0043
2639.25,0.0042
2639.00,0.0043
2638.75,0.0044
2638.50,0.0045
2638.25,0.0046
2638.00,0.0047
2637.75,0.0047
2637.50,0.0046
2637.25,0.0046
2637.00,0.0045
2636.75,0.0045
2636.50,0.0045
2636.25,0.0044
2636.00,0.0045
2635.75,0.0045
2635.50,0.0046
2635.25,0.0046
2635.00,0.0047
2634.75,0.0046
2634.50,0.0046
2634.25,0.0044
2634.00,0.0043
2633.75,0.0042
2633.50,0.0043
2633.25,0.0043
2633.00,0.0045
2632.75,0.0046
2632.50,0.0046
2632.25,0.0047
2632.00,0.0047
2631.75,0.0047
2631.50,0.0046
2631.25,0.0045
2631.00,0.0044
2630.75,0.0042
2630.50,0.0040
2630.25,0.0039
2630.00,0.0039
2629.75,0.0040
2629.50,0.0041
2629.25,0.0043
2629.00,0.0044
2628.75,0.0045
2628.50,0.0044
2628.25,0.0044
2628.00,0.0043
2627.75,0.0043
2627.50,0.0043
2627.25,0.0044
2627.00,0.0046
2626.75,0.0047
2626.50,0.0048
2626.25,0.0049
2626.00,0.0049
2625.75,0.0048
2625.50,0.0046
2625.25,0.0045
2625.00,0.0045
2624.75,0.0045
2624.50,0.0045
2624.25,0.0046
2624.00,0.0046
2623.75,0.0046
2623.50,0.0045
2623.25,0.0043
2623.00,0.0041
2622.75,0.0040
2622.50,0.0039
2622.25,0.0039
2622.00,0.0040
2621.75,0.0041
2621.50,0.0042
2621.25,0.0043
2621.00,0.0043
2620.75,0.0043
2620.50,0.0043
2620.25,0.0043
2620.00,0.0044
2619.75,0.0045
2619.50,0.0045
2619.25,0.0045
2619.00,0.0045
2618.75,0.0044
2618.50,0.0044
2618.25,0.0044
2618.00,0.0045
2617.75,0.0046
2617.50,0.0047
2617.25,0.0048
2617.00,0.0047
2616.75,0.0046
2616.50,0.0044
2616.25,0.0043
2616.00,0.0042
2615.75,0.0042
2615.50,0.0043
2615.25,0.0044
2615.00,0.0045
2614.75,0.0046
2614.50,0.0045
2614.25,0.0044
2614.00,0.0044
2613.75,0.0044
2613.50,0.0044
2613.25,0.0045
2613.00,0.0045
2612.75,0.0044
2612.50,0.0043
2612.25,0.0041
2612.00,0.0041
2611.75,0.0041
2611.50,0.0042
2611.25,0.0044
2611.00,0.0045
2610.75,0.0044
2610.50,0.0044
2610.25,0.0043
2610.00,0.0042
2609.75,0.0043
2609.50,0.0044
2609.25,0.0046
2609.00,0.0047
2608.75,0.0047
2608.50,0.0045
2608.25,0.0043
2608.00,0.0040
2607.75,0.0039
2607.50,0.0040
2607.25,0.0042
2607.00,0.0045
2606.75,0.0048
2606.50,0.0049
2606.25,0.0049
2606.00,0.0049
2605.75,0.0049
2605.50,0.0050
2605.25,0.0050
2605.00,0.0051
2604.75,0.0051
2604.50,0.0050
2604.25,0.0049
2604.00,0.0048
2603.75,0.0046
2603.50,0.0044
2603.25,0.0043
2603.00,0.0043
2602.75,0.0043
2602.50,0.0044
2602.25,0.0044
2602.00,0.0044
2601.75,0.0044
2601.50,0.0043
2601.25,0.0042
2601.00,0.0041
2600.75,0.0039
2600.50,0.0039
2600.25,0.0040
2600.00,0.0041
2599.75,0.0042
2599.50,0.0041
2599.25,0.0040
2599.00,0.0038
2598.75,0.0036
2598.50,0.0036
2598.25,0.0038
2598.00,0.0040
2597.75,0.0043
2597.50,0.0044
2597.25,0.0044
2597.00,0.0044
2596.75,0.0042
2596.50,0.0041
2596.25,0.0040
2596.00,0.0040
2595.75,0.0041
2595.50,0.0041
2595.25,0.0041
2595.00,0.0040
2594.75,0.0040
2594.50,0.0039
2594.25,0.0039
2594.00,0.0039
2593.75,0.0039
2593.50,0.0039
2593.25,0.0039
2593.00,0.0040
2592.75,0.0041
2592.50,0.0043
2592.25,0.0045
2592.00,0.0046
2591.75,0.0046
2591.50,0.0045
2591.25,0.0043
2591.00,0.0043
2590.75,0.0044
2590.50,0.0045
2590.25,0.0046
2590.00,0.0045
2589.75,0.0045
2589.50,0.0044
2589.25,0.0045
2589.00,0.0046
2588.75,0.0047
2588.50,0.0048
2588.25,0.0048
2588.00,0.0048
2587.75,0.0047
2587.50,0.0046
2587.25,0.0044
2587.00,0.0042
2586.75,0.0041
2586.50,0.0040
2586.25,0.0039
2586.00,0.0039
2585.75,0.0039
2585.50,0.0039
2585.25,0.0039
2585.00,0.0039
2584.75,0.0040
2584.50,0.0042
2584.25,0.0044
2584.00,0.0045
2583.75,0.0044
2583.50,0.0043
2583.25,0.0042
2583.00,0.0042
2582.75,0.0043
2582.50,0.0045
2582.25,0.0046
2582.00,0.0046
2581.75,0.0044
2581.50,0.0041
2581.25,0.0039
2581.00,0.0038
2580.75,0.0038
2580.50,0.0039
2580.25,0.0040
2580.00,0.0040
2579.75,0.0041
2579.50,0.0042
2579.25,0.0043
2579.00,0.0045
2578.75,0.0047
2578.50,0.0048
2578.25,0.0047
2578.00,0.0046
2577.75,0.0043
2577.50,0.0041
2577.25,0.0041
2577.00,0.0041
2576.75,0.0043
2576.50,0.0045
2576.25,0.0047
2576.00,0.0048
2575.75,0.0048
2575.50,0.0047
2575.25,0.0046
2575.00,0.0045
2574.75,0.0044
2574.50,0.0044
2574.25,0.0045
2574.00,0.0046
2573.75,0.0046
2573.50,0.0045
2573.25,0.0044
2573.00,0.0043
2572.75,0.0042
2572.50,0.0040
2572.25,0.0040
2572.00,0.0040
2571.75,0.0041
2571.50,0.0042
2571.25,0.0042
2571.00,0.0041
2570.75,0.0040
2570.50,0.0039
2570.25,0.0039
2570.00,0.0039
2569.75,0.0039
2569.50,0.0039
2569.25,0.0039
2569.00,0.0040
2568.75,0.0042
2568.50,0.0044
2568.25,0.0045
2568.00,0.0044
2567.75,0.0043
2567.50,0.0041
2567.25,0.0040
2567.00,0.0039
2566.75,0.0040
2566.50,0.0041
2566.25,0.0043
2566.00,0.0046
2565.75,0.0047
2565.50,0.0047
2565.25,0.0046
2565.00,0.0044
2564.75,0.0043
2564.50,0.0042
2564.25,0.0041
2564.00,0.0043
2563.75,0.0045
2563.50,0.0047
2563.25,0.0048
2563.00,0.0048
2562.75,0.0046
2562.50,0.0044
2562.25,0.0042
2562.00,0.0041
2561.75,0.0040
2561.50,0.0040
2561.25,0.0040
2561.00,0.0041
2560.75,0.0042
2560.50,0.0043
2560.25,0.0043
2560.00,0.0042
2559.75,0.0041
2559.50,0.0041
2559.25,0.0042
2559.00,0.0043
2558.75,0.0043
2558.50,0.0043
2558.25,0.0042
2558.00,0.0042
2557.75,0.0043
2557.50,0.0045
2557.25,0.0046
2557.00,0.0047
2556.75,0.0048
2556.50,0.0048
2556.25,0.0047
2556.00,0.0046
2555.75,0.0045
2555.50,0.0045
2555.25,0.0045
2555.00,0.0046
2554.75,0.0045
2554.50,0.0044
2554.25,0.0042
2554.00,0.0041
2553.75,0.0041
2553.50,0.0042
2553.25,0.0042
2553.00,0.0042
2552.75,0.0041
2552.50,0.0040
2552.25,0.0039
2552.00,0.0040
2551.75,0.0040
2551.50,0.0040
2551.25,0.0041
2551.00,0.0041
2550.75,0.0043
2550.50,0.0045
2550.25,0.0048
2550.00,0.0049
2549.75,0.0049
2549.50,0.0048
2549.25,0.0045
2549.00,0.0042
2548.75,0.0039
2548.50,0.0038
2548.25,0.0038
2548.00,0.0039
2547.75,0.0040
2547.50,0.0039
2547.25,0.0038
2547.00,0.0037
2546.75,0.0037
2546.50,0.0038
2546.25,0.0040
2546.00,0.0041
2545.75,0.0041
2545.50,0.0040
2545.25,0.0037
2545.00,0.0035
2544.75,0.0034
2544.50,0.0034
2544.25,0.0035
2544.00,0.0036
2543.75,0.0037
2543.50,0.0037
2543.25,0.0037
2543.00,0.0038
2542.75,0.0037
2542.50,0.0037
2542.25,0.0038
2542.00,0.0039
2541.75,0.0041
2541.50,0.0041
2541.25,0.0040
2541.00,0.0037
2540.75,0.0035
2540.50,0.0035
2540.25,0.0036
2540.00,0.0037
2539.75,0.0038
2539.50,0.0039
2539.25,0.0039
2539.00,0.0039
2538.75,0.0039
2538.50,0.0039
2538.25,0.0039
2538.00,0.0039
2537.75,0.0039
2537.50,0.0038
2537.25,0.0039
2537.00,0.0040
2536.75,0.0040
2536.50,0.0041
2536.25,0.0041
2536.00,0.0041
2535.75,0.0041
2535.50,0.0041
2535.25,0.0040
2535.00,0.0039
2534.75,0.0038
2534.50,0.0039
2534.25,0.0040
2534.00,0.0042
2533.75,0.0042
2533.50,0.0041
2533.25,0.0039
2533.00,0.0038
2532.75,0.0037
2532.50,0.0037
2532.25,0.0038
2532.00,0.0038
2531.75,0.0038
2531.50,0.0037
2531.25,0.0037
2531.00,0.0037
2530.75,0.0036
2530.50,0.0034
2530.25,0.0033
2530.00,0.0033
2529.75,0.0033
2529.50,0.0035
2529.25,0.0037
2529.00,0.0038
2528.75,0.0039
2528.50,0.0039
2528.25,0.0038
2528.00,0.0036
2527.75,0.0033
2527.50,0.0030
2527.25,0.0029
2527.00,0.0029
2526.75,0.0031
2526.50,0.0034
2526.25,0.0036
2526.00,0.0037
2525.75,0.0037
2525.50,0.0036
2525.25,0.0036
2525.00,0.0035
2524.75,0.0035
2524.50,0.0036
2524.25,0.0036
2524.00,0.0035
2523.75,0.0035
2523.50,0.0035
2523.25,0.0035
2523.00,0.0035
2522.75,0.0035
2522.50,0.0035
2522.25,0.0034
2522.00,0.0032
2521.75,0.0030
2521.50,0.0028
2521.25,0.0028
2521.00,0.0028
2520.75,0.0030
2520.50,0.0031
2520.25,0.0032
2520.00,0.0032
2519.75,0.0033
2519.50,0.0033
2519.25,0.0033
2519.00,0.0033
2518.75,0.0033
2518.50,0.0034
2518.25,0.0035
2518.00,0.0035
2517.75,0.0034
2517.50,0.0033
2517.25,0.0032
2517.00,0.0031
2516.75,0.0032
2516.50,0.0032
2516.25,0.0032
2516.00,0.0031
2515.75,0.0030
2515.50,0.0028
2515.25,0.0026
2515.00,0.0026
2514.75,0.0025
2514.50,0.0024
2514.25,0.0024
2514.00,0.0025
2513.75,0.0027
2513.50,0.0029
2513.25,0.0031
2513.00,0.0031
2512.75,0.0030
2512.50,0.0029
2512.25,0.0029
2512.00,0.0028
2511.75,0.0029
2511.50,0.0031
2511.25,0.0033
2511.00,0.0034
2510.75,0.0034
2510.50,0.0034
2510.25,0.0034
2510.00,0.0034
2509.75,0.0033
2509.50,0.0032
2509.25,0.0032
2509.00,0.0032
2508.75,0.0032
2508.50,0.0033
2508.25,0.0034
2508.00,0.0034
2507.75,0.0034
2507.50,0.0034
2507.25,0.0033
2507.00,0.0031
2506.75,0.0030
2506.50,0.0029
2506.25,0.0030
2506.00,0.0032
2505.75,0.0034
2505.50,0.0035
2505.25,0.0035
2505.00,0.0033
2504.75,0.0031
2504.50,0.0030
2504.25,0.0030
2504.00,0.0029
2503.75,0.0028
2503.50,0.0028
2503.25,0.0029
2503.00,0.0031
2502.75,0.0033
2502.50,0.0036
2502.25,0.0038
2502.00,0.0038
2501.75,0.0038
2501.50,0.0038
2501.25,0.0037
2501.00,0.0037
2500.75,0.0038
2500.50,0.0039
2500.25,0.0041
2500.00,0.0041
2499.75,0.0040
2499.50,0.0039
2499.25,0.0038
2499.00,0.0037
2498.75,0.0037
2498.50,0.0037
2498.25,0.0037
2498.00,0.0037
2497.75,0.0037
2497.50,0.0038
2497.25,0.0038
2497.00,0.0037
2496.75,0.0036
2496.50,0.0035
2496.25,0.0035
2496.00,0.0036
2495.75,0.0039
2495.50,0.0042
2495.25,0.0044
2495.00,0.0045
2494.75,0.0044
2494.50,0.0042
2494.25,0.0042
2494.00,0.0042
2493.75,0.0041
2493.50,0.0040
2493.25,0.0039
2493.00,0.0038
2492.75,0.0039
2492.50,0.0040
2492.25,0.0041
2492.00,0.0041
2491.75,0.0042
2491.50,0.0042
2491.25,0.0042
2491.00,0.0041
2490.75,0.0040
2490.50,0.0039
2490.25,0.0038
2490.00,0.0039
2489.75,0.0039
2489.50,0.0039
2489.25,0.0039
2489.00,0.0040
2488.75,0.0041
2488.50,0.0042
2488.25,0.0042
2488.00,0.0042
2487.75,0.0041
2487.50,0.0040
2487.25,0.0038
2487.00,0.0037
2486.75,0.0035
2486.50,0.0032
2486.25,0.0030
2486.00,0.0028
2485.75,0.0028
2485.50,0.0030
2485.25,0.0034
2485.00,0.0038
2484.75,0.0043
2484.50,0.0047
2484.25,0.0049
2484.00,0.0049
2483.75,0.0048
2483.50,0.0044
2483.25,0.0042
2483.00,0.0040
2482.75,0.0040
2482.50,0.0042
2482.25,0.0043
2482.00,0.0043
2481.75,0.0043
2481.50,0.0042
2481.25,0.0041
2481.00,0.0041
2480.75,0.0041
2480.50,0.0043
2480.25,0.0045
2480.00,0.0046
2479.75,0.0046
2479.50,0.0045
2479.25,0.0043
2479.00,0.0042
2478.75,0.0040
2478.50,0.0038
2478.25,0.0037
2478.00,0.0037
2477.75,0.0037
2477.50,0.0039
2477.25,0.0040
2477.00,0.0041
2476.75,0.0041
2476.50,0.0041
2476.25,0.0041
2476.00,0.0041
2475.75,0.0042
2475.50,0.0043
2475.25,0.0043
2475.00,0.0042
2474.75,0.0040
2474.50,0.0038
2474.25,0.0036
2474.00,0.0035
2473.75,0.0035
2473.50,0.0037
2473.25,0.0038
2473.00,0.0038
2472.75,0.0038
2472.50,0.0037
2472.25,0.0037
2472.00,0.0037
2471.75,0.0039
2471.50,0.0040
2471.25,0.0041
2471.00,0.0041
2470.75,0.0041
2470.50,0.0041
2470.25,0.0041
2470.00,0.0041
2469.75,0.0041
2469.50,0.0041
2469.25,0.0041
2469.00,0.0041
2468.75,0.0041
2468.50,0.0041
2468.25,0.0042
2468.00,0.0044
2467.75,0.0045
2467.50,0.0046
2467.25,0.0045
2467.00,0.0043
2466.75,0.0040
2466.50,0.0039
2466.25,0.0039
2466.00,0.0040
2465.75,0.0042
2465.50,0.0044
2465.25,0.0046
2465.00,0.0046
2464.75,0.0046
2464.50,0.0046
2464.25,0.0045
2464.00,0.0043
2463.75,0.0042
2463.50,0.0040
2463.25,0.0038
2463.00,0.0037
2462.75,0.0037
2462.50,0.0038
2462.25,0.0040
2462.00,0.0043
2461.75,0.0044
2461.50,0.0045
2461.25,0.0044
2461.00,0.0043
2460.75,0.0041
2460.50,0.0040
2460.25,0.0039
2460.00,0.0040
2459.75,0.0041
2459.50,0.0043
2459.25,0.0044
2459.00,0.0044
2458.75,0.0043
2458.50,0.0042
2458.25,0.0040
2458.00,0.0038
2457.75,0.0038
2457.50,0.0039
2457.25,0.0041
2457.00,0.0042
2456.75,0.0043
2456.50,0.0043
2456.25,0.0042
2456.00,0.0041
2455.75,0.0041
2455.50,0.0041
2455.25,0.0041
2455.00,0.0040
2454.75,0.0038
2454.50,0.0036
2454.25,0.0035
2454.00,0.0035
2453.75,0.0037
2453.50,0.0039
2453.25,0.0040
2453.00,0.0040
2452.75,0.0040
2452.50,0.0040
2452.25,0.0041
2452.00,0.0041
2451.75,0.0041
2451.50,0.0041
2451.25,0.0042
2451.00,0.0043
2450.75,0.0045
2450.50,0.0047
2450.25,0.0048
2450.00,0.0048
2449.75,0.0047
2449.50,0.0046
2449.25,0.0043
2449.00,0.0041
2448.75,0.0039
2448.50,0.0039
2448.25,0.0040
2448.00,0.0041
2447.75,0.0041
2447.50,0.0040
2447.25,0.0040
2447.00,0.0041
2446.75,0.0041
2446.50,0.0042
2446.25,0.0042
2446.00,0.0042
2445.75,0.0042
2445.50,0.0042
2445.25,0.0041
2445.00,0.0040
2444.75,0.0038
2444.50,0.0037
2444.25,0.0036
2444.00,0.0037
2443.75,0.0040
2443.50,0.0043
2443.25,0.0046
2443.00,0.0047
2442.75,0.0046
2442.50,0.0044
2442.25,0.0042
2442.00,0.0042
2441.75,0.0043
2441.50,0.0045
2441.25,0.0048
2441.00,0.0050
2440.75,0.0050
2440.50,0.0048
2440.25,0.0046
2440.00,0.0044
2439.75,0.0043
2439.50,0.0043
2439.25,0.0043
2439.00,0.0042
2438.75,0.0041
2438.50,0.0040
2438.25,0.0039
2438.00,0.0039
2437.75,0.0040
2437.50,0.0040
2437.25,0.0040
2437.00,0.0039
2436.75,0.0038
2436.50,0.0037
2436.25,0.0036
2436.00,0.0035
2435.75,0.0035
2435.50,0.0035
2435.25,0.0036
2435.00,0.0035
2434.75,0.0035
2434.50,0.0035
2434.25,0.0035
2434.00,0.0035
2433.75,0.0035
2433.50,0.0036
2433.25,0.0036
2433.00,0.0037
2432.75,0.0039
2432.50,0.0041
2432.25,0.0043
2432.00,0.0044
2431.75,0.0045
2431.50,0.0044
2431.25,0.0042
2431.00,0.0040
2430.75,0.0039
2430.50,0.0040
2430.25,0.0042
2430.00,0.0044
2429.75,0.0046
2429.50,0.0047
2429.25,0.0048
2429.00,0.0048
2428.75,0.0048
2428.50,0.0047
2428.25,0.0045
2428.00,0.0043
2427.75,0.0041
2427.50,0.0040
2427.25,0.0040
2427.00,0.0040
2426.75,0.0040
2426.50,0.0040
2426.25,0.0041
2426.00,0.0041
2425.75,0.0041
2425.50,0.0041
2425.25,0.0041
2425.00,0.0041
2424.75,0.0041
2424.50,0.0040
2424.25,0.0040
2424.00,0.0039
2423.75,0.0037
2423.50,0.0036
2423.25,0.0035
2423.00,0.0035
2422.75,0.0036
2422.50,0.0037
2422.25,0.0038
2422.00,0.0038
2421.75,0.0038
2421.50,0.0037
2421.25,0.0037
2421.00,0.0037
2420.75,0.0037
2420.50,0.0038
2420.25,0.0039
2420.00,0.0041
2419.75,0.0041
2419.50,0.0041
2419.25,0.0041
2419.00,0.0040
2418.75,0.0040
2418.50,0.0040
2418.25,0.0040
2418.00,0.0041
2417.75,0.0041
2417.50,0.0041
2417.25,0.0042
2417.00,0.0042
2416.75,0.0042
2416.50,0.0042
2416.25,0.0042
2416.00,0.0041
2415.75,0.0041
2415.50,0.0040
2415.25,0.0041
2415.00,0.0042
2414.75,0.0042
2414.50,0.0043
2414.25,0.0043
2414.00,0.0043
2413.75,0.0043
2413.50,0.0044
2413.25,0.0044
2413.00,0.0045
2412.75,0.0045
2412.50,0.0046
2412.25,0.0047
2412.00,0.0050
2411.75,0.0051
2411.50,0.0052
2411.25,0.0050
2411.00,0.0047
2410.75,0.0043
2410.50,0.0040
2410.25,0.0037
2410.00,0.0037
2409.75,0.0037
2409.50,0.0038
2409.25,0.0040
2409.00,0.0041
2408.75,0.0042
2408.50,0.0042
2408.25,0.0041
2408.00,0.0040
2407.75,0.0039
2407.50,0.0039
2407.25,0.0040
2407.00,0.0041
2406.75,0.0041
2406.50,0.0041
2406.25,0.0039
2406.00,0.0037
2405.75,0.0036
2405.50,0.0036
2405.25,0.0037
2405.00,0.0039
2404.75,0.0040
2404.50,0.0041
2404.25,0.0040
2404.00,0.0040
2403.75,0.0040
2403.50,0.0041
2403.25,0.0042
2403.00,0.0043
2402.75,0.0043
2402.50,0.0042
2402.25,0.0042
2402.00,0.0041
2401.75,0.0040
2401.50,0.0040
2401.25,0.0040
2401.00,0.0040
2400.75,0.0040
2400.50,0.0039
2400.25,0.0039
2400.00,0.0040
2399.75,0.0040
2399.50,0.0041
2399.25,0.0042
2399.00,0.0042
2398.75,0.0043
2398.50,0.0043
2398.25,0.0043
2398.00,0.0042
2397.75,0.0041
2397.50,0.0039
2397.25,0.0038
2397.00,0.0037
2396.75,0.0037
2396.50,0.0037
2396.25,0.0038
2396.00,0.0039
2395.75,0.0039
2395.50,0.0038
2395.25,0.0038
2395.00,0.0038
2394.75,0.0039
2394.50,0.0040
2394.25,0.0040
2394.00,0.0040
2393.75,0.0040
2393.50,0.0041
2393.25,0.0041
2393.00,0.0039
2392.75,0.0037
2392.50,0.0035
2392.25,0.0035
2392.00,0.0035
2391.75,0.0037
2391.50,0.0038
2391.25,0.0038
2391.00,0.0038
2390.75,0.0037
2390.50,0.0038
2390.25,0.0040
2390.00,0.0042
2389.75,0.0044
2389.50,0.0044
2389.25,0.0044
2389.00,0.0044
2388.75,0.0044
2388.50,0.0043
2388.25,0.0041
2388.00,0.0039
2387.75,0.0037
2387.50,0.0037
2387.25,0.0037
2387.00,0.0037
2386.75,0.0037
2386.50,0.0035
2386.25,0.0034
2386.00,0.0035
2385.75,0.0036
2385.50,0.0038
2385.25,0.0039
2385.00,0.0039
2384.75,0.0039
2384.50,0.0039
2384.25,0.0039
2384.00,0.0040
2383.75,0.0040
2383.50,0.0041
2383.25,0.0041
2383.00,0.0041
2382.75,0.0040
2382.50,0.0039
2382.25,0.0038
2382.00,0.0037
2381.75,0.0037
2381.50,0.0037
2381.25,0.0037
2381.00,0.0036
2380.75,0.0034
2380.50,0.0034
2380.25,0.0034
2380.00,0.0035
2379.75,0.0036
2379.50,0.0036
2379.25,0.0036
2379.00,0.0035
2378.75,0.0034
2378.50,0.0034
2378.25,0.0034
2378.00,0.0034
2377.75,0.0035
2377.50,0.0036
2377.25,0.0038
2377.00,0.0040
2376.75,0.0042
2376.50,0.0043
2376.25,0.0043
2376.00,0.0043
2375.75,0.0043
2375.50,0.0044
2375.25,0.0043
2375.00,0.0040
2374.75,0.0035
2374.50,0.0029
2374.25,0.0025
2374.00,0.0023
2373.75,0.0023
2373.50,0.0023
2373.25,0.0023
2373.00,0.0024
2372.75,0.0024
2372.50,0.0026
2372.25,0.0029
2372.00,0.0032
2371.75,0.0033
2371.50,0.0033
2371.25,0.0030
2371.00,0.0027
2370.75,0.0026
2370.50,0.0027
2370.25,0.0029
2370.00,0.0031
2369.75,0.0033
2369.50,0.0035
2369.25,0.0035
2369.00,0.0034
2368.75,0.0031
2368.50,0.0032
2368.25,0.0036
2368.00,0.0040
2367.75,0.0043
2367.50,0.0043
2367.25,0.0039
2367.00,0.0034
2366.75,0.0028
2366.50,0.0025
2366.25,0.0025
2366.00,0.0029
2365.75,0.0033
2365.50,0.0034
2365.25,0.0031
2365.00,0.0029
2364.75,0.0030
2364.50,0.0031
2364.25,0.0033
2364.00,0.0034
2363.75,0.0035
2363.50,0.0039
2363.25,0.0045
2363.00,0.0050
2362.75,0.0055
2362.50,0.0057
2362.25,0.0058
2362.00,0.0056
2361.75,0.0053
2361.50,0.0048
2361.25,0.0044
2361.00,0.0044
2360.75,0.0047
2360.50,0.0047
2360.25,0.0040
2360.00,0.0028
2359.75,0.0018
2359.50,0.0018
2359.25,0.0025
2359.00,0.0034
2358.75,0.0042
2358.50,0.0048
2358.25,0.0049
2358.00,0.0047
2357.75,0.0043
2357.50,0.0037
2357.25,0.0030
2357.00,0.0027
2356.75,0.0030
2356.50,0.0035
2356.25,0.0040
2356.00,0.0042
2355.75,0.0042
2355.50,0.0041
2355.25,0.0041
2355.00,0.0044
2354.75,0.0046
2354.50,0.0047
2354.25,0.0045
2354.00,0.0044
2353.75,0.0044
2353.50,0.0045
2353.25,0.0045
2353.00,0.0043
2352.75,0.0040
2352.50,0.0040
2352.25,0.0042
2352.00,0.0046
2351.75,0.0048
2351.50,0.0047
2351.25,0.0044
2351.00,0.0042
2350.75,0.0042
2350.50,0.0046
2350.25,0.0049
2350.00,0.0050
2349.75,0.0048
2349.50,0.0045
2349.25,0.0043
2349.00,0.0041
2348.75,0.0042
2348.50,0.0043
2348.25,0.0046
2348.00,0.0049
2347.75,0.0051
2347.50,0.0051
2347.25,0.0048
2347.00,0.0044
2346.75,0.0042
2346.50,0.0042
2346.25,0.0042
2346.00,0.0043
2345.75,0.0043
2345.50,0.0042
2345.25,0.0043
2345.00,0.0044
2344.75,0.0044
2344.50,0.0041
2344.25,0.0034
2344.00,0.0029
2343.75,0.0029
2343.50,0.0034
2343.25,0.0039
2343.00,0.0042
2342.75,0.0042
2342.50,0.0039
2342.25,0.0038
2342.00,0.0040
2341.75,0.0044
2341.50,0.0047
2341.25,0.0048
2341.00,0.0046
2340.75,0.0043
2340.50,0.0043
2340.25,0.0046
2340.00,0.0048
2339.75,0.0048
2339.50,0.0044
2339.25,0.0036
2339.00,0.0030
2338.75,0.0031
2338.50,0.0035
2338.25,0.0038
2338.00,0.0039
2337.75,0.0040
2337.50,0.0039
2337.25,0.0039
2337.00,0.0042
2336.75,0.0045
2336.50,0.0045
2336.25,0.0044
2336.00,0.0039
2335.75,0.0033
2335.50,0.0032
2335.25,0.0036
2335.00,0.0041
2334.75,0.0043
2334.50,0.0042
2334.25,0.0036
2334.00,0.0028
2333.75,0.0023
2333.50,0.0025
2333.25,0.0031
2333.00,0.0036
2332.75,0.0039
2332.50,0.0041
2332.25,0.0041
2332.00,0.0041
2331.75,0.0043
2331.50,0.0047
2331.25,0.0049
2331.00,0.0048
2330.75,0.0043
2330.50,0.0033
2330.25,0.0024
2330.00,0.0024
2329.75,0.0030
2329.50,0.0036
2329.25,0.0040
2329.00,0.0043
2328.75,0.0043
2328.50,0.0041
2328.25,0.0038
2328.00,0.0039
2327.75,0.0041
2327.50,0.0043
2327.25,0.0043
2327.00,0.0041
2326.75,0.0036
2326.50,0.0032
2326.25,0.0031
2326.00,0.0035
2325.75,0.0038
2325.50,0.0041
2325.25,0.0043
2325.00,0.0042
2324.75,0.0036
2324.50,0.0031
2324.25,0.0028
2324.00,0.0030
2323.75,0.0033
2323.50,0.0037
2323.25,0.0040
2323.00,0.0041
2322.75,0.0039
2322.50,0.0038
2322.25,0.0041
2322.00,0.0045
2321.75,0.0048
2321.50,0.0048
2321.25,0.0044
2321.00,0.0036
2320.75,0.0030
2320.50,0.0031
2320.25,0.0037
2320.00,0.0043
2319.75,0.0047
2319.50,0.0047
2319.25,0.0043
2319.00,0.0036
2318.75,0.0031
2318.50,0.0030
2318.25,0.0032
2318.00,0.0035
2317.75,0.0037
2317.50,0.0039
2317.25,0.0040
2317.00,0.0041
2316.75,0.0041
2316.50,0.0042
2316.25,0.0044
2316.00,0.0045
2315.75,0.0046
2315.50,0.0046
2315.25,0.0043
2315.00,0.0037
2314.75,0.0032
2314.50,0.0029
2314.25,0.0029
2314.00,0.0029
2313.75,0.0030
2313.50,0.0030
2313.25,0.0030
2313.00,0.0030
2312.75,0.0031
2312.50,0.0033
2312.25,0.0034
2312.00,0.0035
2311.75,0.0036
2311.50,0.0034
2311.25,0.0031
2311.00,0.0027
2310.75,0.0024
2310.50,0.0023
2310.25,0.0024
2310.00,0.0027
2309.75,0.0030
2309.50,0.0033
2309.25,0.0036
2309.00,0.0036
2308.75,0.0034
2308.50,0.0033
2308.25,0.0034
2308.00,0.0036
2307.75,0.0039
2307.50,0.0041
2307.25,0.0040
2307.00,0.0036
2306.75,0.0033
2306.50,0.0031
2306.25,0.0032
2306.00,0.0034
2305.75,0.0036
2305.50,0.0038
2305.25,0.0038
2305.00,0.0037
2304.75,0.0035
2304.50,0.0033
2304.25,0.0033
2304.00,0.0036
2303.75,0.0039
2303.50,0.0040
2303.25,0.0041
2303.00,0.0040
2302.75,0.0040
2302.50,0.0040
2302.25,0.0039
2302.00,0.0039
2301.75,0.0038
2301.50,0.0037
2301.25,0.0037
2301.00,0.0036
2300.75,0.0037
2300.50,0.0037
2300.25,0.0038
2300.00,0.0040
2299.75,0.0041
2299.50,0.0042
2299.25,0.0042
2299.00,0.0041
2298.75,0.0041
2298.50,0.0040
2298.25,0.0039
2298.00,0.0039
2297.75,0.0040
2297.50,0.0040
2297.25,0.0038
2297.00,0.0036
2296.75,0.0033
2296.50,0.0031
2296.25,0.0032
2296.00,0.0033
2295.75,0.0034
2295.50,0.0034
2295.25,0.0034
2295.00,0.0035
2294.75,0.0036
2294.50,0.0039
2294.25,0.0041
2294.00,0.0042
2293.75,0.0042
2293.50,0.0042
2293.25,0.0041
2293.00,0.0040
2292.75,0.0039
2292.50,0.0038
2292.25,0.0037
2292.00,0.0038
2291.75,0.0040
2291.50,0.0041
2291.25,0.0042
2291.00,0.0042
2290.75,0.0042
2290.50,0.0042
2290.25,0.0042
2290.00,0.0042
2289.75,0.0042
2289.50,0.0042
2289.25,0.0040
2289.00,0.0039
2288.75,0.0036
2288.50,0.0035
2288.25,0.0033
2288.00,0.0033
2287.75,0.0033
2287.50,0.0034
2287.25,0.0037
2287.00,0.0039
2286.75,0.0041
2286.50,0.0042
2286.25,0.0042
2286.00,0.0041
2285.75,0.0039
2285.50,0.0039
2285.25,0.0039
2285.00,0.0039
2284.75,0.0040
2284.50,0.0039
2284.25,0.0037
2284.00,0.0035
2283.75,0.0034
2283.50,0.0033
2283.25,0.0033
2283.00,0.0032
2282.75,0.0032
2282.50,0.0033
2282.25,0.0034
2282.00,0.0035
2281.75,0.0036
2281.50,0.0037
2281.25,0.0037
2281.00,0.0038
2280.75,0.0040
2280.50,0.0041
2280.25,0.0041
2280.00,0.0038
2279.75,0.0035
2279.50,0.0033
2279.25,0.0032
2279.00,0.0033
2278.75,0.0035
2278.50,0.0036
2278.25,0.0035
2278.00,0.0033
2277.75,0.0029
2277.50,0.0025
2277.25,0.0023
2277.00,0.0023
2276.75,0.0024
2276.50,0.0027
2276.25,0.0029
2276.00,0.0030
2275.75,0.0030
2275.50,0.0030
2275.25,0.0031
2275.00,0.0033
2274.75,0.0037
2274.50,0.0042
2274.25,0.0047
2274.00,0.0050
2273.75,0.0050
2273.50,0.0048
2273.25,0.0045
2273.00,0.0041
2272.75,0.0037
2272.50,0.0035
2272.25,0.0034
2272.00,0.0035
2271.75,0.0038
2271.50,0.0040
2271.25,0.0041
2271.00,0.0041
2270.75,0.0040
2270.50,0.0039
2270.25,0.0036
2270.00,0.0033
2269.75,0.0031
2269.50,0.0030
2269.25,0.0031
2269.00,0.0034
2268.75,0.0038
2268.50,0.0042
2268.25,0.0043
2268.00,0.0043
2267.75,0.0041
2267.50,0.0039
2267.25,0.0037
2267.00,0.0035
2266.75,0.0034
2266.50,0.0033
2266.25,0.0032
2266.00,0.0031
2265.75,0.0031
2265.50,0.0032
2265.25,0.0034
2265.00,0.0035
2264.75,0.0036
2264.50,0.0036
2264.25,0.0035
2264.00,0.0033
2263.75,0.0031
2263.50,0.0028
2263.25,0.0026
2263.00,0.0025
2262.75,0.0026
2262.50,0.0027
2262.25,0.0029
2262.00,0.0032
2261.75,0.0034
2261.50,0.0034
2261.25,0.0033
2261.00,0.0031
2260.75,0.0029
2260.50,0.0027
2260.25,0.0026
2260.00,0.0026
2259.75,0.0027
2259.50,0.0029
2259.25,0.0032
2259.00,0.0033
2258.75,0.0034
2258.50,0.0035
2258.25,0.0036
2258.00,0.0036
2257.75,0.0035
2257.50,0.0032
2257.25,0.0030
2257.00,0.0028
2256.75,0.0028
2256.50,0.0028
2256.25,0.0030
2256.00,0.0031
2255.75,0.0030
2255.50,0.0029
2255.25,0.0028
2255.00,0.0029
2254.75,0.0032
2254.50,0.0036
2254.25,0.0039
2254.00,0.0039
2253.75,0.0037
2253.50,0.0032
2253.25,0.0027
2253.00,0.0024
2252.75,0.0024
2252.50,0.0024
2252.25,0.0025
2252.00,0.0027
2251.75,0.0028
2251.50,0.0029
2251.25,0.0030
2251.00,0.0030
2250.75,0.0030
2250.50,0.0031
2250.25,0.0033
2250.00,0.0035
2249.75,0.0036
2249.50,0.0034
2249.25,0.0031
2249.00,0.0028
2248.75,0.0026
2248.50,0.0026
2248.25,0.0028
2248.00,0.0030
2247.75,0.0031
2247.50,0.0031
2247.25,0.0030
2247.00,0.0029
2246.75,0.0029
2246.50,0.0029
2246.25,0.0028
2246.00,0.0026
2245.75,0.0025
2245.50,0.0023
2245.25,0.0023
2245.00,0.0024
2244.75,0.0025
2244.50,0.0026
2244.25,0.0027
2244.00,0.0027
2243.75,0.0027
2243.50,0.0027
2243.25,0.0027
2243.00,0.0027
2242.75,0.0027
2242.50,0.0026
2242.25,0.0026
2242.00,0.0027
2241.75,0.0029
2241.50,0.0031
2241.25,0.0032
2241.00,0.0032
2240.75,0.0032
2240.50,0.0031
2240.25,0.0030
2240.00,0.0028
2239.75,0.0026
2239.50,0.0023
2239.25,0.0021
2239.00,0.0020
2238.75,0.0022
2238.50,0.0025
2238.25,0.0028
2238.00,0.0031
2237.75,0.0032
2237.50,0.0033
2237.25,0.0034
2237.00,0.0033
2236.75,0.0032
2236.50,0.0030
2236.25,0.0028
2236.00,0.0028
2235.75,0.0027
2235.50,0.0025
2235.25,0.0023
2235.00,0.0020
2234.75,0.0018
2234.50,0.0018
2234.25,0.0019
2234.00,0.0021
2233.75,0.0023
2233.50,0.0027
2233.25,0.0031
2233.00,0.0035
2232.75,0.0036
2232.50,0.0034
2232.25,0.0030
2232.00,0.0027
2231.75,0.0026
2231.50,0.0027
2231.25,0.0028
2231.00,0.0028
2230.75,0.0028
2230.50,0.0029
2230.25,0.0032
2230.00,0.0034
2229.75,0.0034
2229.50,0.0032
2229.25,0.0029
2229.00,0.0027
2228.75,0.0026
2228.50,0.0026
2228.25,0.0028
2228.00,0.0029
2227.75,0.0030
2227.50,0.0030
2227.25,0.0028
2227.00,0.0025
2226.75,0.0023
2226.50,0.0023
2226.25,0.0023
2226.00,0.0023
2225.75,0.0023
2225.50,0.0024
2225.25,0.0027
2225.00,0.0029
2224.75,0.0031
2224.50,0.0032
2224.25,0.0031
2224.00,0.0030
2223.75,0.0031
2223.50,0.0033
2223.25,0.0036
2223.00,0.0038
2222.75,0.0038
2222.50,0.0036
2222.25,0.0034
2222.00,0.0032
2221.75,0.0030
2221.50,0.0028
2221.25,0.0026
2221.00,0.0024
2220.75,0.0022
2220.50,0.0019
2220.25,0.0017
2220.00,0.0016
2219.75,0.0017
2219.50,0.0020
2219.25,0.0024
2219.00,0.0026
2218.75,0.0026
2218.50,0.0023
2218.25,0.0018
2218.00,0.0015
2217.75,0.0015
2217.50,0.0016
2217.25,0.0017
2217.00,0.0017
2216.75,0.0017
2216.50,0.0018
2216.25,0.0019
2216.00,0.0022
2215.75,0.0025
2215.50,0.0028
2215.25,0.0032
2215.00,0.0035
2214.75,0.0037
2214.50,0.0037
2214.25,0.0035
2214.00,0.0032
2213.75,0.0028
2213.50,0.0023
2213.25,0.0019
2213.00,0.0015
2212.75,0.0012
2212.50,0.0011
2212.25,0.0013
2212.00,0.0017
2211.75,0.0020
2211.50,0.0022
2211.25,0.0022
2211.00,0.0021
2210.75,0.0021
2210.50,0.0022
2210.25,0.0024
2210.00,0.0025
2209.75,0.0024
2209.50,0.0022
2209.25,0.0020
2209.00,0.0019
2208.75,0.0020
2208.50,0.0021
2208.25,0.0021
2208.00,0.0021
2207.75,0.0021
2207.50,0.0022
2207.25,0.0022
2207.00,0.0022
2206.75,0.0020
2206.50,0.0019
2206.25,0.0018
2206.00,0.0017
2205.75,0.0016
2205.50,0.0015
2205.25,0.0015
2205.00,0.0018
2204.75,0.0023
2204.50,0.0027
2204.25,0.0028
2204.00,0.0026
2203.75,0.0022
2203.50,0.0018
2203.25,0.0016
2203.00,0.0016
2202.75,0.0017
2202.50,0.0020
2202.25,0.0023
2202.00,0.0026
2201.75,0.0029
2201.50,0.0030
2201.25,0.0030
2201.00,0.0028
2200.75,0.0025
2200.50,0.0023
2200.25,0.0022
2200.00,0.0020
2199.75,0.0019
2199.50,0.0018
2199.25,0.0017
2199.00,0.0017
2198.75,0.0018
2198.50,0.0018
2198.25,0.0017
2198.00,0.0015
2197.75,0.0015
2197.50,0.0016
2197.25,0.0019
2197.00,0.0021
2196.75,0.0022
2196.50,0.0022
2196.25,0.0022
2196.00,0.0021
2195.75,0.0020
2195.50,0.0021
2195.25,0.0022
2195.00,0.0024
2194.75,0.0024
2194.50,0.0023
2194.25,0.0020
2194.00,0.0016
2193.75,0.0011
2193.50,0.0007
2193.25,0.0005
2193.00,0.0003
2192.75,0.0004
2192.50,0.0006
2192.25,0.0008
2192.00,0.0011
2191.75,0.0015
2191.50,0.0019
2191.25,0.0022
2191.00,0.0025
2190.75,0.0026
2190.50,0.0025
2190.25,0.0022
2190.00,0.0020
2189.75,0.0020
2189.50,0.0021
2189.25,0.0024
2189.00,0.0027
2188.75,0.0029
2188.50,0.0030
2188.25,0.0030
2188.00,0.0030
2187.75,0.0028
2187.50,0.0026
2187.25,0.0024
2187.00,0.0020
2186.75,0.0016
2186.50,0.0011
2186.25,0.0007
2186.00,0.0004
2185.75,0.0002
2185.50,0.0002
2185.25,0.0001
2185.00,-0.0002
2184.75,-0.0004
2184.50,-0.0004
2184.25,-0.0001
2184.00,0.0005
2183.75,0.0012
2183.50,0.0018
2183.25,0.0022
2183.00,0.0025
2182.75,0.0025
2182.50,0.0024
2182.25,0.0020
2182.00,0.0013
2181.75,0.0006
2181.50,0.0001
2181.25,-0.0001
2181.00,0.0001
2180.75,0.0006
2180.50,0.0012
2180.25,0.0014
2180.00,0.0014
2179.75,0.0013
2179.50,0.0012
2179.25,0.0012
2179.00,0.0013
2178.75,0.0013
2178.50,0.0012
2178.25,0.0010
2178.00,0.0010
2177.75,0.0012
2177.50,0.0015
2177.25,0.0018
2177.00,0.0021
2176.75,0.0023
2176.50,0.0024
2176.25,0.0023
2176.00,0.0022
2175.75,0.0019
2175.50,0.0016
2175.25,0.0015
2175.00,0.0014
2174.75,0.0015
2174.50,0.0016
2174.25,0.0016
2174.00,0.0014
2173.75,0.0011
2173.50,0.0009
2173.25,0.0009
2173.00,0.0011
2172.75,0.0015
2172.50,0.0019
2172.25,0.0023
2172.00,0.0025
2171.75,0.0024
2171.50,0.0021
2171.25,0.0015
2171.00,0.0011
2170.75,0.0009
2170.50,0.0011
2170.25,0.0013
2170.00,0.0015
2169.75,0.0017
2169.50,0.0019
2169.25,0.0022
2169.00,0.0024
2168.75,0.0024
2168.50,0.0021
2168.25,0.0017
2168.00,0.0013
2167.75,0.0009
2167.50,0.0009
2167.25,0.0012
2167.00,0.0017
2166.75,0.0020
2166.50,0.0020
2166.25,0.0018
2166.00,0.0015
2165.75,0.0015
2165.50,0.0016
2165.25,0.0017
2165.00,0.0017
2164.75,0.0019
2164.50,0.0024
2164.25,0.0029
2164.00,0.0033
2163.75,0.0031
2163.50,0.0025
2163.25,0.0017
2163.00,0.0011
2162.75,0.0008
2162.50,0.0010
2162.25,0.0015
2162.00,0.0021
2161.75,0.0025
2161.50,0.0026
2161.25,0.0022
2161.00,0.0014
2160.75,0.0004
2160.50,-0.0003
2160.25,-0.0005
2160.00,-0.0003
2159.75,0.0001
2159.50,0.0006
2159.25,0.0011
2159.00,0.0016
2158.75,0.0020
2158.50,0.0021
2158.25,0.0019
2158.00,0.0013
2157.75,0.0005
2157.50,-0.0003
2157.25,-0.0006
2157.00,-0.0005
2156.75,-0.0001
2156.50,0.0005
2156.25,0.0008
2156.00,0.0009
2155.75,0.0009
2155.50,0.0008
2155.25,0.0007
2155.00,0.0006
2154.75,0.0006
2154.50,0.0007
2154.25,0.0011
2154.00,0.0017
2153.75,0.0023
2153.50,0.0027
2153.25,0.0028
2153.00,0.0027
2152.75,0.0025
2152.50,0.0023
2152.25,0.0020
2152.00,0.0015
2151.75,0.0011
2151.50,0.0008
2151.25,0.0007
2151.00,0.0008
2150.75,0.0011
2150.50,0.0014
2150.25,0.0017
2150.00,0.0018
2149.75,0.0019
2149.50,0.0020
2149.25,0.0021
2149.00,0.0022
2148.75,0.0023
2148.50,0.0024
2148.25,0.0023
2148.00,0.0021
2147.75,0.0019
2147.50,0.0016
2147.25,0.0013
2147.00,0.0011
2146.75,0.0009
2146.50,0.0009
2146.25,0.0010
2146.00,0.0013
2145.75,0.0017
2145.50,0.0020
2145.25,0.0021
2145.00,0.0020
2144.75,0.0016
2144.50,0.0011
2144.25,0.0008
2144.00,0.0009
2143.75,0.0013
2143.50,0.0020
2143.25,0.0028
2143.00,0.0033
2142.75,0.0035
2142.50,0.0032
2142.25,0.0025
2142.00,0.0017
2141.75,0.0010
2141.50,0.0006
2141.25,0.0005
2141.00,0.0005
2140.75,0.0006
2140.50,0.0009
2140.25,0.0012
2140.00,0.0015
2139.75,0.0017
2139.50,0.0018
2139.25,0.0017
2139.00,0.0015
2138.75,0.0012
2138.50,0.0010
2138.25,0.0010
2138.00,0.0013
2137.75,0.0017
2137.50,0.0020
2137.25,0.0021
2137.00,0.0020
2136.75,0.0020
2136.50,0.0020
2136.25,0.0021
2136.00,0.0021
2135.75,0.0020
2135.50,0.0019
2135.25,0.0019
2135.00,0.0020
2134.75,0.0022
2134.50,0.0024
2134.25,0.0025
2134.00,0.0025
2133.75,0.0025
2133.50,0.0026
2133.25,0.0028
2133.00,0.0030
2132.75,0.0032
2132.50,0.0032
2132.25,0.0029
2132.00,0.0025
2131.75,0.0021
2131.50,0.0017
2131.25,0.0014
2131.00,0.0012
2130.75,0.0012
2130.50,0.0011
2130.25,0.0009
2130.00,0.0009
2129.75,0.0009
2129.50,0.0012
2129.25,0.0018
2129.00,0.0025
2128.75,0.0031
2128.50,0.0035
2128.25,0.0035
2128.00,0.0032
2127.75,0.0028
2127.50,0.0024
2127.25,0.0022
2127.00,0.0022
2126.75,0.0023
2126.50,0.0024
2126.25,0.0024
2126.00,0.0025
2125.75,0.0027
2125.50,0.0031
2125.25,0.0033
2125.00,0.0033
2124.75,0.0031
2124.50,0.0029
2124.25,0.0026
2124.00,0.0024
2123.75,0.0023
2123.50,0.0022
2123.25,0.0023
2123.00,0.0025
2122.75,0.0028
2122.50,0.0031
2122.25,0.0034
2122.00,0.0035
2121.75,0.0036
2121.50,0.0037
2121.25,0.0038
2121.00,0.0038
2120.75,0.0036
2120.50,0.0032
2120.25,0.0028
2120.00,0.0024
2119.75,0.0022
2119.50,0.0023
2119.25,0.0025
2119.00,0.0026
2118.75,0.0026
2118.50,0.0025
2118.25,0.0025
2118.00,0.0024
2117.75,0.0023
2117.50,0.0022
2117.25,0.0020
2117.00,0.0019
2116.75,0.0018
2116.50,0.0019
2116.25,0.0021
2116.00,0.0023
2115.75,0.0024
2115.50,0.0024
2115.25,0.0024
2115.00,0.0024
2114.75,0.0024
2114.50,0.0026
2114.25,0.0029
2114.00,0.0030
2113.75,0.0029
2113.50,0.0026
2113.25,0.0023
2113.00,0.0020
2112.75,0.0018
2112.50,0.0015
2112.25,0.0012
2112.00,0.0010
2111.75,0.0008
2111.50,0.0009
2111.25,0.0010
2111.00,0.0013
2110.75,0.0016
2110.50,0.0018
2110.25,0.0020
2110.00,0.0022
2109.75,0.0025
2109.50,0.0026
2109.25,0.0026
2109.00,0.0024
2108.75,0.0020
2108.50,0.0018
2108.25,0.0018
2108.00,0.0021
2107.75,0.0024
2107.50,0.0027
2107.25,0.0027
2107.00,0.0027
2106.75,0.0027
2106.50,0.0028
2106.25,0.0030
2106.00,0.0032
2105.75,0.0033
2105.50,0.0033
2105.25,0.0033
2105.00,0.0033
2104.75,0.0034
2104.50,0.0033
2104.25,0.0031
2104.00,0.0029
2103.75,0.0026
2103.50,0.0025
2103.25,0.0024
2103.00,0.0024
2102.75,0.0025
2102.50,0.0026
2102.25,0.0025
2102.00,0.0024
2101.75,0.0023
2101.50,0.0025
2101.25,0.0028
2101.00,0.0031
2100.75,0.0031
2100.50,0.0029
2100.25,0.0026
2100.00,0.0024
2099.75,0.0022
2099.50,0.0021
2099.25,0.0020
2099.00,0.0020
2098.75,0.0022
2098.50,0.0024
2098.25,0.0026
2098.00,0.0027
2097.75,0.0027
2097.50,0.0025
2097.25,0.0023
2097.00,0.0022
2096.75,0.0023
2096.50,0.0024
2096.25,0.0025
2096.00,0.0024
2095.75,0.0023
2095.50,0.0023
2095.25,0.0023
2095.00,0.0024
2094.75,0.0025
2094.50,0.0026
2094.25,0.0027
2094.00,0.0028
2093.75,0.0031
2093.50,0.0033
2093.25,0.0033
2093.00,0.0033
2092.75,0.0031
2092.50,0.0029
2092.25,0.0027
2092.00,0.0027
2091.75,0.0026
2091.50,0.0026
2091.25,0.0026
2091.00,0.0026
2090.75,0.0028
2090.50,0.0032
2090.25,0.0035
2090.00,0.0035
2089.75,0.0030
2089.50,0.0023
2089.25,0.0017
2089.00,0.0015
2088.75,0.0017
2088.50,0.0022
2088.25,0.0027
2088.00,0.0030
2087.75,0.0031
2087.50,0.0030
2087.25,0.0028
2087.00,0.0028
2086.75,0.0028
2086.50,0.0028
2086.25,0.0028
2086.00,0.0027
2085.75,0.0025
2085.50,0.0023
2085.25,0.0022
2085.00,0.0020
2084.75,0.0018
2084.50,0.0016
2084.25,0.0014
2084.00,0.0013
2083.75,0.0014
2083.50,0.0016
2083.25,0.0019
2083.00,0.0021
2082.75,0.0023
2082.50,0.0025
2082.25,0.0026
2082.00,0.0028
2081.75,0.0030
2081.50,0.0032
2081.25,0.0033
2081.00,0.0032
2080.75,0.0029
2080.50,0.0025
2080.25,0.0022
2080.00,0.0019
2079.75,0.0017
2079.50,0.0018
2079.25,0.0020
2079.00,0.0024
2078.75,0.0028
2078.50,0.0031
2078.25,0.0032
2078.00,0.0032
2077.75,0.0032
2077.50,0.0032
2077.25,0.0032
2077.00,0.0031
2076.75,0.0029
2076.50,0.0025
2076.25,0.0020
2076.00,0.0016
2075.75,0.0012
2075.50,0.0009
2075.25,0.0008
2075.00,0.0008
2074.75,0.0008
2074.50,0.0011
2074.25,0.0015
2074.00,0.0020
2073.75,0.0025
2073.50,0.0027
2073.25,0.0027
2073.00,0.0026
2072.75,0.0026
2072.50,0.0026
2072.25,0.0026
2072.00,0.0025
2071.75,0.0023
2071.50,0.0022
2071.25,0.0022
2071.00,0.0022
2070.75,0.0022
2070.50,0.0022
2070.25,0.0023
2070.00,0.0024
2069.75,0.0025
2069.50,0.0025
2069.25,0.0024
2069.00,0.0023
2068.75,0.0022
2068.50,0.0022
2068.25,0.0021
2068.00,0.0020
2067.75,0.0019
2067.50,0.0018
2067.25,0.0019
2067.00,0.0021
2066.75,0.0024
2066.50,0.0026
2066.25,0.0028
2066.00,0.0029
2065.75,0.0028
2065.50,0.0028
2065.25,0.0029
2065.00,0.0029
2064.75,0.0028
2064.50,0.0024
2064.25,0.0020
2064.00,0.0018
2063.75,0.0019
2063.50,0.0021
2063.25,0.0022
2063.00,0.0021
2062.75,0.0017
2062.50,0.0012
2062.25,0.0008
2062.00,0.0006
2061.75,0.0007
2061.50,0.0009
2061.25,0.0014
2061.00,0.0021
2060.75,0.0026
2060.50,0.0030
2060.25,0.0031
2060.00,0.0030
2059.75,0.0028
2059.50,0.0026
2059.25,0.0024
2059.00,0.0024
2058.75,0.0024
2058.50,0.0026
2058.25,0.0027
2058.00,0.0028
2057.75,0.0028
2057.50,0.0025
2057.25,0.0022
2057.00,0.0019
2056.75,0.0017
2056.50,0.0017
2056.25,0.0020
2056.00,0.0023
2055.75,0.0025
2055.50,0.0024
2055.25,0.0021
2055.00,0.0018
2054.75,0.0016
2054.50,0.0016
2054.25,0.0016
2054.00,0.0016
2053.75,0.0015
2053.50,0.0016
2053.25,0.0019
2053.00,0.0022
2052.75,0.0023
2052.50,0.0020
2052.25,0.0017
2052.00,0.0015
2051.75,0.0017
2051.50,0.0022
2051.25,0.0029
2051.00,0.0034
2050.75,0.0036
2050.50,0.0035
2050.25,0.0031
2050.00,0.0025
2049.75,0.0018
2049.50,0.0012
2049.25,0.0009
2049.00,0.0009
2048.75,0.0012
2048.50,0.0017
2048.25,0.0023
2048.00,0.0028
2047.75,0.0029
2047.50,0.0026
2047.25,0.0018
2047.00,0.0011
2046.75,0.0007
2046.50,0.0009
2046.25,0.0014
2046.00,0.0018
2045.75,0.0019
2045.50,0.0018
2045.25,0.0017
2045.00,0.0018
2044.75,0.0019
2044.50,0.0021
2044.25,0.0022
2044.00,0.0022
2043.75,0.0022
2043.50,0.0020
2043.25,0.0017
2043.00,0.0012
2042.75,0.0009
2042.50,0.0007
2042.25,0.0007
2042.00,0.0008
2041.75,0.0009
2041.50,0.0010
2041.25,0.0011
2041.00,0.0011
2040.75,0.0011
2040.50,0.0009
2040.25,0.0006
2040.00,0.0004
2039.75,0.0003
2039.50,0.0005
2039.25,0.0008
2039.00,0.0010
2038.75,0.0011
2038.50,0.0011
2038.25,0.0012
2038.00,0.0015
2037.75,0.0020
2037.50,0.0025
2037.25,0.0029
2037.00,0.0030
2036.75,0.0027
2036.50,0.0023
2036.25,0.0018
2036.00,0.0016
2035.75,0.0016
2035.50,0.0018
2035.25,0.0019
2035.00,0.0017
2034.75,0.0013
2034.50,0.0009
2034.25,0.0007
2034.00,0.0008
2033.75,0.0011
2033.50,0.0014
2033.25,0.0016
2033.00,0.0016
2032.75,0.0016
2032.50,0.0013
2032.25,0.0010
2032.00,0.0006
2031.75,0.0003
2031.50,0.0002
2031.25,0.0003
2031.00,0.0005
2030.75,0.0006
2030.50,0.0005
2030.25,0.0003
2030.00,0.0003
2029.75,0.0005
2029.50,0.0008
2029.25,0.0011
2029.00,0.0011
2028.75,0.0010
2028.50,0.0009
2028.25,0.0007
2028.00,0.0005
2027.75,0.0004
2027.50,0.0005
2027.25,0.0009
2027.00,0.0014
2026.75,0.0017
2026.50,0.0019
2026.25,0.0019
2026.00,0.0018
2025.75,0.0015
2025.50,0.0011
2025.25,0.0005
2025.00,-0.0001
2024.75,-0.0004
2024.50,-0.0003
2024.25,0.0002
2024.00,0.0006
2023.75,0.0010
2023.50,0.0013
2023.25,0.0015
2023.00,0.0016
2022.75,0.0015
2022.50,0.0013
2022.25,0.0011
2022.00,0.0010
2021.75,0.0010
2021.50,0.0010
2021.25,0.0010
2021.00,0.0010
2020.75,0.0011
2020.50,0.0013
2020.25,0.0015
2020.00,0.0016
2019.75,0.0017
2019.50,0.0018
2019.25,0.0019
2019.00,0.0021
2018.75,0.0023
2018.50,0.0024
2018.25,0.0023
2018.00,0.0022
2017.75,0.0023
2017.50,0.0026
2017.25,0.0029
2017.00,0.0031
2016.75,0.0029
2016.50,0.0025
2016.25,0.0020
2016.00,0.0016
2015.75,0.0012
2015.50,0.0009
2015.25,0.0007
2015.00,0.0006
2014.75,0.0007
2014.50,0.0009
2014.25,0.0011
2014.00,0.0014
2013.75,0.0018
2013.50,0.0021
2013.25,0.0024
2013.00,0.0025
2012.75,0.0027
2012.50,0.0029
2012.25,0.0033
2012.00,0.0036
2011.75,0.0036
2011.50,0.0031
2011.25,0.0025
2011.00,0.0018
2010.75,0.0013
2010.50,0.0010
2010.25,0.0009
2010.00,0.0009
2009.75,0.0010
2009.50,0.0013
2009.25,0.0018
2009.00,0.0025
2008.75,0.0030
2008.50,0.0033
2008.25,0.0032
2008.00,0.0030
2007.75,0.0029
2007.50,0.0028
2007.25,0.0025
2007.00,0.0021
2006.75,0.0017
2006.50,0.0017
2006.25,0.0020
2006.00,0.0024
2005.75,0.0024
2005.50,0.0021
2005.25,0.0016
2005.00,0.0013
2004.75,0.0012
2004.50,0.0014
2004.25,0.0017
2004.00,0.0020
2003.75,0.0023
2003.50,0.0025
2003.25,0.0027
2003.00,0.0026
2002.75,0.0024
2002.50,0.0019
2002.25,0.0014
2002.00,0.0010
2001.75,0.0008
2001.50,0.0009
2001.25,0.0012
2001.00,0.0016
2000.75,0.0019
2000.50,0.0021
2000.25,0.0021
2000.00,0.0022
1999.75,0.0024
1999.50,0.0026
1999.25,0.0029
1999.00,0.0033
1998.75,0.0035
1998.50,0.0035
1998.25,0.0033
1998.00,0.0028
1997.75,0.0022
1997.50,0.0017
1997.25,0.0015
1997.00,0.0016
1996.75,0.0021
1996.50,0.0025
1996.25,0.0029
1996.00,0.0030
1995.75,0.0029
1995.50,0.0029
1995.25,0.0030
1995.00,0.0032
1994.75,0.0032
1994.50,0.0030
1994.25,0.0026
1994.00,0.0022
1993.75,0.0021
1993.50,0.0024
1993.25,0.0029
1993.00,0.0035
1992.75,0.0039
1992.50,0.0038
1992.25,0.0033
1992.00,0.0026
1991.75,0.0022
1991.50,0.0023
1991.25,0.0027
1991.00,0.0033
1990.75,0.0036
1990.50,0.0037
1990.25,0.0036
1990.00,0.0036
1989.75,0.0036
1989.50,0.0037
1989.25,0.0036
1989.00,0.0035
1988.75,0.0033
1988.50,0.0031
1988.25,0.0030
1988.00,0.0029
1987.75,0.0029
1987.50,0.0030
1987.25,0.0032
1987.00,0.0034
1986.75,0.0036
1986.50,0.0038
1986.25,0.0041
1986.00,0.0043
1985.75,0.0044
1985.50,0.0042
1985.25,0.0039
1985.00,0.0035
1984.75,0.0031
1984.50,0.0026
1984.25,0.0023
1984.00,0.0022
1983.75,0.0023
1983.50,0.0026
1983.25,0.0027
1983.00,0.0026
1982.75,0.0023
1982.50,0.0021
1982.25,0.0020
1982.00,0.0021
1981.75,0.0023
1981.50,0.0026
1981.25,0.0029
1981.00,0.0033
1980.75,0.0034
1980.50,0.0034
1980.25,0.0031
1980.00,0.0027
1979.75,0.0026
1979.50,0.0027
1979.25,0.0031
1979.00,0.0035
1978.75,0.0036
1978.50,0.0034
1978.25,0.0031
1978.00,0.0028
1977.75,0.0028
1977.50,0.0031
1977.25,0.0033
1977.00,0.0035
1976.75,0.0036
1976.50,0.0036
1976.25,0.0037
1976.00,0.0036
1975.75,0.0034
1975.50,0.0030
1975.25,0.0028
1975.00,0.0030
1974.75,0.0035
1974.50,0.0042
1974.25,0.0045
1974.00,0.0044
1973.75,0.0039
1973.50,0.0034
1973.25,0.0030
1973.00,0.0028
1972.75,0.0025
1972.50,0.0023
1972.25,0.0022
1972.00,0.0024
1971.75,0.0028
1971.50,0.0033
1971.25,0.0038
1971.00,0.0041
1970.75,0.0039
1970.50,0.0034
1970.25,0.0029
1970.00,0.0027
1969.75,0.0028
1969.50,0.0028
1969.25,0.0027
1969.00,0.0025
1968.75,0.0024
1968.50,0.0028
1968.25,0.0033
1968.00,0.0035
1967.75,0.0034
1967.50,0.0032
1967.25,0.0031
1967.00,0.0033
1966.75,0.0038
1966.50,0.0043
1966.25,0.0044
1966.00,0.0042
1965.75,0.0038
1965.50,0.0036
1965.25,0.0036
1965.00,0.0036
1964.75,0.0035
1964.50,0.0033
1964.25,0.0030
1964.00,0.0027
1963.75,0.0026
1963.50,0.0027
1963.25,0.0031
1963.00,0.0035
1962.75,0.0038
1962.50,0.0039
1962.25,0.0039
1962.00,0.0039
1961.75,0.0038
1961.50,0.0037
1961.25,0.0036
1961.00,0.0033
1960.75,0.0032
1960.50,0.0032
1960.25,0.0035
1960.00,0.0039
1959.75,0.0041
1959.50,0.0040
1959.25,0.0038
1959.00,0.0037
1958.75,0.0038
1958.50,0.0041
1958.25,0.0042
1958.00,0.0040
1957.75,0.0036
1957.50,0.0033
1957.25,0.0032
1957.00,0.0034
1956.75,0.0036
1956.50,0.0037
1956.25,0.0037
1956.00,0.0038
1955.75,0.0039
1955.50,0.0040
1955.25,0.0041
1955.00,0.0040
1954.75,0.0040
1954.50,0.0040
1954.25,0.0040
1954.00,0.0039
1953.75,0.0037
1953.50,0.0036
1953.25,0.0037
1953.00,0.0040
1952.75,0.0043
1952.50,0.0044
1952.25,0.0040
1952.00,0.0034
1951.75,0.0029
1951.50,0.0027
1951.25,0.0027
1951.00,0.0030
1950.75,0.0032
1950.50,0.0034
1950.25,0.0036
1950.00,0.0038
1949.75,0.0039
1949.50,0.0039
1949.25,0.0039
1949.00,0.0039
1948.75,0.0037
1948.50,0.0036
1948.25,0.0034
1948.00,0.0034
1947.75,0.0036
1947.50,0.0039
1947.25,0.0042
1947.00,0.0044
1946.75,0.0045
1946.50,0.0045
1946.25,0.0046
1946.00,0.0049
1945.75,0.0052
1945.50,0.0054
1945.25,0.0055
1945.00,0.0053
1944.75,0.0050
1944.50,0.0046
1944.25,0.0042
1944.00,0.0039
1943.75,0.0038
1943.50,0.0037
1943.25,0.0036
1943.00,0.0037
1942.75,0.0037
1942.50,0.0037
1942.25,0.0036
1942.00,0.0035
1941.75,0.0036
1941.50,0.0037
1941.25,0.0038
1941.00,0.0039
1940.75,0.0041
1940.50,0.0043
1940.25,0.0046
1940.00,0.0049
1939.75,0.0050
1939.50,0.0049
1939.25,0.0047
1939.00,0.0045
1938.75,0.0044
1938.50,0.0045
1938.25,0.0048
1938.00,0.0050
1937.75,0.0050
1937.50,0.0046
1937.25,0.0040
1937.00,0.0034
1936.75,0.0030
1936.50,0.0029
1936.25,0.0030
1936.00,0.0032
1935.75,0.0033
1935.50,0.0033
1935.25,0.0033
1935.00,0.0033
1934.75,0.0036
1934.50,0.0039
1934.25,0.0043
1934.00,0.0045
1933.75,0.0045
1933.50,0.0044
1933.25,0.0042
1933.00,0.0039
1932.75,0.0038
1932.50,0.0038
1932.25,0.0039
1932.00,0.0041
1931.75,0.0041
1931.50,0.0039
1931.25,0.0036
1931.00,0.0033
1930.75,0.0033
1930.50,0.0034
1930.25,0.0036
1930.00,0.0039
1929.75,0.0042
1929.50,0.0045
1929.25,0.0047
1929.00,0.0049
1928.75,0.0049
1928.50,0.0048
1928.25,0.0047
1928.00,0.0045
1927.75,0.0044
1927.50,0.0044
1927.25,0.0045
1927.00,0.0048
1926.75,0.0050
1926.50,0.0051
1926.25,0.0049
1926.00,0.0046
1925.75,0.0042
1925.50,0.0040
1925.25,0.0040
1925.00,0.0042
1924.75,0.0045
1924.50,0.0048
1924.25,0.0050
1924.00,0.0051
1923.75,0.0051
1923.50,0.0050
1923.25,0.0048
1923.00,0.0044
1922.75,0.0040
1922.50,0.0038
1922.25,0.0037
1922.00,0.0038
1921.75,0.0040
1921.50,0.0042
1921.25,0.0043
1921.00,0.0044
1920.75,0.0045
1920.50,0.0047
1920.25,0.0048
1920.00,0.0048
1919.75,0.0049
1919.50,0.0049
1919.25,0.0049
1919.00,0.0048
1918.75,0.0047
1918.50,0.0046
1918.25,0.0045
1918.00,0.0046
1917.75,0.0046
1917.50,0.0047
1917.25,0.0046
1917.00,0.0045
1916.75,0.0044
1916.50,0.0041
1916.25,0.0039
1916.00,0.0038
1915.75,0.0038
1915.50,0.0041
1915.25,0.0044
1915.00,0.0047
1914.75,0.0049
1914.50,0.0049
1914.25,0.0049
1914.00,0.0048
1913.75,0.0048
1913.50,0.0049
1913.25,0.0050
1913.00,0.0051
1912.75,0.0050
1912.50,0.0048
1912.25,0.0045
1912.00,0.0044
1911.75,0.0043
1911.50,0.0043
1911.25,0.0042
1911.00,0.0043
1910.75,0.0044
1910.50,0.0046
1910.25,0.0046
1910.00,0.0045
1909.75,0.0041
1909.50,0.0037
1909.25,0.0035
1909.00,0.0035
1908.75,0.0037
1908.50,0.0040
1908.25,0.0042
1908.00,0.0044
1907.75,0.0046
1907.50,0.0046
1907.25,0.0045
1907.00,0.0044
1906.75,0.0042
1906.50,0.0041
1906.25,0.0040
1906.00,0.0039
1905.75,0.0040
1905.50,0.0041
1905.25,0.0043
1905.00,0.0045
1904.75,0.0048
1904.50,0.0049
1904.25,0.0050
1904.00,0.0049
1903.75,0.0048
1903.50,0.0046
1903.25,0.0045
1903.00,0.0044
1902.75,0.0043
1902.50,0.0041
1902.25,0.0040
1902.00,0.0038
1901.75,0.0037
1901.50,0.0038
1901.25,0.0039
1901.00,0.0040
1900.75,0.0041
1900.50,0.0041
1900.25,0.0042
1900.00,0.0042
1899.75,0.0042
1899.50,0.0041
1899.25,0.0041
1899.00,0.0040
1898.75,0.0039
1898.50,0.0040
1898.25,0.0040
1898.00,0.0041
1897.75,0.0041
1897.50,0.0041
1897.25,0.0041
1897.00,0.0041
1896.75,0.0042
1896.50,0.0043
1896.25,0.0045
1896.00,0.0046
1895.75,0.0047
1895.50,0.0046
1895.25,0.0044
1895.00,0.0043
1894.75,0.0042
1894.50,0.0042
1894.25,0.0043
1894.00,0.0044
1893.75,0.0045
1893.50,0.0045
1893.25,0.0045
1893.00,0.0044
1892.75,0.0043
1892.50,0.0043
1892.25,0.0043
1892.00,0.0044
1891.75,0.0045
1891.50,0.0045
1891.25,0.0044
1891.00,0.0042
1890.75,0.0039
1890.50,0.0037
1890.25,0.0036
1890.00,0.0035
1889.75,0.0035
1889.50,0.0034
1889.25,0.0034
1889.00,0.0036
1888.75,0.0040
1888.50,0.0044
1888.25,0.0048
1888.00,0.0050
1887.75,0.0049
1887.50,0.0046
1887.25,0.0043
1887.00,0.0041
1886.75,0.0040
1886.50,0.0040
1886.25,0.0041
1886.00,0.0041
1885.75,0.0040
1885.50,0.0038
1885.25,0.0036
1885.00,0.0034
1884.75,0.0034
1884.50,0.0035
1884.25,0.0038
1884.00,0.0041
1883.75,0.0045
1883.50,0.0046
1883.25,0.0045
1883.00,0.0044
1882.75,0.0043
1882.50,0.0043
1882.25,0.0044
1882.00,0.0044
1881.75,0.0043
1881.50,0.0043
1881.25,0.0043
1881.00,0.0042
1880.75,0.0042
1880.50,0.0042
1880.25,0.0043
1880.00,0.0044
1879.75,0.0045
1879.50,0.0046
1879.25,0.0048
1879.00,0.0049
1878.75,0.0050
1878.50,0.0050
1878.25,0.0050
1878.00,0.0048
1877.75,0.0047
1877.50,0.0046
1877.25,0.0044
1877.00,0.0041
1876.75,0.0039
1876.50,0.0038
1876.25,0.0039
1876.00,0.0041
1875.75,0.0042
1875.50,0.0042
1875.25,0.0041
1875.00,0.0041
1874.75,0.0040
1874.50,0.0039
1874.25,0.0038
1874.00,0.0038
1873.75,0.0039
1873.50,0.0041
1873.25,0.0043
1873.00,0.0046
1872.75,0.0047
1872.50,0.0047
1872.25,0.0046
1872.00,0.0044
1871.75,0.0042
1871.50,0.0040
1871.25,0.0040
1871.00,0.0041
1870.75,0.0044
1870.50,0.0046
1870.25,0.0047
1870.00,0.0047
1869.75,0.0046
1869.50,0.0044
1869.25,0.0043
1869.00,0.0042
1868.75,0.0041
1868.50,0.0041
1868.25,0.0040
1868.00,0.0039
1867.75,0.0038
1867.50,0.0037
1867.25,0.0036
1867.00,0.0037
1866.75,0.0039
1866.50,0.0043
1866.25,0.0047
1866.00,0.0051
1865.75,0.0053
1865.50,0.0054
1865.25,0.0054
1865.00,0.0054
1864.75,0.0053
1864.50,0.0051
1864.25,0.0049
1864.00,0.0047
1863.75,0.0046
1863.50,0.0047
1863.25,0.0049
1863.00,0.0052
1862.75,0.0054
1862.50,0.0054
1862.25,0.0054
1862.00,0.0052
1861.75,0.0049
1861.50,0.0046
1861.25,0.0045
1861.00,0.0044
1860.75,0.0045
1860.50,0.0045
1860.25,0.0044
1860.00,0.0043
1859.75,0.0043
1859.50,0.0045
1859.25,0.0048
1859.00,0.0051
1858.75,0.0052
1858.50,0.0051
1858.25,0.0047
1858.00,0.0043
1857.75,0.0039
1857.50,0.0036
1857.25,0.0036
1857.00,0.0038
1856.75,0.0041
1856.50,0.0044
1856.25,0.0046
1856.00,0.0048
1855.75,0.0049
1855.50,0.0050
1855.25,0.0050
1855.00,0.0050
1854.75,0.0049
1854.50,0.0048
1854.25,0.0046
1854.00,0.0045
1853.75,0.0044
1853.50,0.0043
1853.25,0.0043
1853.00,0.0044
1852.75,0.0045
1852.50,0.0046
1852.25,0.0046
1852.00,0.0047
1851.75,0.0047
1851.50,0.0048
1851.25,0.0049
1851.00,0.0049
1850.75,0.0050
1850.50,0.0049
1850.25,0.0048
1850.00,0.0047
1849.75,0.0046
1849.50,0.0044
1849.25,0.0044
1849.00,0.0044
1848.75,0.0045
1848.50,0.0047
1848.25,0.0048
1848.00,0.0048
1847.75,0.0048
1847.50,0.0046
1847.25,0.0044
1847.00,0.0042
1846.75,0.0042
1846.50,0.0044
1846.25,0.0047
1846.00,0.0049
1845.75,0.0051
1845.50,0.0052
1845.25,0.0052
1845.00,0.0052
1844.75,0.0052
1844.50,0.0053
1844.25,0.0057
1844.00,0.0059
1843.75,0.0059
1843.50,0.0055
1843.25,0.0052
1843.00,0.0049
1842.75,0.0047
1842.50,0.0045
1842.25,0.0044
1842.00,0.0044
1841.75,0.0043
1841.50,0.0044
1841.25,0.0045
1841.00,0.0046
1840.75,0.0047
1840.50,0.0047
1840.25,0.0047
1840.00,0.0047
1839.75,0.0047
1839.50,0.0047
1839.25,0.0045
1839.00,0.0043
1838.75,0.0043
1838.50,0.0043
1838.25,0.0045
1838.00,0.0045
1837.75,0.0045
1837.50,0.0044
1837.25,0.0043
1837.00,0.0044
1836.75,0.0045
1836.50,0.0047
1836.25,0.0049
1836.00,0.0050
1835.75,0.0050
1835.50,0.0050
1835.25,0.0049
1835.00,0.0049
1834.75,0.0047
1834.50,0.0045
1834.25,0.0042
1834.00,0.0040
1833.75,0.0040
1833.50,0.0042
1833.25,0.0045
1833.00,0.0048
1832.75,0.0049
1832.50,0.0050
1832.25,0.0050
1832.00,0.0050
1831.75,0.0050
1831.50,0.0050
1831.25,0.0050
1831.00,0.0048
1830.75,0.0047
1830.50,0.0044
1830.25,0.0044
1830.00,0.0045
1829.75,0.0049
1829.50,0.0052
1829.25,0.0053
1829.00,0.0052
1828.75,0.0050
1828.50,0.0049
1828.25,0.0049
1828.00,0.0049
1827.75,0.0048
1827.50,0.0048
1827.25,0.0048
1827.00,0.0048
1826.75,0.0049
1826.50,0.0050
1826.25,0.0050
1826.00,0.0050
1825.75,0.0047
1825.50,0.0045
1825.25,0.0042
1825.00,0.0042
1824.75,0.0043
1824.50,0.0045
1824.25,0.0046
1824.00,0.0046
1823.75,0.0045
1823.50,0.0046
1823.25,0.0048
1823.00,0.0050
1822.75,0.0052
1822.50,0.0054
1822.25,0.0054
1822.00,0.0054
1821.75,0.0053
1821.50,0.0052
1821.25,0.0051
1821.00,0.0051
1820.75,0.0051
1820.50,0.0050
1820.25,0.0049
1820.00,0.0048
1819.75,0.0047
1819.50,0.0046
1819.25,0.0046
1819.00,0.0047
1818.75,0.0048
1818.50,0.0048
1818.25,0.0048
1818.00,0.0046
1817.75,0.0045
1817.50,0.0044
1817.25,0.0044
1817.00,0.0045
1816.75,0.0047
1816.50,0.0049
1816.25,0.0051
1816.00,0.0053
1815.75,0.0053
1815.50,0.0053
1815.25,0.0053
1815.00,0.0053
1814.75,0.0053
1814.50,0.0052
1814.25,0.0051
1814.00,0.0050
1813.75,0.0050
1813.50,0.0050
1813.25,0.0050
1813.00,0.0050
1812.75,0.0049
1812.50,0.0048
1812.25,0.0048
1812.00,0.0049
1811.75,0.0051
1811.50,0.0052
1811.25,0.0052
1811.00,0.0053
1810.75,0.0053
1810.50,0.0053
1810.25,0.0053
1810.00,0.0053
1809.75,0.0052
1809.50,0.0050
1809.25,0.0049
1809.00,0.0049
1808.75,0.0048
1808.50,0.0047
1808.25,0.0047
1808.00,0.0048
1807.75,0.0049
1807.50,0.0050
1807.25,0.0051
1807.00,0.0051
1806.75,0.0050
1806.50,0.0050
1806.25,0.0050
1806.00,0.0051
1805.75,0.0052
1805.50,0.0053
1805.25,0.0052
1805.00,0.0051
1804.75,0.0049
1804.50,0.0047
1804.25,0.0046
1804.00,0.0046
1803.75,0.0047
1803.50,0.0048
1803.25,0.0049
1803.00,0.0049
1802.75,0.0050
1802.50,0.0050
1802.25,0.0051
1802.00,0.0052
1801.75,0.0053
1801.50,0.0053
1801.25,0.0054
1801.00,0.0054
1800.75,0.0055
1800.50,0.0055
1800.25,0.0056
1800.00,0.0057
1799.75,0.0057
1799.50,0.0055
1799.25,0.0051
1799.00,0.0048
1798.75,0.0046
1798.50,0.0045
1798.25,0.0046
1798.00,0.0048
1797.75,0.0049
1797.50,0.0051
1797.25,0.0051
1797.00,0.0051
1796.75,0.0049
1796.50,0.0048
1796.25,0.0047
1796.00,0.0048
1795.75,0.0049
1795.50,0.0050
1795.25,0.0051
1795.00,0.0051
1794.75,0.0051
1794.50,0.0051
1794.25,0.0051
1794.00,0.0050
1793.75,0.0049
1793.50,0.0049
1793.25,0.0050
1793.00,0.0051
1792.75,0.0051
1792.50,0.0051
1792.25,0.0051
1792.00,0.0051
1791.75,0.0052
1791.50,0.0052
1791.25,0.0052
1791.00,0.0050
1790.75,0.0050
1790.50,0.0050
1790.25,0.0052
1790.00,0.0053
1789.75,0.0054
1789.50,0.0055
1789.25,0.0056
1789.00,0.0056
1788.75,0.0056
1788.50,0.0056
1788.25,0.0055
1788.00,0.0055
1787.75,0.0054
1787.50,0.0053
1787.25,0.0052
1787.00,0.0052
1786.75,0.0052
1786.50,0.0053
1786.25,0.0054
1786.00,0.0054
1785.75,0.0055
1785.50,0.0055
1785.25,0.0055
1785.00,0.0055
1784.75,0.0054
1784.50,0.0052
1784.25,0.0052
1784.00,0.0053
1783.75,0.0054
1783.50,0.0055
1783.25,0.0055
1783.00,0.0054
1782.75,0.0053
1782.50,0.0053
1782.25,0.0053
1782.00,0.0053
1781.75,0.0053
1781.50,0.0053
1781.25,0.0053
1781.00,0.0054
1780.75,0.0055
1780.50,0.0055
1780.25,0.0054
1780.00,0.0051
1779.75,0.0050
1779.50,0.0049
1779.25,0.0050
1779.00,0.0051
1778.75,0.0052
1778.50,0.0053
1778.25,0.0054
1778.00,0.0054
1777.75,0.0055
1777.50,0.0056
1777.25,0.0056
1777.00,0.0056
1776.75,0.0056
1776.50,0.0056
1776.25,0.0056
1776.00,0.0056
1775.75,0.0056
1775.50,0.0055
1775.25,0.0053
1775.00,0.0051
1774.75,0.0050
1774.50,0.0049
1774.25,0.0050
1774.00,0.0052
1773.75,0.0054
1773.50,0.0055
1773.25,0.0054
1773.00,0.0052
1772.75,0.0050
1772.50,0.0048
1772.25,0.0048
1772.00,0.0049
1771.75,0.0050
1771.50,0.0052
1771.25,0.0055
1771.00,0.0057
1770.75,0.0058
1770.50,0.0057
1770.25,0.0055
1770.00,0.0054
1769.75,0.0053
1769.50,0.0054
1769.25,0.0054
1769.00,0.0054
1768.75,0.0053
1768.50,0.0051
1768.25,0.0048
1768.00,0.0047
1767.75,0.0047
1767.50,0.0049
1767.25,0.0052
1767.00,0.0054
1766.75,0.0056
1766.50,0.0057
1766.25,0.0057
1766.00,0.0056
1765.75,0.0055
1765.50,0.0053
1765.25,0.0053
1765.00,0.0053
1764.75,0.0053
1764.50,0.0053
1764.25,0.0053
1764.00,0.0053
1763.75,0.0052
1763.50,0.0052
1763.25,0.0053
1763.00,0.0054
1762.75,0.0055
1762.50,0.0054
1762.25,0.0051
1762.00,0.0048
1761.75,0.0047
1761.50,0.0049
1761.25,0.0053
1761.00,0.0055
1760.75,0.0055
1760.50,0.0055
1760.25,0.0055
1760.00,0.0055
1759.75,0.0055
1759.50,0.0056
1759.25,0.0056
1759.00,0.0057
1758.75,0.0057
1758.50,0.0057
1758.25,0.0056
1758.00,0.0056
1757.75,0.0056
1757.50,0.0056
1757.25,0.0057
1757.00,0.0057
1756.75,0.0057
1756.50,0.0057
1756.25,0.0057
1756.00,0.0056
1755.75,0.0055
1755.50,0.0054
1755.25,0.0054
1755.00,0.0055
1754.75,0.0055
1754.50,0.0056
1754.25,0.0055
1754.00,0.0055
1753.75,0.0055
1753.50,0.0055
1753.25,0.0056
1753.00,0.0056
1752.75,0.0056
1752.50,0.0056
1752.25,0.0057
1752.00,0.0058
1751.75,0.0060
1751.50,0.0062
1751.25,0.0062
1751.00,0.0059
1750.75,0.0055
1750.50,0.0053
1750.25,0.0053
1750.00,0.0053
1749.75,0.0054
1749.50,0.0055
1749.25,0.0057
1749.00,0.0058
1748.75,0.0059
1748.50,0.0060
1748.25,0.0060
1748.00,0.0060
1747.75,0.0060
1747.50,0.0060
1747.25,0.0059
1747.00,0.0058
1746.75,0.0057
1746.50,0.0056
1746.25,0.0056
1746.00,0.0056
1745.75,0.0056
1745.50,0.0056
1745.25,0.0056
1745.00,0.0056
1744.75,0.0056
1744.50,0.0056
1744.25,0.0055
1744.00,0.0055
1743.75,0.0055
1743.50,0.0055
1743.25,0.0056
1743.00,0.0055
1742.75,0.0054
1742.50,0.0054
1742.25,0.0055
1742.00,0.0057
1741.75,0.0058
1741.50,0.0059
1741.25,0.0058
1741.00,0.0057
1740.75,0.0055
1740.50,0.0053
1740.25,0.0051
1740.00,0.0049
1739.75,0.0050
1739.50,0.0053
1739.25,0.0056
1739.00,0.0057
1738.75,0.0057
1738.50,0.0055
1738.25,0.0054
1738.00,0.0054
1737.75,0.0055
1737.50,0.0056
1737.25,0.0057
1737.00,0.0058
1736.75,0.0057
1736.50,0.0057
1736.25,0.0056
1736.00,0.0056
1735.75,0.0057
1735.50,0.0057
1735.25,0.0057
1735.00,0.0058
1734.75,0.0058
1734.50,0.0058
1734.25,0.0060
1734.00,0.0060
1733.75,0.0059
1733.50,0.0058
1733.25,0.0056
1733.00,0.0055
1732.75,0.0055
1732.50,0.0056
1732.25,0.0057
1732.00,0.0057
1731.75,0.0057
1731.50,0.0058
1731.25,0.0058
1731.00,0.0059
1730.75,0.0060
1730.50,0.0061
1730.25,0.0061
1730.00,0.0061
1729.75,0.0059
1729.50,0.0058
1729.25,0.0057
1729.00,0.0058
1728.75,0.0060
1728.50,0.0061
1728.25,0.0061
1728.00,0.0060
1727.75,0.0059
1727.50,0.0058
1727.25,0.0058
1727.00,0.0058
1726.75,0.0058
1726.50,0.0058
1726.25,0.0057
1726.00,0.0057
1725.75,0.0057
1725.50,0.0057
1725.25,0.0058
1725.00,0.0058
1724.75,0.0058
1724.50,0.0059
1724.25,0.0059
1724.00,0.0059
1723.75,0.0059
1723.50,0.0058
1723.25,0.0057
1723.00,0.0056
1722.75,0.0056
1722.50,0.0056
1722.25,0.0057
1722.00,0.0057
1721.75,0.0058
1721.50,0.0059
1721.25,0.0060
1721.00,0.0060
1720.75,0.0060
1720.50,0.0060
1720.25,0.0060
1720.00,0.0060
1719.75,0.0059
1719.50,0.0059
1719.25,0.0059
1719.00,0.0058
1718.75,0.0058
1718.50,0.0058
1718.25,0.0058
1718.00,0.0057
1717.75,0.0053
1717.50,0.0048
1717.25,0.0046
1717.00,0.0049
1716.75,0.0053
1716.50,0.0057
1716.25,0.0060
1716.00,0.0061
1715.75,0.0062
1715.50,0.0063
1715.25,0.0062
1715.00,0.0059
1714.75,0.0056
1714.50,0.0054
1714.25,0.0053
1714.00,0.0054
1713.75,0.0055
1713.50,0.0056
1713.25,0.0057
1713.00,0.0057
1712.75,0.0057
1712.50,0.0056
1712.25,0.0056
1712.00,0.0056
1711.75,0.0057
1711.50,0.0059
1711.25,0.0060
1711.00,0.0061
1710.75,0.0062
1710.50,0.0062
1710.25,0.0062
1710.00,0.0060
1709.75,0.0059
1709.50,0.0058
1709.25,0.0058
1709.00,0.0058
1708.75,0.0058
1708.50,0.0058
1708.25,0.0057
1708.00,0.0057
1707.75,0.0056
1707.50,0.0056
1707.25,0.0057
1707.00,0.0057
1706.75,0.0057
1706.50,0.0056
1706.25,0.0057
1706.00,0.0058
1705.75,0.0060
1705.50,0.0062
1705.25,0.0062
1705.00,0.0061
1704.75,0.0059
1704.50,0.0057
1704.25,0.0056
1704.00,0.0056
1703.75,0.0057
1703.50,0.0058
1703.25,0.0059
1703.00,0.0059
1702.75,0.0059
1702.50,0.0058
1702.25,0.0058
1702.00,0.0058
1701.75,0.0059
1701.50,0.0060
1701.25,0.0063
1701.00,0.0066
1700.75,0.0065
1700.50,0.0058
1700.25,0.0054
1700.00,0.0056
1699.75,0.0064
1699.50,0.0067
1699.25,0.0067
1699.00,0.0065
1698.75,0.0063
1698.50,0.0061
1698.25,0.0058
1698.00,0.0056
1697.75,0.0055
1697.50,0.0055
1697.25,0.0055
1697.00,0.0056
1696.75,0.0057
1696.50,0.0057
1696.25,0.0056
1696.00,0.0057
1695.75,0.0058
1695.50,0.0059
1695.25,0.0060
1695.00,0.0061
1694.75,0.0061
1694.50,0.0061
1694.25,0.0060
1694.00,0.0059
1693.75,0.0059
1693.50,0.0060
1693.25,0.0061
1693.00,0.0063
1692.75,0.0064
1692.50,0.0065
1692.25,0.0066
1692.00,0.0065
1691.75,0.0063
1691.50,0.0061
1691.25,0.0059
1691.00,0.0057
1690.75,0.0055
1690.50,0.0055
1690.25,0.0056
1690.00,0.0060
1689.75,0.0063
1689.50,0.0066
1689.25,0.0067
1689.00,0.0066
1688.75,0.0065
1688.50,0.0064
1688.25,0.0063
1688.00,0.0064
1687.75,0.0065
1687.50,0.0066
1687.25,0.0066
1687.00,0.0066
1686.75,0.0065
1686.50,0.0064
1686.25,0.0064
1686.00,0.0065
1685.75,0.0066
1685.50,0.0067
1685.25,0.0068
1685.00,0.0069
1684.75,0.0071
1684.50,0.0075
1684.25,0.0075
1684.00,0.0073
1683.75,0.0071
1683.50,0.0069
1683.25,0.0067
1683.00,0.0065
1682.75,0.0065
1682.50,0.0064
1682.25,0.0063
1682.00,0.0063
1681.75,0.0064
1681.50,0.0065
1681.25,0.0067
1681.00,0.0069
1680.75,0.0069
1680.50,0.0070
1680.25,0.0069
1680.00,0.0068
1679.75,0.0066
1679.50,0.0065
1679.25,0.0064
1679.00,0.0064
1678.75,0.0064
1678.50,0.0064
1678.25,0.0064
1678.00,0.0065
1677.75,0.0067
1677.50,0.0068
1677.25,0.0069
1677.00,0.0068
1676.75,0.0067
1676.50,0.0066
1676.25,0.0065
1676.00,0.0065
1675.75,0.0064
1675.50,0.0064
1675.25,0.0066
1675.00,0.0067
1674.75,0.0067
1674.50,0.0066
1674.25,0.0065
1674.00,0.0065
1673.75,0.0065
1673.50,0.0066
1673.25,0.0067
1673.00,0.0068
1672.75,0.0070
1672.50,0.0070
1672.25,0.0070
1672.00,0.0070
1671.75,0.0069
1671.50,0.0069
1671.25,0.0069
1671.00,0.0068
1670.75,0.0067
1670.50,0.0065
1670.25,0.0064
1670.00,0.0064
1669.75,0.0065
1669.50,0.0067
1669.25,0.0071
1669.00,0.0074
1668.75,0.0074
1668.50,0.0072
1668.25,0.0071
1668.00,0.0071
1667.75,0.0071
1667.50,0.0072
1667.25,0.0073
1667.00,0.0073
1666.75,0.0073
1666.50,0.0072
1666.25,0.0071
1666.00,0.0070
1665.75,0.0070
1665.50,0.0070
1665.25,0.0070
1665.00,0.0070
1664.75,0.0070
1664.50,0.0071
1664.25,0.0071
1664.00,0.0072
1663.75,0.0073
1663.50,0.0072
1663.25,0.0071
1663.00,0.0069
1662.75,0.0068
1662.50,0.0069
1662.25,0.0071
1662.00,0.0073
1661.75,0.0074
1661.50,0.0075
1661.25,0.0074
1661.00,0.0073
1660.75,0.0072
1660.50,0.0071
1660.25,0.0071
1660.00,0.0072
1659.75,0.0073
1659.50,0.0073
1659.25,0.0073
1659.00,0.0073
1658.75,0.0073
1658.50,0.0073
1658.25,0.0074
1658.00,0.0074
1657.75,0.0074
1657.50,0.0073
1657.25,0.0072
1657.00,0.0071
1656.75,0.0071
1656.50,0.0072
1656.25,0.0073
1656.00,0.0073
1655.75,0.0073
1655.50,0.0072
1655.25,0.0071
1655.00,0.0070
1654.75,0.0068
1654.50,0.0066
1654.25,0.0065
1654.00,0.0064
1653.75,0.0063
1653.50,0.0062
1653.25,0.0062
1653.00,0.0065
1652.75,0.0068
1652.50,0.0063
1652.25,0.0062
1652.00,0.0064
1651.75,0.0067
1651.50,0.0069
1651.25,0.0071
1651.00,0.0072
1650.75,0.0074
1650.50,0.0075
1650.25,0.0076
1650.00,0.0077
1649.75,0.0078
1649.50,0.0078
1649.25,0.0078
1649.00,0.0077
1648.75,0.0077
1648.50,0.0076
1648.25,0.0076
1648.00,0.0076
1647.75,0.0076
1647.50,0.0077
1647.25,0.0076
1647.00,0.0076
1646.75,0.0075
1646.50,0.0075
1646.25,0.0076
1646.00,0.0078
1645.75,0.0078
1645.50,0.0076
1645.25,0.0073
1645.00,0.0072
1644.75,0.0071
1644.50,0.0071
1644.25,0.0072
1644.00,0.0073
1643.75,0.0073
1643.50,0.0074
1643.25,0.0075
1643.00,0.0076
1642.75,0.0076
1642.50,0.0077
1642.25,0.0077
1642.00,0.0078
1641.75,0.0078
1641.50,0.0078
1641.25,0.0077
1641.00,0.0077
1640.75,0.0077
1640.50,0.0078
1640.25,0.0078
1640.00,0.0077
1639.75,0.0076
1639.50,0.0075
1639.25,0.0075
1639.00,0.0076
1638.75,0.0076
1638.50,0.0077
1638.25,0.0076
1638.00,0.0075
1637.75,0.0074
1637.50,0.0073
1637.25,0.0072
1637.00,0.0072
1636.75,0.0072
1636.50,0.0073
1636.25,0.0073
1636.00,0.0074
1635.75,0.0076
1635.50,0.0077
1635.25,0.0076
1635.00,0.0071
1634.75,0.0069
1634.50,0.0068
1634.25,0.0068
1634.00,0.0069
1633.75,0.0070
1633.50,0.0071
1633.25,0.0073
1633.00,0.0073
1632.75,0.0074
1632.50,0.0074
1632.25,0.0075
1632.00,0.0075
1631.75,0.0075
1631.50,0.0074
1631.25,0.0074
1631.00,0.0073
1630.75,0.0073
1630.50,0.0073
1630.25,0.0073
1630.00,0.0073
1629.75,0.0074
1629.50,0.0075
1629.25,0.0075
1629.00,0.0076
1628.75,0.0076
1628.50,0.0075
1628.25,0.0075
1628.00,0.0074
1627.75,0.0074
1627.50,0.0073
1627.25,0.0073
1627.00,0.0073
1626.75,0.0073
1626.50,0.0073
1626.25,0.0073
1626.00,0.0073
1625.75,0.0073
1625.50,0.0074
1625.25,0.0074
1625.00,0.0075
1624.75,0.0075
1624.50,0.0075
1624.25,0.0075
1624.00,0.0075
1623.75,0.0074
1623.50,0.0072
1623.25,0.0071
1623.00,0.0069
1622.75,0.0068
1622.50,0.0067
1622.25,0.0068
1622.00,0.0069
1621.75,0.0071
1621.50,0.0072
1621.25,0.0073
1621.00,0.0073
1620.75,0.0073
1620.50,0.0073
1620.25,0.0073
1620.00,0.0073
1619.75,0.0072
1619.50,0.0072
1619.25,0.0072
1619.00,0.0072
1618.75,0.0073
1618.50,0.0073
1618.25,0.0073
1618.00,0.0072
1617.75,0.0072
1617.50,0.0072
1617.25,0.0072
1617.00,0.0072
1616.75,0.0073
1616.50,0.0070
1616.25,0.0066
1616.00,0.0066
1615.75,0.0067
1615.50,0.0070
1615.25,0.0072
1615.00,0.0074
1614.75,0.0075
1614.50,0.0074
1614.25,0.0073
1614.00,0.0072
1613.75,0.0072
1613.50,0.0073
1613.25,0.0074
1613.00,0.0075
1612.75,0.0075
1612.50,0.0074
1612.25,0.0073
1612.00,0.0073
1611.75,0.0073
1611.50,0.0074
1611.25,0.0074
1611.00,0.0074
1610.75,0.0073
1610.50,0.0073
1610.25,0.0073
1610.00,0.0073
1609.75,0.0074
1609.50,0.0075
1609.25,0.0076
1609.00,0.0076
1608.75,0.0075
1608.50,0.0075
1608.25,0.0075
1608.00,0.0075
1607.75,0.0075
1607.50,0.0075
1607.25,0.0076
1607.00,0.0076
1606.75,0.0077
1606.50,0.0077
1606.25,0.0077
1606.00,0.0076
1605.75,0.0075
1605.50,0.0074
1605.25,0.0073
1605.00,0.0072
1604.75,0.0072
1604.50,0.0072
1604.25,0.0072
1604.00,0.0072
1603.75,0.0072
1603.50,0.0073
1603.25,0.0073
1603.00,0.0072
1602.75,0.0071
1602.50,0.0072
1602.25,0.0072
1602.00,0.0074
1601.75,0.0075
1601.50,0.0076
1601.25,0.0076
1601.00,0.0076
1600.75,0.0076
1600.50,0.0075
1600.25,0.0074
1600.00,0.0074
1599.75,0.0073
1599.50,0.0073
1599.25,0.0074
1599.00,0.0075
1598.75,0.0076
1598.50,0.0076
1598.25,0.0075
1598.00,0.0075
1597.75,0.0075
1597.50,0.0076
1597.25,0.0077
1597.00,0.0079
1596.75,0.0080
1596.50,0.0081
1596.25,0.0080
1596.00,0.0079
1595.75,0.0078
1595.50,0.0077
1595.25,0.0077
1595.00,0.0078
1594.75,0.0078
1594.50,0.0079
1594.25,0.0080
1594.00,0.0080
1593.75,0.0080
1593.50,0.0079
1593.25,0.0078
1593.00,0.0077
1592.75,0.0076
1592.50,0.0076
1592.25,0.0076
1592.00,0.0077
1591.75,0.0078
1591.50,0.0079
1591.25,0.0079
1591.00,0.0078
1590.75,0.0078
1590.50,0.0077
1590.25,0.0076
1590.00,0.0075
1589.75,0.0074
1589.50,0.0073
1589.25,0.0072
1589.00,0.0072
1588.75,0.0072
1588.50,0.0073
1588.25,0.0073
1588.00,0.0074
1587.75,0.0075
1587.50,0.0076
1587.25,0.0076
1587.00,0.0075
1586.75,0.0074
1586.50,0.0074
1586.25,0.0074
1586.00,0.0074
1585.75,0.0075
1585.50,0.0076
1585.25,0.0076
1585.00,0.0077
1584.75,0.0077
1584.50,0.0077
1584.25,0.0076
1584.00,0.0074
1583.75,0.0072
1583.50,0.0071
1583.25,0.0070
1583.00,0.0070
1582.75,0.0070
1582.50,0.0071
1582.25,0.0073
1582.00,0.0074
1581.75,0.0075
1581.50,0.0075
1581.25,0.0075
1581.00,0.0075
1580.75,0.0074
1580.50,0.0074
1580.25,0.0074
1580.00,0.0074
1579.75,0.0075
1579.50,0.0075
1579.25,0.0074
1579.00,0.0074
1578.75,0.0073
1578.50,0.0073
1578.25,0.0073
1578.00,0.0073
1577.75,0.0073
1577.50,0.0073
1577.25,0.0073
1577.00,0.0073
1576.75,0.0072
1576.50,0.0071
1576.25,0.0069
1576.00,0.0063
1575.75,0.0060
1575.50,0.0060
1575.25,0.0062
1575.00,0.0065
1574.75,0.0067
1574.50,0.0069
1574.25,0.0070
1574.00,0.0071
1573.75,0.0072
1573.50,0.0072
1573.25,0.0072
1573.00,0.0072
1572.75,0.0073
1572.50,0.0074
1572.25,0.0074
1572.00,0.0074
1571.75,0.0073
1571.50,0.0072
1571.25,0.0072
1571.00,0.0073
1570.75,0.0074
1570.50,0.0076
1570.25,0.0077
1570.00,0.0077
1569.75,0.0077
1569.50,0.0075
1569.25,0.0073
1569.00,0.0071
1568.75,0.0069
1568.50,0.0068
1568.25,0.0069
1568.00,0.0070
1567.75,0.0071
1567.50,0.0072
1567.25,0.0073
1567.00,0.0073
1566.75,0.0073
1566.50,0.0073
1566.25,0.0074
1566.00,0.0074
1565.75,0.0074
1565.50,0.0074
1565.25,0.0074
1565.00,0.0075
1564.75,0.0074
1564.50,0.0073
1564.25,0.0071
1564.00,0.0070
1563.75,0.0069
1563.50,0.0068
1563.25,0.0068
1563.00,0.0068
1562.75,0.0068
1562.50,0.0068
1562.25,0.0069
1562.00,0.0069
1561.75,0.0070
1561.50,0.0070
1561.25,0.0070
1561.00,0.0070
1560.75,0.0070
1560.50,0.0070
1560.25,0.0068
1560.00,0.0068
1559.75,0.0071
1559.50,0.0073
1559.25,0.0075
1559.00,0.0078
1558.75,0.0084
1558.50,0.0091
1558.25,0.0095
1558.00,0.0090
1557.75,0.0080
1557.50,0.0073
1557.25,0.0070
1557.00,0.0070
1556.75,0.0070
1556.50,0.0070
1556.25,0.0071
1556.00,0.0072
1555.75,0.0073
1555.50,0.0074
1555.25,0.0074
1555.00,0.0073
1554.75,0.0072
1554.50,0.0070
1554.25,0.0070
1554.00,0.0070
1553.75,0.0071
1553.50,0.0071
1553.25,0.0071
1553.00,0.0071
1552.75,0.0070
1552.50,0.0070
1552.25,0.0070
1552.00,0.0070
1551.75,0.0071
1551.50,0.0072
1551.25,0.0072
1551.00,0.0071
1550.75,0.0071
1550.50,0.0070
1550.25,0.0071
1550.00,0.0072
1549.75,0.0073
1549.50,0.0073
1549.25,0.0072
1549.00,0.0072
1548.75,0.0072
1548.50,0.0072
1548.25,0.0072
1548.00,0.0072
1547.75,0.0071
1547.50,0.0071
1547.25,0.0070
1547.00,0.0070
1546.75,0.0070
1546.50,0.0070
1546.25,0.0070
1546.00,0.0071
1545.75,0.0071
1545.50,0.0072
1545.25,0.0072
1545.00,0.0071
1544.75,0.0070
1544.50,0.0069
1544.25,0.0068
1544.00,0.0067
1543.75,0.0066
1543.50,0.0065
1543.25,0.0065
1543.00,0.0066
1542.75,0.0068
1542.50,0.0070
1542.25,0.0075
1542.00,0.0079
1541.75,0.0080
1541.50,0.0078
1541.25,0.0075
1541.00,0.0074
1540.75,0.0074
1540.50,0.0076
1540.25,0.0078
1540.00,0.0078
1539.75,0.0074
1539.50,0.0068
1539.25,0.0063
1539.00,0.0062
1538.75,0.0063
1538.50,0.0064
1538.25,0.0066
1538.00,0.0067
1537.75,0.0068
1537.50,0.0069
1537.25,0.0070
1537.00,0.0070
1536.75,0.0070
1536.50,0.0069
1536.25,0.0069
1536.00,0.0069
1535.75,0.0069
1535.50,0.0070
1535.25,0.0070
1535.00,0.0069
1534.75,0.0069
1534.50,0.0069
1534.25,0.0069
1534.00,0.0068
1533.75,0.0068
1533.50,0.0068
1533.25,0.0067
1533.00,0.0066
1532.75,0.0066
1532.50,0.0067
1532.25,0.0068
1532.00,0.0068
1531.75,0.0069
1531.50,0.0069
1531.25,0.0069
1531.00,0.0069
1530.75,0.0069
1530.50,0.0069
1530.25,0.0070
1530.00,0.0071
1529.75,0.0071
1529.50,0.0070
1529.25,0.0069
1529.00,0.0068
1528.75,0.0067
1528.50,0.0067
1528.25,0.0067
1528.00,0.0068
1527.75,0.0069
1527.50,0.0069
1527.25,0.0069
1527.00,0.0069
1526.75,0.0069
1526.50,0.0070
1526.25,0.0071
1526.00,0.0072
1525.75,0.0072
1525.50,0.0071
1525.25,0.0070
1525.00,0.0068
1524.75,0.0067
1524.50,0.0066
1524.25,0.0066
1524.00,0.0066
1523.75,0.0066
1523.50,0.0067
1523.25,0.0068
1523.00,0.0070
1522.75,0.0072
1522.50,0.0073
1522.25,0.0072
1522.00,0.0070
1521.75,0.0069
1521.50,0.0069
1521.25,0.0070
1521.00,0.0070
1520.75,0.0069
1520.50,0.0068
1520.25,0.0067
1520.00,0.0067
1519.75,0.0067
1519.50,0.0067
1519.25,0.0067
1519.00,0.0067
1518.75,0.0067
1518.50,0.0066
1518.25,0.0066
1518.00,0.0067
1517.75,0.0068
1517.50,0.0069
1517.25,0.0069
1517.00,0.0068
1516.75,0.0068
1516.50,0.0068
1516.25,0.0068
1516.00,0.0068
1515.75,0.0068
1515.50,0.0068
1515.25,0.0069
1515.00,0.0070
1514.75,0.0070
1514.50,0.0071
1514.25,0.0070
1514.00,0.0070
1513.75,0.0069
1513.50,0.0069
1513.25,0.0068
1513.00,0.0068
1512.75,0.0067
1512.50,0.0066
1512.25,0.0065
1512.00,0.0064
1511.75,0.0063
1511.50,0.0064
1511.25,0.0065
1511.00,0.0066
1510.75,0.0066
1510.50,0.0066
1510.25,0.0064
1510.00,0.0062
1509.75,0.0061
1509.50,0.0061
1509.25,0.0061
1509.00,0.0062
1508.75,0.0062
1508.50,0.0062
1508.25,0.0062
1508.00,0.0063
1507.75,0.0063
1507.50,0.0062
1507.25,0.0062
1507.00,0.0064
1506.75,0.0064
1506.50,0.0062
1506.25,0.0058
1506.00,0.0055
1505.75,0.0053
1505.50,0.0054
1505.25,0.0057
1505.00,0.0059
1504.75,0.0060
1504.50,0.0060
1504.25,0.0059
1504.00,0.0059
1503.75,0.0059
1503.50,0.0060
1503.25,0.0061
1503.00,0.0063
1502.75,0.0064
1502.50,0.0064
1502.25,0.0063
1502.00,0.0063
1501.75,0.0063
1501.50,0.0063
1501.25,0.0063
1501.00,0.0063
1500.75,0.0063
1500.50,0.0063
1500.25,0.0063
1500.00,0.0063
1499.75,0.0063
1499.50,0.0064
1499.25,0.0064
1499.00,0.0065
1498.75,0.0066
1498.50,0.0066
1498.25,0.0065
1498.00,0.0063
1497.75,0.0061
1497.50,0.0060
1497.25,0.0060
1497.00,0.0060
1496.75,0.0060
1496.50,0.0061
1496.25,0.0062
1496.00,0.0062
1495.75,0.0061
1495.50,0.0060
1495.25,0.0061
1495.00,0.0063
1494.75,0.0064
1494.50,0.0065
1494.25,0.0065
1494.00,0.0065
1493.75,0.0066
1493.50,0.0067
1493.25,0.0068
1493.00,0.0068
1492.75,0.0067
1492.50,0.0066
1492.25,0.0066
1492.00,0.0066
1491.75,0.0067
1491.50,0.0068
1491.25,0.0069
1491.00,0.0068
1490.75,0.0067
1490.50,0.0064
1490.25,0.0060
1490.00,0.0058
1489.75,0.0058
1489.50,0.0060
1489.25,0.0062
1489.00,0.0065
1488.75,0.0066
1488.50,0.0068
1488.25,0.0069
1488.00,0.0070
1487.75,0.0069
1487.50,0.0068
1487.25,0.0065
1487.00,0.0063
1486.75,0.0063
1486.50,0.0063
1486.25,0.0064
1486.00,0.0064
1485.75,0.0065
1485.50,0.0065
1485.25,0.0066
1485.00,0.0066
1484.75,0.0067
1484.50,0.0068
1484.25,0.0069
1484.00,0.0069
1483.75,0.0069
1483.50,0.0069
1483.25,0.0070
1483.00,0.0070
1482.75,0.0071
1482.50,0.0071
1482.25,0.0071
1482.00,0.0071
1481.75,0.0071
1481.50,0.0071
1481.25,0.0071
1481.00,0.0070
1480.75,0.0070
1480.50,0.0069
1480.25,0.0070
1480.00,0.0070
1479.75,0.0070
1479.50,0.0070
1479.25,0.0070
1479.00,0.0070
1478.75,0.0071
1478.50,0.0072
1478.25,0.0072
1478.00,0.0072
1477.75,0.0071
1477.50,0.0069
1477.25,0.0068
1477.00,0.0067
1476.75,0.0067
1476.50,0.0067
1476.25,0.0067
1476.00,0.0068
1475.75,0.0068
1475.50,0.0069
1475.25,0.0070
1475.00,0.0070
1474.75,0.0072
1474.50,0.0073
1474.25,0.0075
1474.00,0.0076
1473.75,0.0076
1473.50,0.0075
1473.25,0.0073
1473.00,0.0072
1472.75,0.0072
1472.50,0.0072
1472.25,0.0072
1472.00,0.0073
1471.75,0.0073
1471.50,0.0073
1471.25,0.0072
1471.00,0.0072
1470.75,0.0071
1470.50,0.0071
1470.25,0.0071
1470.00,0.0071
1469.75,0.0072
1469.50,0.0073
1469.25,0.0072
1469.00,0.0072
1468.75,0.0071
1468.50,0.0071
1468.25,0.0070
1468.00,0.0070
1467.75,0.0070
1467.50,0.0070
1467.25,0.0071
1467.00,0.0073
1466.75,0.0073
1466.50,0.0073
1466.25,0.0073
1466.00,0.0073
1465.75,0.0074
1465.50,0.0075
1465.25,0.0078
1465.00,0.0080
1464.75,0.0081
1464.50,0.0079
1464.25,0.0077
1464.00,0.0076
1463.75,0.0075
1463.50,0.0076
1463.25,0.0076
1463.00,0.0077
1462.75,0.0078
1462.50,0.0079
1462.25,0.0079
1462.00,0.0080
1461.75,0.0080
1461.50,0.0080
1461.25,0.0079
1461.00,0.0078
1460.75,0.0078
1460.50,0.0078
1460.25,0.0078
1460.00,0.0078
1459.75,0.0077
1459.50,0.0077
1459.25,0.0077
1459.00,0.0078
1458.75,0.0077
1458.50,0.0076
1458.25,0.0075
1458.00,0.0077
1457.75,0.0080
1457.50,0.0083
1457.25,0.0087
1457.00,0.0090
1456.75,0.0088
1456.50,0.0084
1456.25,0.0083
1456.00,0.0083
1455.75,0.0085
1455.50,0.0086
1455.25,0.0087
1455.00,0.0087
1454.75,0.0087
1454.50,0.0088
1454.25,0.0089
1454.00,0.0090
1453.75,0.0089
1453.50,0.0089
1453.25,0.0088
1453.00,0.0088
1452.75,0.0089
1452.50,0.0089
1452.25,0.0090
1452.00,0.0090
1451.75,0.0090
1451.50,0.0090
1451.25,0.0090
1451.00,0.0090
1450.75,0.0090
1450.50,0.0090
1450.25,0.0090
1450.00,0.0090
1449.75,0.0091
1449.50,0.0092
1449.25,0.0093
1449.00,0.0094
1448.75,0.0095
1448.50,0.0094
1448.25,0.0094
1448.00,0.0093
1447.75,0.0093
1447.50,0.0094
1447.25,0.0095
1447.00,0.0095
1446.75,0.0096
1446.50,0.0096
1446.25,0.0097
1446.00,0.0098
1445.75,0.0098
1445.50,0.0099
1445.25,0.0099
1445.00,0.0100
1444.75,0.0100
1444.50,0.0099
1444.25,0.0099
1444.00,0.0099
1443.75,0.0099
1443.50,0.0099
1443.25,0.0099
1443.00,0.0100
1442.75,0.0099
1442.50,0.0099
1442.25,0.0098
1442.00,0.0097
1441.75,0.0096
1441.50,0.0095
1441.25,0.0093
1441.00,0.0093
1440.75,0.0092
1440.50,0.0093
1440.25,0.0094
1440.00,0.0095
1439.75,0.0095
1439.50,0.0094
1439.25,0.0093
1439.00,0.0091
1438.75,0.0090
1438.50,0.0090
1438.25,0.0090
1438.00,0.0090
1437.75,0.0091
1437.50,0.0092
1437.25,0.0092
1437.00,0.0093
1436.75,0.0094
1436.50,0.0095
1436.25,0.0095
1436.00,0.0094
1435.75,0.0093
1435.50,0.0091
1435.25,0.0090
1435.00,0.0088
1434.75,0.0087
1434.50,0.0087
1434.25,0.0088
1434.00,0.0089
1433.75,0.0091
1433.50,0.0091
1433.25,0.0092
1433.00,0.0091
1432.75,0.0090
1432.50,0.0088
1432.25,0.0087
1432.00,0.0087
1431.75,0.0087
1431.50,0.0088
1431.25,0.0089
1431.00,0.0089
1430.75,0.0089
1430.50,0.0088
1430.25,0.0088
1430.00,0.0088
1429.75,0.0090
1429.50,0.0091
1429.25,0.0092
1429.00,0.0092
1428.75,0.0092
1428.50,0.0092
1428.25,0.0092
1428.00,0.0092
1427.75,0.0093
1427.50,0.0094
1427.25,0.0095
1427.00,0.0097
1426.75,0.0097
1426.50,0.0097
1426.25,0.0098
1426.00,0.0099
1425.75,0.0100
1425.50,0.0101
1425.25,0.0101
1425.00,0.0100
1424.75,0.0100
1424.50,0.0101
1424.25,0.0102
1424.00,0.0104
1423.75,0.0105
1423.50,0.0106
1423.25,0.0105
1423.00,0.0105
1422.75,0.0104
1422.50,0.0105
1422.25,0.0107
1422.00,0.0110
1421.75,0.0113
1421.50,0.0116
1421.25,0.0119
1421.00,0.0120
1420.75,0.0121
1420.50,0.0122
1420.25,0.0123
1420.00,0.0123
1419.75,0.0122
1419.50,0.0120
1419.25,0.0121
1419.00,0.0124
1418.75,0.0127
1418.50,0.0130
1418.25,0.0131
1418.00,0.0133
1417.75,0.0135
1417.50,0.0136
1417.25,0.0138
1417.00,0.0139
1416.75,0.0141
1416.50,0.0142
1416.25,0.0143
1416.00,0.0145
1415.75,0.0146
1415.50,0.0148
1415.25,0.0148
1415.00,0.0149
1414.75,0.0150
1414.50,0.0151
1414.25,0.0153
1414.00,0.0155
1413.75,0.0156
1413.50,0.0157
1413.25,0.0158
1413.00,0.0158
1412.75,0.0157
1412.50,0.0156
1412.25,0.0155
1412.00,0.0155
1411.75,0.0155
1411.50,0.0155
1411.25,0.0156
1411.00,0.0155
1410.75,0.0155
1410.50,0.0154
1410.25,0.0154
1410.00,0.0154
1409.75,0.0154
1409.50,0.0153
1409.25,0.0152
1409.00,0.0152
1408.75,0.0151
1408.50,0.0151
1408.25,0.0152
1408.00,0.0152
1407.75,0.0152
1407.50,0.0151
1407.25,0.0150
1407.00,0.0148
1406.75,0.0147
1406.50,0.0146
1406.25,0.0146
1406.00,0.0146
1405.75,0.0146
1405.50,0.0145
1405.25,0.0144
1405.00,0.0143
1404.75,0.0143
1404.50,0.0143
1404.25,0.0144
1404.00,0.0145
1403.75,0.0145
1403.50,0.0144
1403.25,0.0143
1403.00,0.0141
1402.75,0.0141
1402.50,0.0140
1402.25,0.0140
1402.00,0.0139
1401.75,0.0139
1401.50,0.0139
1401.25,0.0139
1401.00,0.0140
1400.75,0.0139
1400.50,0.0139
1400.25,0.0138
1400.00,0.0136
1399.75,0.0134
1399.50,0.0132
1399.25,0.0129
1399.00,0.0128
1398.75,0.0128
1398.50,0.0128
1398.25,0.0129
1398.00,0.0129
1397.75,0.0128
1397.50,0.0127
1397.25,0.0126
1397.00,0.0125
1396.75,0.0124
1396.50,0.0122
1396.25,0.0121
1396.00,0.0119
1395.75,0.0117
1395.50,0.0116
1395.25,0.0115
1395.00,0.0114
1394.75,0.0112
1394.50,0.0111
1394.25,0.0109
1394.00,0.0108
1393.75,0.0107
1393.50,0.0107
1393.25,0.0107
1393.00,0.0107
1392.75,0.0108
1392.50,0.0107
1392.25,0.0107
1392.00,0.0105
1391.75,0.0104
1391.50,0.0103
1391.25,0.0102
1391.00,0.0101
1390.75,0.0099
1390.50,0.0098
1390.25,0.0096
1390.00,0.0096
1389.75,0.0095
1389.50,0.0095
1389.25,0.0094
1389.00,0.0094
1388.75,0.0093
1388.50,0.0093
1388.25,0.0091
1388.00,0.0090
1387.75,0.0089
1387.50,0.0089
1387.25,0.0089
1387.00,0.0089
1386.75,0.0089
1386.50,0.0088
1386.25,0.0087
1386.00,0.0087
1385.75,0.0088
1385.50,0.0089
1385.25,0.0090
1385.00,0.0091
1384.75,0.0091
1384.50,0.0089
1384.25,0.0087
1384.00,0.0086
1383.75,0.0086
1383.50,0.0086
1383.25,0.0087
1383.00,0.0088
1382.75,0.0088
1382.50,0.0088
1382.25,0.0088
1382.00,0.0087
1381.75,0.0086
1381.50,0.0085
1381.25,0.0085
1381.00,0.0085
1380.75,0.0085
1380.50,0.0086
1380.25,0.0087
1380.00,0.0087
1379.75,0.0088
1379.50,0.0088
1379.25,0.0087
1379.00,0.0085
1378.75,0.0084
1378.50,0.0083
1378.25,0.0082
1378.00,0.0083
1377.75,0.0084
1377.50,0.0085
1377.25,0.0085
1377.00,0.0085
1376.75,0.0084
1376.50,0.0083
1376.25,0.0082
1376.00,0.0082
1375.75,0.0082
1375.50,0.0081
1375.25,0.0081
1375.00,0.0080
1374.75,0.0080
1374.50,0.0080
1374.25,0.0081
1374.00,0.0082
1373.75,0.0083
1373.50,0.0083
1373.25,0.0082
1373.00,0.0082
1372.75,0.0082
1372.50,0.0082
1372.25,0.0082
1372.00,0.0081
1371.75,0.0082
1371.50,0.0082
1371.25,0.0083
1371.00,0.0084
1370.75,0.0084
1370.50,0.0084
1370.25,0.0084
1370.00,0.0084
1369.75,0.0083
1369.50,0.0083
1369.25,0.0082
1369.00,0.0082
1368.75,0.0083
1368.50,0.0084
1368.25,0.0084
1368.00,0.0083
1367.75,0.0082
1367.50,0.0081
1367.25,0.0081
1367.00,0.0081
1366.75,0.0081
1366.50,0.0081
1366.25,0.0081
1366.00,0.0080
1365.75,0.0080
1365.50,0.0079
1365.25,0.0078
1365.00,0.0077
1364.75,0.0077
1364.50,0.0077
1364.25,0.0077
1364.00,0.0077
1363.75,0.0076
1363.50,0.0076
1363.25,0.0076
1363.00,0.0077
1362.75,0.0078
1362.50,0.0079
1362.25,0.0079
1362.00,0.0078
1361.75,0.0077
1361.50,0.0076
1361.25,0.0074
1361.00,0.0074
1360.75,0.0075
1360.50,0.0077
1360.25,0.0079
1360.00,0.0080
1359.75,0.0081
1359.50,0.0081
1359.25,0.0081
1359.00,0.0081
1358.75,0.0080
1358.50,0.0079
1358.25,0.0078
1358.00,0.0078
1357.75,0.0077
1357.50,0.0076
1357.25,0.0076
1357.00,0.0075
1356.75,0.0076
1356.50,0.0077
1356.25,0.0078
1356.00,0.0079
1355.75,0.0079
1355.50,0.0079
1355.25,0.0078
1355.00,0.0078
1354.75,0.0078
1354.50,0.0078
1354.25,0.0078
1354.00,0.0079
1353.75,0.0080
1353.50,0.0081
1353.25,0.0081
1353.00,0.0081
1352.75,0.0081
1352.50,0.0080
1352.25,0.0079
1352.00,0.0079
1351.75,0.0078
1351.50,0.0077
1351.25,0.0077
1351.00,0.0076
1350.75,0.0076
1350.50,0.0076
1350.25,0.0076
1350.00,0.0076
1349.75,0.0075
1349.50,0.0075
1349.25,0.0075
1349.00,0.0075
1348.75,0.0076
1348.50,0.0077
1348.25,0.0077
1348.00,0.0078
1347.75,0.0078
1347.50,0.0078
1347.25,0.0079
1347.00,0.0080
1346.75,0.0080
1346.50,0.0080
1346.25,0.0080
1346.00,0.0080
1345.75,0.0080
1345.50,0.0080
1345.25,0.0080
1345.00,0.0079
1344.75,0.0078
1344.50,0.0077
1344.25,0.0077
1344.00,0.0077
1343.75,0.0078
1343.50,0.0078
1343.25,0.0079
1343.00,0.0079
1342.75,0.0079
1342.50,0.0079
1342.25,0.0079
1342.00,0.0078
1341.75,0.0078
1341.50,0.0077
1341.25,0.0077
1341.00,0.0077
1340.75,0.0077
1340.50,0.0077
1340.25,0.0078
1340.00,0.0078
1339.75,0.0079
1339.50,0.0078
1339.25,0.0078
1339.00,0.0078
1338.75,0.0078
1338.50,0.0078
1338.25,0.0078
1338.00,0.0077
1337.75,0.0077
1337.50,0.0077
1337.25,0.0077
1337.00,0.0078
1336.75,0.0079
1336.50,0.0079
1336.25,0.0079
1336.00,0.0079
1335.75,0.0078
1335.50,0.0077
1335.25,0.0077
1335.00,0.0076
1334.75,0.0077
1334.50,0.0077
1334.25,0.0077
1334.00,0.0078
1333.75,0.0079
1333.50,0.0081
1333.25,0.0082
1333.00,0.0083
1332.75,0.0082
1332.50,0.0081
1332.25,0.0079
1332.00,0.0078
1331.75,0.0078
1331.50,0.0078
1331.25,0.0078
1331.00,0.0079
1330.75,0.0080
1330.50,0.0080
1330.25,0.0080
1330.00,0.0080
1329.75,0.0079
1329.50,0.0078
1329.25,0.0078
1329.00,0.0078
1328.75,0.0078
1328.50,0.0079
1328.25,0.0079
1328.00,0.0079
1327.75,0.0080
1327.50,0.0081
1327.25,0.0082
1327.00,0.0083
1326.75,0.0083
1326.50,0.0083
1326.25,0.0082
1326.00,0.0082
1325.75,0.0081
1325.50,0.0082
1325.25,0.0082
1325.00,0.0082
1324.75,0.0082
1324.50,0.0082
1324.25,0.0083
1324.00,0.0083
1323.75,0.0083
1323.50,0.0083
1323.25,0.0083
1323.00,0.0084
1322.75,0.0084
1322.50,0.0085
1322.25,0.0086
1322.00,0.0087
1321.75,0.0087
1321.50,0.0087
1321.25,0.0086
1321.00,0.0085
1320.75,0.0085
1320.50,0.0086
1320.25,0.0086
1320.00,0.0086
1319.75,0.0085
1319.50,0.0085
1319.25,0.0085
1319.00,0.0086
1318.75,0.0086
1318.50,0.0086
1318.25,0.0087
1318.00,0.0088
1317.75,0.0088
1317.50,0.0089
1317.25,0.0088
1317.00,0.0088
1316.75,0.0087
1316.50,0.0087
1316.25,0.0087
1316.00,0.0088
1315.75,0.0088
1315.50,0.0088
1315.25,0.0088
1315.00,0.0087
1314.75,0.0086
1314.50,0.0086
1314.25,0.0086
1314.00,0.0086
1313.75,0.0087
1313.50,0.0088
1313.25,0.0088
1313.00,0.0089
1312.75,0.0089
1312.50,0.0089
1312.25,0.0088
1312.00,0.0087
1311.75,0.0086
1311.50,0.0086
1311.25,0.0087
1311.00,0.0087
1310.75,0.0088
1310.50,0.0089
1310.25,0.0090
1310.00,0.0092
1309.75,0.0093
1309.50,0.0094
1309.25,0.0094
1309.00,0.0093
1308.75,0.0093
1308.50,0.0093
1308.25,0.0093
1308.00,0.0093
1307.75,0.0093
1307.50,0.0093
1307.25,0.0093
1307.00,0.0093
1306.75,0.0093
1306.50,0.0093
1306.25,0.0093
1306.00,0.0093
1305.75,0.0094
1305.50,0.0094
1305.25,0.0093
1305.00,0.0094
1304.75,0.0094
1304.50,0.0095
1304.25,0.0097
1304.00,0.0098
1303.75,0.0099
1303.50,0.0100
1303.25,0.0100
1303.00,0.0100
1302.75,0.0099
1302.50,0.0098
1302.25,0.0098
1302.00,0.0098
1301.75,0.0099
1301.50,0.0100
1301.25,0.0101
1301.00,0.0101
1300.75,0.0101
1300.50,0.0100
1300.25,0.0101
1300.00,0.0102
1299.75,0.0103
1299.50,0.0105
1299.25,0.0105
1299.00,0.0104
1298.75,0.0104
1298.50,0.0104
1298.25,0.0104
1298.00,0.0105
1297.75,0.0105
1297.50,0.0105
1297.25,0.0105
1297.00,0.0105
1296.75,0.0105
1296.50,0.0106
1296.25,0.0106
1296.00,0.0106
1295.75,0.0106
1295.50,0.0105
1295.25,0.0104
1295.00,0.0104
1294.75,0.0105
1294.50,0.0106
1294.25,0.0107
1294.00,0.0108
1293.75,0.0109
1293.50,0.0110
1293.25,0.0110
1293.00,0.0111
1292.75,0.0112
1292.50,0.0113
1292.25,0.0113
1292.00,0.0114
1291.75,0.0115
1291.50,0.0116
1291.25,0.0116
1291.00,0.0116
1290.75,0.0116
1290.50,0.0116
1290.25,0.0116
1290.00,0.0116
1289.75,0.0116
1289.50,0.0117
1289.25,0.0119
1289.00,0.0120
1288.75,0.0121
1288.50,0.0122
1288.25,0.0122
1288.00,0.0122
1287.75,0.0122
1287.50,0.0122
1287.25,0.0122
1287.00,0.0123
1286.75,0.0123
1286.50,0.0123
1286.25,0.0124
1286.00,0.0125
1285.75,0.0127
1285.50,0.0130
1285.25,0.0132
1285.00,0.0133
1284.75,0.0134
1284.50,0.0135
1284.25,0.0135
1284.00,0.0134
1283.75,0.0134
1283.50,0.0133
1283.25,0.0134
1283.00,0.0135
1282.75,0.0136
1282.50,0.0137
1282.25,0.0139
1282.00,0.0140
1281.75,0.0142
1281.50,0.0144
1281.25,0.0145
1281.00,0.0147
1280.75,0.0149
1280.50,0.0151
1280.25,0.0153
1280.00,0.0154
1279.75,0.0155
1279.50,0.0155
1279.25,0.0156
1279.00,0.0157
1278.75,0.0160
1278.50,0.0164
1278.25,0.0167
1278.00,0.0170
1277.75,0.0173
1277.50,0.0175
1277.25,0.0177
1277.00,0.0179
1276.75,0.0182
1276.50,0.0184
1276.25,0.0185
1276.00,0.0187
1275.75,0.0189
1275.50,0.0192
1275.25,0.0196
1275.00,0.0202
1274.75,0.0207
1274.50,0.0212
1274.25,0.0217
1274.00,0.0222
1273.75,0.0227
1273.50,0.0232
1273.25,0.0237
1273.00,0.0242
1272.75,0.0247
1272.50,0.0253
1272.25,0.0259
1272.00,0.0266
1271.75,0.0274
1271.50,0.0282
1271.25,0.0292
1271.00,0.0303
1270.75,0.0314
1270.50,0.0324
1270.25,0.0335
1270.00,0.0346
1269.75,0.0359
1269.50,0.0372
1269.25,0.0387
1269.00,0.0403
1268.75,0.0421
1268.50,0.0442
1268.25,0.0464
1268.00,0.0487
1267.75,0.0511
1267.50,0.0535
1267.25,0.0561
1267.00,0.0589
1266.75,0.0618
1266.50,0.0649
1266.25,0.0682
1266.00,0.0715
1265.75,0.0750
1265.50,0.0786
1265.25,0.0823
1265.00,0.0862
1264.75,0.0902
1264.50,0.0944
1264.25,0.0986
1264.00,0.1029
1263.75,0.1073
1263.50,0.1117
1263.25,0.1163
1263.00,0.1209
1262.75,0.1254
1262.50,0.1298
1262.25,0.1338
1262.00,0.1376
1261.75,0.1412
1261.50,0.1447
1261.25,0.1480
1261.00,0.1514
1260.75,0.1545
1260.50,0.1575
1260.25,0.1601
1260.00,0.1623
1259.75,0.1641
1259.50,0.1654
1259.25,0.1664
1259.00,0.1670
1258.75,0.1675
1258.50,0.1676
1258.25,0.1675
1258.00,0.1671
1257.75,0.1663
1257.50,0.1651
1257.25,0.1635
1257.00,0.1617
1256.75,0.1597
1256.50,0.1575
1256.25,0.1553
1256.00,0.1529
1255.75,0.1505
1255.50,0.1480
1255.25,0.1454
1255.00,0.1429
1254.75,0.1403
1254.50,0.1376
1254.25,0.1349
1254.00,0.1322
1253.75,0.1296
1253.50,0.1269
1253.25,0.1242
1253.00,0.1213
1252.75,0.1182
1252.50,0.1150
1252.25,0.1116
1252.00,0.1081
1251.75,0.1045
1251.50,0.1009
1251.25,0.0973
1251.00,0.0936
1250.75,0.0899
1250.50,0.0862
1250.25,0.0826
1250.00,0.0790
1249.75,0.0756
1249.50,0.0722
1249.25,0.0690
1249.00,0.0660
1248.75,0.0631
1248.50,0.0604
1248.25,0.0577
1248.00,0.0551
1247.75,0.0526
1247.50,0.0503
1247.25,0.0481
1247.00,0.0462
1246.75,0.0444
1246.50,0.0427
1246.25,0.0411
1246.00,0.0396
1245.75,0.0382
1245.50,0.0368
1245.25,0.0356
1245.00,0.0345
1244.75,0.0335
1244.50,0.0325
1244.25,0.0316
1244.00,0.0308
1243.75,0.0301
1243.50,0.0295
1243.25,0.0289
1243.00,0.0284
1242.75,0.0278
1242.50,0.0272
1242.25,0.0265
1242.00,0.0259
1241.75,0.0253
1241.50,0.0249
1241.25,0.0246
1241.00,0.0243
1240.75,0.0240
1240.50,0.0236
1240.25,0.0232
1240.00,0.0228
1239.75,0.0224
1239.50,0.0221
1239.25,0.0218
1239.00,0.0215
1238.75,0.0213
1238.50,0.0211
1238.25,0.0210
1238.00,0.0208
1237.75,0.0207
1237.50,0.0205
1237.25,0.0203
1237.00,0.0201
1236.75,0.0199
1236.50,0.0197
1236.25,0.0195
1236.00,0.0193
1235.75,0.0192
1235.50,0.0191
1235.25,0.0191
1235.00,0.0189
1234.75,0.0188
1234.50,0.0186
1234.25,0.0185
1234.00,0.0183
1233.75,0.0183
1233.50,0.0182
1233.25,0.0181
1233.00,0.0181
1232.75,0.0180
1232.50,0.0180
1232.25,0.0180
1232.00,0.0181
1231.75,0.0181
1231.50,0.0182
1231.25,0.0182
1231.00,0.0181
1230.75,0.0180
1230.50,0.0179
1230.25,0.0179
1230.00,0.0179
1229.75,0.0179
1229.50,0.0180
1229.25,0.0180
1229.00,0.0180
1228.75,0.0180
1228.50,0.0180
1228.25,0.0180
1228.00,0.0180
1227.75,0.0180
1227.50,0.0180
1227.25,0.0180
1227.00,0.0179
1226.75,0.0179
1226.50,0.0180
1226.25,0.0180
1226.00,0.0180
1225.75,0.0180
1225.50,0.0179
1225.25,0.0178
1225.00,0.0179
1224.75,0.0180
1224.50,0.0182
1224.25,0.0184
1224.00,0.0185
1223.75,0.0185
1223.50,0.0186
1223.25,0.0186
1223.00,0.0186
1222.75,0.0186
1222.50,0.0186
1222.25,0.0187
1222.00,0.0189
1221.75,0.0192
1221.50,0.0194
1221.25,0.0196
1221.00,0.0196
1220.75,0.0196
1220.50,0.0196
1220.25,0.0195
1220.00,0.0194
1219.75,0.0194
1219.50,0.0195
1219.25,0.0196
1219.00,0.0198
1218.75,0.0200
1218.50,0.0203
1218.25,0.0205
1218.00,0.0207
1217.75,0.0209
1217.50,0.0210
1217.25,0.0210
1217.00,0.0211
1216.75,0.0211
1216.50,0.0211
1216.25,0.0212
1216.00,0.0213
1215.75,0.0215
1215.50,0.0216
1215.25,0.0218
1215.00,0.0219
1214.75,0.0220
1214.50,0.0220
1214.25,0.0221
1214.00,0.0222
1213.75,0.0222
1213.50,0.0224
1213.25,0.0225
1213.00,0.0226
1212.75,0.0228
1212.50,0.0229
1212.25,0.0230
1212.00,0.0231
1211.75,0.0233
1211.50,0.0236
1211.25,0.0239
1211.00,0.0240
1210.75,0.0241
1210.50,0.0240
1210.25,0.0239
1210.00,0.0239
1209.75,0.0239
1209.50,0.0239
1209.25,0.0241
1209.00,0.0243
1208.75,0.0245
1208.50,0.0246
1208.25,0.0247
1208.00,0.0246
1207.75,0.0246
1207.50,0.0247
1207.25,0.0249
1207.00,0.0252
1206.75,0.0255
1206.50,0.0257
1206.25,0.0259
1206.00,0.0259
1205.75,0.0260
1205.50,0.0260
1205.25,0.0262
1205.00,0.0263
1204.75,0.0265
1204.50,0.0266
1204.25,0.0266
1204.00,0.0267
1203.75,0.0268
1203.50,0.0270
1203.25,0.0272
1203.00,0.0274
1202.75,0.0274
1202.50,0.0275
1202.25,0.0275
1202.00,0.0275
1201.75,0.0276
1201.50,0.0277
1201.25,0.0280
1201.00,0.0282
1200.75,0.0284
1200.50,0.0284
1200.25,0.0285
1200.00,0.0286
1199.75,0.0287
1199.50,0.0288
1199.25,0.0288
1199.00,0.0288
1198.75,0.0288
1198.50,0.0289
1198.25,0.0291
1198.00,0.0292
1197.75,0.0293
1197.50,0.0294
1197.25,0.0293
1197.00,0.0294
1196.75,0.0295
1196.50,0.0298
1196.25,0.0300
1196.00,0.0302
1195.75,0.0302
1195.50,0.0302
1195.25,0.0301
1195.00,0.0301
1194.75,0.0301
1194.50,0.0301
1194.25,0.0302
1194.00,0.0302
1193.75,0.0302
1193.50,0.0301
1193.25,0.0300
1193.00,0.0300
1192.75,0.0301
1192.50,0.0304
1192.25,0.0306
1192.00,0.0307
1191.75,0.0308
1191.50,0.0309
1191.25,0.0310
1191.00,0.0311
1190.75,0.0311
1190.50,0.0311
1190.25,0.0312
1190.00,0.0312
1189.75,0.0312
1189.50,0.0312
1189.25,0.0312
1189.00,0.0311
1188.75,0.0311
1188.50,0.0311
1188.25,0.0311
1188.00,0.0311
1187.75,0.0311
1187.50,0.0312
1187.25,0.0313
1187.00,0.0315
1186.75,0.0317
1186.50,0.0318
1186.25,0.0319
1186.00,0.0319
1185.75,0.0319
1185.50,0.0319
1185.25,0.0319
1185.00,0.0319
1184.75,0.0320
1184.50,0.0322
1184.25,0.0324
1184.00,0.0325
1183.75,0.0325
1183.50,0.0324
1183.25,0.0323
1183.00,0.0323
1182.75,0.0323
1182.50,0.0322
1182.25,0.0322
1182.00,0.0320
1181.75,0.0319
1181.50,0.0318
1181.25,0.0318
1181.00,0.0318
1180.75,0.0319
1180.50,0.0320
1180.25,0.0322
1180.00,0.0323
1179.75,0.0324
1179.50,0.0325
1179.25,0.0326
1179.00,0.0326
1178.75,0.0326
1178.50,0.0325
1178.25,0.0324
1178.00,0.0324
1177.75,0.0325
1177.50,0.0326
1177.25,0.0327
1177.00,0.0329
1176.75,0.0330
1176.50,0.0330
1176.25,0.0330
1176.00,0.0330
1175.75,0.0329
1175.50,0.0328
1175.25,0.0327
1175.00,0.0327
1174.75,0.0327
1174.50,0.0329
1174.25,0.0330
1174.00,0.0330
1173.75,0.0329
1173.50,0.0329
1173.25,0.0330
1173.00,0.0331
1172.75,0.0332
1172.50,0.0333
1172.25,0.0334
1172.00,0.0334
1171.75,0.0333
1171.50,0.0332
1171.25,0.0331
1171.00,0.0331
1170.75,0.0332
1170.50,0.0334
1170.25,0.0336
1170.00,0.0337
1169.75,0.0339
1169.50,0.0339
1169.25,0.0338
1169.00,0.0337
1168.75,0.0335
1168.50,0.0334
1168.25,0.0333
1168.00,0.0334
1167.75,0.0334
1167.50,0.0335
1167.25,0.0337
1167.00,0.0338
1166.75,0.0339
1166.50,0.0341
1166.25,0.0343
1166.00,0.0344
1165.75,0.0345
1165.50,0.0346
1165.25,0.0346
1165.00,0.0345
1164.75,0.0344
1164.50,0.0343
1164.25,0.0342
1164.00,0.0342
1163.75,0.0341
1163.50,0.0342
1163.25,0.0342
1163.00,0.0342
1162.75,0.0342
1162.50,0.0343
1162.25,0.0344
1162.00,0.0344
1161.75,0.0345
1161.50,0.0344
1161.25,0.0344
1161.00,0.0343
1160.75,0.0343
1160.50,0.0343
1160.25,0.0345
1160.00,0.0347
1159.75,0.0348
1159.50,0.0349
1159.25,0.0348
1159.00,0.0346
1158.75,0.0345
1158.50,0.0345
1158.25,0.0346
1158.00,0.0348
1157.75,0.0351
1157.50,0.0353
1157.25,0.0355
1157.00,0.0356
1156.75,0.0357
1156.50,0.0358
1156.25,0.0358
1156.00,0.0358
1155.75,0.0358
1155.50,0.0358
1155.25,0.0359
1155.00,0.0360
1154.75,0.0361
1154.50,0.0362
1154.25,0.0363
1154.00,0.0363
1153.75,0.0362
1153.50,0.0361
1153.25,0.0361
1153.00,0.0361
1152.75,0.0363
1152.50,0.0364
1152.25,0.0367
1152.00,0.0368
1151.75,0.0369
1151.50,0.0370
1151.25,0.0370
1151.00,0.0371
1150.75,0.0372
1150.50,0.0374
1150.25,0.0377
1150.00,0.0379
1149.75,0.0381
1149.50,0.0383
1149.25,0.0385
1149.00,0.0386
1148.75,0.0386
1148.50,0.0386
1148.25,0.0385
1148.00,0.0385
1147.75,0.0386
1147.50,0.0386
1147.25,0.0386
1147.00,0.0387
1146.75,0.0389
1146.50,0.0391
1146.25,0.0393
1146.00,0.0394
1145.75,0.0394
1145.50,0.0395
1145.25,0.0397
1145.00,0.0399
1144.75,0.0400
1144.50,0.0402
1144.25,0.0404
1144.00,0.0406
1143.75,0.0410
1143.50,0.0413
1143.25,0.0417
1143.00,0.0419
1142.75,0.0420
1142.50,0.0421
1142.25,0.0421
1142.00,0.0421
1141.75,0.0422
1141.50,0.0423
1141.25,0.0424
1141.00,0.0426
1140.75,0.0427
1140.50,0.0428
1140.25,0.0430
1140.00,0.0431
1139.75,0.0433
1139.50,0.0437
1139.25,0.0441
1139.00,0.0445
1138.75,0.0448
1138.50,0.0450
1138.25,0.0451
1138.00,0.0452
1137.75,0.0454
1137.50,0.0457
1137.25,0.0461
1137.00,0.0465
1136.75,0.0467
1136.50,0.0468
1136.25,0.0468
1136.00,0.0467
1135.75,0.0467
1135.50,0.0468
1135.25,0.0471
1135.00,0.0475
1134.75,0.0479
1134.50,0.0482
1134.25,0.0484
1134.00,0.0484
1133.75,0.0484
1133.50,0.0486
1133.25,0.0488
1133.00,0.0492
1132.75,0.0495
1132.50,0.0497
1132.25,0.0499
1132.00,0.0501
1131.75,0.0505
1131.50,0.0508
1131.25,0.0513
1131.00,0.0516
1130.75,0.0520
1130.50,0.0523
1130.25,0.0525
1130.00,0.0526
1129.75,0.0527
1129.50,0.0528
1129.25,0.0529
1129.00,0.0532
1128.75,0.0536
1128.50,0.0541
1128.25,0.0547
1128.00,0.0552
1127.75,0.0557
1127.50,0.0560
1127.25,0.0564
1127.00,0.0568
1126.75,0.0571
1126.50,0.0574
1126.25,0.0576
1126.00,0.0580
1125.75,0.0585
1125.50,0.0591
1125.25,0.0596
1125.00,0.0600
1124.75,0.0603
1124.50,0.0607
1124.25,0.0611
1124.00,0.0617
1123.75,0.0624
1123.50,0.0630
1123.25,0.0636
1123.00,0.0642
1122.75,0.0648
1122.50,0.0653
1122.25,0.0659
1122.00,0.0665
1121.75,0.0670
1121.50,0.0675
1121.25,0.0679
1121.00,0.0683
1120.75,0.0688
1120.50,0.0694
1120.25,0.0702
1120.00,0.0709
1119.75,0.0715
1119.50,0.0721
1119.25,0.0726
1119.00,0.0732
1118.75,0.0738
1118.50,0.0745
1118.25,0.0751
1118.00,0.0758
1117.75,0.0764
1117.50,0.0770
1117.25,0.0777
1117.00,0.0784
1116.75,0.0792
1116.50,0.0801
1116.25,0.0811
1116.00,0.0820
1115.75,0.0830
1115.50,0.0839
1115.25,0.0848
1115.00,0.0857
1114.75,0.0866
1114.50,0.0874
1114.25,0.0882
1114.00,0.0890
1113.75,0.0898
1113.50,0.0905
1113.25,0.0913
1113.00,0.0922
1112.75,0.0932
1112.50,0.0943
1112.25,0.0953
1112.00,0.0963
1111.75,0.0974
1111.50,0.0985
1111.25,0.0996
1111.00,0.1008
1110.75,0.1020
1110.50,0.1031
1110.25,0.1041
1110.00,0.1051
1109.75,0.1061
1109.50,0.1070
1109.25,0.1078
1109.00,0.1087
1108.75,0.1097
1108.50,0.1108
1108.25,0.1120
1108.00,0.1132
1107.75,0.1142
1107.50,0.1152
1107.25,0.1162
1107.00,0.1174
1106.75,0.1187
1106.50,0.1201
1106.25,0.1215
1106.00,0.1229
1105.75,0.1243
1105.50,0.1256
1105.25,0.1268
1105.00,0.1279
1104.75,0.1289
1104.50,0.1300
1104.25,0.1312
1104.00,0.1326
1103.75,0.1340
1103.50,0.1353
1103.25,0.1365
1103.00,0.1377
1102.75,0.1391
1102.50,0.1404
1102.25,0.1418
1102.00,0.1431
1101.75,0.1444
1101.50,0.1457
1101.25,0.1472
1101.00,0.1487
1100.75,0.1501
1100.50,0.1515
1100.25,0.1529
1100.00,0.1544
1099.75,0.1559
1099.50,0.1573
1099.25,0.1586
1099.00,0.1599
1098.75,0.1612
1098.50,0.1625
1098.25,0.1638
1098.00,0.1651
1097.75,0.1664
1097.50,0.1679
1097.25,0.1693
1097.00,0.1708
1096.75,0.1723
1096.50,0.1737
1096.25,0.1751
1096.00,0.1766
1095.75,0.1782
1095.50,0.1797
1095.25,0.1811
1095.00,0.1826
1094.75,0.1841
1094.50,0.1858
1094.25,0.1876
1094.00,0.1894
1093.75,0.1910
1093.50,0.1923
1093.25,0.1934
1093.00,0.1943
1092.75,0.1952
1092.50,0.1963
1092.25,0.1975
1092.00,0.1990
1091.75,0.2006
1091.50,0.2021
1091.25,0.2034
1091.00,0.2045
1090.75,0.2056
1090.50,0.2070
1090.25,0.2086
1090.00,0.2102
1089.75,0.2117
1089.50,0.2129
1089.25,0.2139
1089.00,0.2151
1088.75,0.2165
1088.50,0.2180
1088.25,0.2195
1088.00,0.2209
1087.75,0.2222
1087.50,0.2233
1087.25,0.2245
1087.00,0.2257
1086.75,0.2268
1086.50,0.2280
1086.25,0.2293
1086.00,0.2306
1085.75,0.2320
1085.50,0.2333
1085.25,0.2344
1085.00,0.2354
1084.75,0.2365
1084.50,0.2376
1084.25,0.2388
1084.00,0.2400
1083.75,0.2411
1083.50,0.2421
1083.25,0.2430
1083.00,0.2440
1082.75,0.2449
1082.50,0.2458
1082.25,0.2466
1082.00,0.2473
1081.75,0.2481
1081.50,0.2489
1081.25,0.2498
1081.00,0.2506
1080.75,0.2514
1080.50,0.2522
1080.25,0.2530
1080.00,0.2538
1079.75,0.2546
1079.50,0.2552
1079.25,0.2557
1079.00,0.2560
1078.75,0.2565
1078.50,0.2572
1078.25,0.2581
1078.00,0.2590
1077.75,0.2598
1077.50,0.2602
1077.25,0.2604
1077.00,0.2605
1076.75,0.2608
1076.50,0.2614
1076.25,0.2622
1076.00,0.2631
1075.75,0.2640
1075.50,0.2648
1075.25,0.2654
1075.00,0.2658
1074.75,0.2660
1074.50,0.2661
1074.25,0.2663
1074.00,0.2667
1073.75,0.2673
1073.50,0.2680
1073.25,0.2686
1073.00,0.2692
1072.75,0.2695
1072.50,0.2697
1072.25,0.2698
1072.00,0.2697
1071.75,0.2697
1071.50,0.2698
1071.25,0.2700
1071.00,0.2703
1070.75,0.2706
1070.50,0.2708
1070.25,0.2711
1070.00,0.2715
1069.75,0.2721
1069.50,0.2728
1069.25,0.2734
1069.00,0.2739
1068.75,0.2740
1068.50,0.2740
1068.25,0.2739
1068.00,0.2740
1067.75,0.2742
1067.50,0.2746
1067.25,0.2750
1067.00,0.2753
1066.75,0.2756
1066.50,0.2757
1066.25,0.2758
1066.00,0.2758
1065.75,0.2758
1065.50,0.2759
1065.25,0.2760
1065.00,0.2761
1064.75,0.2762
1064.50,0.2762
1064.25,0.2762
1064.00,0.2763
1063.75,0.2765
1063.50,0.2767
1063.25,0.2768
1063.00,0.2768
1062.75,0.2768
1062.50,0.2768
1062.25,0.2768
1062.00,0.2769
1061.75,0.2770
1061.50,0.2770
1061.25,0.2771
1061.00,0.2771
1060.75,0.2771
1060.50,0.2770
1060.25,0.2769
1060.00,0.2768
1059.75,0.2769
1059.50,0.2771
1059.25,0.2773
1059.00,0.2775
1058.75,0.2776
1058.50,0.2776
1058.25,0.2775
1058.00,0.2773
1057.75,0.2770
1057.50,0.2767
1057.25,0.2763
1057.00,0.2759
1056.75,0.2754
1056.50,0.2751
1056.25,0.2749
1056.00,0.2749
1055.75,0.2749
1055.50,0.2748
1055.25,0.2746
1055.00,0.2743
1054.75,0.2741
1054.50,0.2742
1054.25,0.2744
1054.00,0.2748
1053.75,0.2752
1053.50,0.2751
1053.25,0.2746
1053.00,0.2736
1052.75,0.2726
1052.50,0.2717
1052.25,0.2711
1052.00,0.2708
1051.75,0.2706
1051.50,0.2705
1051.25,0.2705
1051.00,0.2705
1050.75,0.2705
1050.50,0.2705
1050.25,0.2705
1050.00,0.2706
1049.75,0.2705
1049.50,0.2704
1049.25,0.2702
1049.00,0.2700
1048.75,0.2698
1048.50,0.2695
1048.25,0.2691
1048.00,0.2688
1047.75,0.2686
1047.50,0.2686
1047.25,0.2687
1047.00,0.2687
1046.75,0.2685
1046.50,0.2682
1046.25,0.2678
1046.00,0.2675
1045.75,0.2672
1045.50,0.2670
1045.25,0.2669
1045.00,0.2668
1044.75,0.2667
1044.50,0.2666
1044.25,0.2666
1044.00,0.2666
1043.75,0.2666
1043.50,0.2666
1043.25,0.2665
1043.00,0.2664
1042.75,0.2663
1042.50,0.2662
1042.25,0.2661
1042.00,0.2660
1041.75,0.2659
1041.50,0.2659
1041.25,0.2659
1041.00,0.2660
1040.75,0.2661
1040.50,0.2662
1040.25,0.2662
1040.00,0.2661
1039.75,0.2660
1039.50,0.2662
1039.25,0.2665
1039.00,0.2668
1038.75,0.2671
1038.50,0.2671
1038.25,0.2670
1038.00,0.2669
1037.75,0.2670
1037.50,0.2673
1037.25,0.2677
1037.00,0.2682
1036.75,0.2686
1036.50,0.2691
1036.25,0.2695
1036.00,0.2699
1035.75,0.2704
1035.50,0.2709
1035.25,0.2715
1035.00,0.2721
1034.75,0.2726
1034.50,0.2732
1034.25,0.2738
1034.00,0.2744
1033.75,0.2750
1033.50,0.2755
1033.25,0.2760
1033.00,0.2764
1032.75,0.2769
1032.50,0.2775
1032.25,0.2781
1032.00,0.2788
1031.75,0.2795
1031.50,0.2802
1031.25,0.2811
1031.00,0.2820
1030.75,0.2828
1030.50,0.2835
1030.25,0.2842
1030.00,0.2850
1029.75,0.2859
1029.50,0.2869
1029.25,0.2878
1029.00,0.2887
1028.75,0.2894
1028.50,0.2902
1028.25,0.2910
1028.00,0.2919
1027.75,0.2929
1027.50,0.2938
1027.25,0.2948
1027.00,0.2959
1026.75,0.2970
1026.50,0.2981
1026.25,0.2990
1026.00,0.2998
1025.75,0.3008
1025.50,0.3020
1025.25,0.3036
1025.00,0.3054
1024.75,0.3073
1024.50,0.3089
1024.25,0.3103
1024.00,0.3116
1023.75,0.3129
1023.50,0.3143
1023.25,0.3157
1023.00,0.3172
1022.75,0.3184
1022.50,0.3194
1022.25,0.3204
1022.00,0.3215
1021.75,0.3230
1021.50,0.3247
1021.25,0.3265
1021.00,0.3281
1020.75,0.3297
1020.50,0.3313
1020.25,0.3328
1020.00,0.3343
1019.75,0.3359
1019.50,0.3377
1019.25,0.3394
1019.00,0.3412
1018.75,0.3430
1018.50,0.3448
1018.25,0.3464
1018.00,0.3479
1017.75,0.3494
1017.50,0.3508
1017.25,0.3525
1017.00,0.3542
1016.75,0.3560
1016.50,0.3576
1016.25,0.3591
1016.00,0.3604
1015.75,0.3618
1015.50,0.3630
1015.25,0.3642
1015.00,0.3652
1014.75,0.3660
1014.50,0.3667
1014.25,0.3673
1014.00,0.3680
1013.75,0.3686
1013.50,0.3691
1013.25,0.3694
1013.00,0.3697
1012.75,0.3697
1012.50,0.3694
1012.25,0.3686
1012.00,0.3675
1011.75,0.3661
1011.50,0.3647
1011.25,0.3634
1011.00,0.3621
1010.75,0.3607
1010.50,0.3591
1010.25,0.3571
1010.00,0.3548
1009.75,0.3521
1009.50,0.3492
1009.25,0.3461
1009.00,0.3428
1008.75,0.3395
1008.50,0.3361
1008.25,0.3327
1008.00,0.3290
1007.75,0.3251
1007.50,0.3208
1007.25,0.3163
1007.00,0.3117
1006.75,0.3072
1006.50,0.3025
1006.25,0.2977
1006.00,0.2928
1005.75,0.2879
1005.50,0.2832
1005.25,0.2785
1005.00,0.2738
1004.75,0.2690
1004.50,0.2640
1004.25,0.2590
1004.00,0.2541
1003.75,0.2491
1003.50,0.2441
1003.25,0.2389
1003.00,0.2337
1002.75,0.2286
1002.50,0.2236
1002.25,0.2189
1002.00,0.2144
1001.75,0.2099
1001.50,0.2055
1001.25,0.2011
1001.00,0.1969
1000.75,0.1928
1000.50,0.1888
1000.25,0.1848
1000.00,0.1808
999.75,0.1765
999.50,0.1723
999.25,0.1683
999.00,0.1645
998.75,0.1609
998.50,0.1573
998.25,0.1538
998.00,0.1503
997.75,0.1470
997.50,0.1440
997.25,0.1412
997.00,0.1386
996.75,0.1359
996.50,0.1332
996.25,0.1304
996.00,0.1276
995.75,0.1249
995.50,0.1222
995.25,0.1197
995.00,0.1173
994.75,0.1151
994.50,0.1129
994.25,0.1107
994.00,0.1086
993.75,0.1066
993.50,0.1047
993.25,0.1029
993.00,0.1010
992.75,0.0991
992.50,0.0972
992.25,0.0953
992.00,0.0934
991.75,0.0915
991.50,0.0898
991.25,0.0882
991.00,0.0868
990.75,0.0854
990.50,0.0840
990.25,0.0826
990.00,0.0811
989.75,0.0796
989.50,0.0782
989.25,0.0770
989.00,0.0759
988.75,0.0748
988.50,0.0737
988.25,0.0726
988.00,0.0715
987.75,0.0703
987.50,0.0692
987.25,0.0680
987.00,0.0669
986.75,0.0657
986.50,0.0646
986.25,0.0635
986.00,0.0626
985.75,0.0618
985.50,0.0613
985.25,0.0607
985.00,0.0600
984.75,0.0592
984.50,0.0582
984.25,0.0573
984.00,0.0563
983.75,0.0553
983.50,0.0544
983.25,0.0536
983.00,0.0528
982.75,0.0520
982.50,0.0513
982.25,0.0507
982.00,0.0501
981.75,0.0495
981.50,0.0491
981.25,0.0487
981.00,0.0484
980.75,0.0480
980.50,0.0476
980.25,0.0470
980.00,0.0464
979.75,0.0458
979.50,0.0451
979.25,0.0445
979.00,0.0439
978.75,0.0434
978.50,0.0431
978.25,0.0428
978.00,0.0425
977.75,0.0420
977.50,0.0414
977.25,0.0408
977.00,0.0402
976.75,0.0397
976.50,0.0393
976.25,0.0391
976.00,0.0387
975.75,0.0383
975.50,0.0377
975.25,0.0371
975.00,0.0366
974.75,0.0363
974.50,0.0361
974.25,0.0359
974.00,0.0357
973.75,0.0354
973.50,0.0352
973.25,0.0349
973.00,0.0346
972.75,0.0342
972.50,0.0338
972.25,0.0334
972.00,0.0330
971.75,0.0327
971.50,0.0326
971.25,0.0326
971.00,0.0327
970.75,0.0327
970.50,0.0325
970.25,0.0321
970.00,0.0318
969.75,0.0315
969.50,0.0314
969.25,0.0313
969.00,0.0312
968.75,0.0310
968.50,0.0307
968.25,0.0304
968.00,0.0301
967.75,0.0300
967.50,0.0300
967.25,0.0300
967.00,0.0299
966.75,0.0296
966.50,0.0292
966.25,0.0288
966.00,0.0286
965.75,0.0285
965.50,0.0284
965.25,0.0283
965.00,0.0282
964.75,0.0279
964.50,0.0276
964.25,0.0274
964.00,0.0273
963.75,0.0273
963.50,0.0273
963.25,0.0273
963.00,0.0272
962.75,0.0269
962.50,0.0265
962.25,0.0263
962.00,0.0261
961.75,0.0260
961.50,0.0261
961.25,0.0262
961.00,0.0262
960.75,0.0263
960.50,0.0263
960.25,0.0263
960.00,0.0262
959.75,0.0260
959.50,0.0258
959.25,0.0257
959.00,0.0257
958.75,0.0258
958.50,0.0258
958.25,0.0257
958.00,0.0256
957.75,0.0254
957.50,0.0252
957.25,0.0251
957.00,0.0249
956.75,0.0249
956.50,0.0250
956.25,0.0251
956.00,0.0252
955.75,0.0251
955.50,0.0249
955.25,0.0248
955.00,0.0248
954.75,0.0249
954.50,0.0249
954.25,0.0247
954.00,0.0243
953.75,0.0240
953.50,0.0238
953.25,0.0237
953.00,0.0236
952.75,0.0233
952.50,0.0229
952.25,0.0226
952.00,0.0224
951.75,0.0223
951.50,0.0224
951.25,0.0223
951.00,0.0221
950.75,0.0219
950.50,0.0216
950.25,0.0214
950.00,0.0213
949.75,0.0214
949.50,0.0214
949.25,0.0214
949.00,0.0213
948.75,0.0212
948.50,0.0211
948.25,0.0210
948.00,0.0210
947.75,0.0209
947.50,0.0208
947.25,0.0208
947.00,0.0208
946.75,0.0208
946.50,0.0209
946.25,0.0209
946.00,0.0208
945.75,0.0206
945.50,0.0205
945.25,0.0203
945.00,0.0201
944.75,0.0199
944.50,0.0197
944.25,0.0196
944.00,0.0197
943.75,0.0198
943.50,0.0199
943.25,0.0200
943.00,0.0201
942.75,0.0201
942.50,0.0200
942.25,0.0199
942.00,0.0198
941.75,0.0197
941.50,0.0197
941.25,0.0197
941.00,0.0198
940.75,0.0198
940.50,0.0198
940.25,0.0198
940.00,0.0197
939.75,0.0195
939.50,0.0194
939.25,0.0194
939.00,0.0195
938.75,0.0196
938.50,0.0198
938.25,0.0197
938.00,0.0196
937.75,0.0194
937.50,0.0193
937.25,0.0192
937.00,0.0191
936.75,0.0190
936.50,0.0189
936.25,0.0189
936.00,0.0189
935.75,0.0189
935.50,0.0190
935.25,0.0192
935.00,0.0193
934.75,0.0194
934.50,0.0196
934.25,0.0196
934.00,0.0196
933.75,0.0194
933.50,0.0192
933.25,0.0191
933.00,0.0191
932.75,0.0193
932.50,0.0196
932.25,0.0199
932.00,0.0202
931.75,0.0203
931.50,0.0204
931.25,0.0204
931.00,0.0204
930.75,0.0204
930.50,0.0205
930.25,0.0205
930.00,0.0206
929.75,0.0207
929.50,0.0209
929.25,0.0211
929.00,0.0213
928.75,0.0213
928.50,0.0212
928.25,0.0211
928.00,0.0209
927.75,0.0208
927.50,0.0209
927.25,0.0211
927.00,0.0215
926.75,0.0218
926.50,0.0221
926.25,0.0223
926.00,0.0223
925.75,0.0223
925.50,0.0224
925.25,0.0225
925.00,0.0226
924.75,0.0227
924.50,0.0227
924.25,0.0225
924.00,0.0223
923.75,0.0220
923.50,0.0220
923.25,0.0220
923.00,0.0222
922.75,0.0224
922.50,0.0226
922.25,0.0229
922.00,0.0233
921.75,0.0236
921.50,0.0240
921.25,0.0243
921.00,0.0246
920.75,0.0248
920.50,0.0249
920.25,0.0250
920.00,0.0252
919.75,0.0255
919.50,0.0260
919.25,0.0264
919.00,0.0266
918.75,0.0266
918.50,0.0265
918.25,0.0266
918.00,0.0269
917.75,0.0274
917.50,0.0278
917.25,0.0283
917.00,0.0287
916.75,0.0291
916.50,0.0295
916.25,0.0298
916.00,0.0298
915.75,0.0298
915.50,0.0297
915.25,0.0297
915.00,0.0298
914.75,0.0300
914.50,0.0302
914.25,0.0304
914.00,0.0306
913.75,0.0308
913.50,0.0310
913.25,0.0312
913.00,0.0315
912.75,0.0318
912.50,0.0320
912.25,0.0323
912.00,0.0325
911.75,0.0326
911.50,0.0326
911.25,0.0325
911.00,0.0322
910.75,0.0319
910.50,0.0316
910.25,0.0315
910.00,0.0315
909.75,0.0315
909.50,0.0315
909.25,0.0315
909.00,0.0314
908.75,0.0313
908.50,0.0312
908.25,0.0311
908.00,0.0310
907.75,0.0309
907.50,0.0307
907.25,0.0305
907.00,0.0304
906.75,0.0302
906.50,0.0301
906.25,0.0299
906.00,0.0297
905.75,0.0296
905.50,0.0294
905.25,0.0293
905.00,0.0291
904.75,0.0288
904.50,0.0287
904.25,0.0286
904.00,0.0286
903.75,0.0288
903.50,0.0290
903.25,0.0291
903.00,0.0291
902.75,0.0289
902.50,0.0287
902.25,0.0286
902.00,0.0286
901.75,0.0287
901.50,0.0288
901.25,0.0290
901.00,0.0291
900.75,0.0291
900.50,0.0292
900.25,0.0293
900.00,0.0296
899.75,0.0298
899.50,0.0299
899.25,0.0299
899.00,0.0299
898.75,0.0300
898.50,0.0302
898.25,0.0306
898.00,0.0310
897.75,0.0314
897.50,0.0316
897.25,0.0316
897.00,0.0315
896.75,0.0312
896.50,0.0311
896.25,0.0311
896.00,0.0312
895.75,0.0314
895.50,0.0318
895.25,0.0323
895.00,0.0329
894.75,0.0335
894.50,0.0340
894.25,0.0341
894.00,0.0341
893.75,0.0340
893.50,0.0340
893.25,0.0342
893.00,0.0345
892.75,0.0347
892.50,0.0348
892.25,0.0349
892.00,0.0349
891.75,0.0350
891.50,0.0352
891.25,0.0355
891.00,0.0359
890.75,0.0363
890.50,0.0367
890.25,0.0369
890.00,0.0370
889.75,0.0369
889.50,0.0370
889.25,0.0373
889.00,0.0378
888.75,0.0383
888.50,0.0389
888.25,0.0393
888.00,0.0396
887.75,0.0399
887.50,0.0402
887.25,0.0406
887.00,0.0411
886.75,0.0414
886.50,0.0418
886.25,0.0421
886.00,0.0424
885.75,0.0427
885.50,0.0431
885.25,0.0436
885.00,0.0443
884.75,0.0451
884.50,0.0460
884.25,0.0467
884.00,0.0473
883.75,0.0477
883.50,0.0482
883.25,0.0487
883.00,0.0493
882.75,0.0498
882.50,0.0502
882.25,0.0506
882.00,0.0512
881.75,0.0519
881.50,0.0526
881.25,0.0532
881.00,0.0535
880.75,0.0538
880.50,0.0543
880.25,0.0549
880.00,0.0555
879.75,0.0559
879.50,0.0563
879.25,0.0568
879.00,0.0576
878.75,0.0586
878.50,0.0598
878.25,0.0610
878.00,0.0620
877.75,0.0629
877.50,0.0636
877.25,0.0644
877.00,0.0654
876.75,0.0665
876.50,0.0676
876.25,0.0686
876.00,0.0696
875.75,0.0704
875.50,0.0713
875.25,0.0722
875.00,0.0731
874.75,0.0740
874.50,0.0747
874.25,0.0754
874.00,0.0761
873.75,0.0770
873.50,0.0780
873.25,0.0792
873.00,0.0806
872.75,0.0822
872.50,0.0836
872.25,0.0850
872.00,0.0863
871.75,0.0877
871.50,0.0891
871.25,0.0907
871.00,0.0922
870.75,0.0936
870.50,0.0949
870.25,0.0961
870.00,0.0974
869.75,0.0988
869.50,0.1002
869.25,0.1014
869.00,0.1023
868.75,0.1031
868.50,0.1038
868.25,0.1046
868.00,0.1055
867.75,0.1063
867.50,0.1069
867.25,0.1074
867.00,0.1077
866.75,0.1080
866.50,0.1085
866.25,0.1091
866.00,0.1097
865.75,0.1102
865.50,0.1106
865.25,0.1110
865.00,0.1114
864.75,0.1118
864.50,0.1121
864.25,0.1122
864.00,0.1123
863.75,0.1122
863.50,0.1121
863.25,0.1118
863.00,0.1115
862.75,0.1112
862.50,0.1109
862.25,0.1106
862.00,0.1101
861.75,0.1095
861.50,0.1089
861.25,0.1083
861.00,0.1080
860.75,0.1077
860.50,0.1075
860.25,0.1073
860.00,0.1070
859.75,0.1064
859.50,0.1057
859.25,0.1048
859.00,0.1039
858.75,0.1033
858.50,0.1031
858.25,0.1030
858.00,0.1030
857.75,0.1029
857.50,0.1024
857.25,0.1019
857.00,0.1013
856.75,0.1007
856.50,0.1003
856.25,0.1001
856.00,0.1002
855.75,0.1006
855.50,0.1013
855.25,0.1020
855.00,0.1026
854.75,0.1031
854.50,0.1034
854.25,0.1037
854.00,0.1042
853.75,0.1047
853.50,0.1052
853.25,0.1057
853.00,0.1063
852.75,0.1069
852.50,0.1075
852.25,0.1081
852.00,0.1086
851.75,0.1094
851.50,0.1104
851.25,0.1116
851.00,0.1128
850.75,0.1140
850.50,0.1152
850.25,0.1162
850.00,0.1170
849.75,0.1178
849.50,0.1187
849.25,0.1197
849.00,0.1210
848.75,0.1223
848.50,0.1235
848.25,0.1246
848.00,0.1256
847.75,0.1266
847.50,0.1277
847.25,0.1290
847.00,0.1303
846.75,0.1314
846.50,0.1324
846.25,0.1335
846.00,0.1347
845.75,0.1360
845.50,0.1369
845.25,0.1372
845.00,0.1370
844.75,0.1367
844.50,0.1367
844.25,0.1372
844.00,0.1381
843.75,0.1390
843.50,0.1395
843.25,0.1396
843.00,0.1393
842.75,0.1388
842.50,0.1384
842.25,0.1380
842.00,0.1378
841.75,0.1376
841.50,0.1374
841.25,0.1371
841.00,0.1366
840.75,0.1359
840.50,0.1351
840.25,0.1343
840.00,0.1334
839.75,0.1323
839.50,0.1310
839.25,0.1294
839.00,0.1280
838.75,0.1267
838.50,0.1257
838.25,0.1248
838.00,0.1238
837.75,0.1226
837.50,0.1213
837.25,0.1199
837.00,0.1186
836.75,0.1175
836.50,0.1167
836.25,0.1162
836.00,0.1157
835.75,0.1151
835.50,0.1142
835.25,0.1131
835.00,0.1119
834.75,0.1108
834.50,0.1099
834.25,0.1091
834.00,0.1084
833.75,0.1078
833.50,0.1070
833.25,0.1062
833.00,0.1056
832.75,0.1052
832.50,0.1053
832.25,0.1057
832.00,0.1062
831.75,0.1065
831.50,0.1066
831.25,0.1065
831.00,0.1063
830.75,0.1060
830.50,0.1058
830.25,0.1058
830.00,0.1061
829.75,0.1067
829.50,0.1077
829.25,0.1088
829.00,0.1099
828.75,0.1108
828.50,0.1114
828.25,0.1117
828.00,0.1120
827.75,0.1124
827.50,0.1131
827.25,0.1142
827.00,0.1156
826.75,0.1171
826.50,0.1187
826.25,0.1204
826.00,0.1223
825.75,0.1242
825.50,0.1261
825.25,0.1280
825.00,0.1299
824.75,0.1319
824.50,0.1340
824.25,0.1362
824.00,0.1381
823.75,0.1396
823.50,0.1411
823.25,0.1426
823.00,0.1444
822.75,0.1467
822.50,0.1491
822.25,0.1517
822.00,0.1541
821.75,0.1563
821.50,0.1582
821.25,0.1601
821.00,0.1620
820.75,0.1640
820.50,0.1661
820.25,0.1681
820.00,0.1699
819.75,0.1716
819.50,0.1732
819.25,0.1748
819.00,0.1764
818.75,0.1778
818.50,0.1791
818.25,0.1801
818.00,0.1811
817.75,0.1822
817.50,0.1836
817.25,0.1851
817.00,0.1865
816.75,0.1878
816.50,0.1890
816.25,0.1902
816.00,0.1913
815.75,0.1924
815.50,0.1933
815.25,0.1942
815.00,0.1954
814.75,0.1968
814.50,0.1984
814.25,0.2001
814.00,0.2018
813.75,0.2034
813.50,0.2050
813.25,0.2063
813.00,0.2075
812.75,0.2087
812.50,0.2100
812.25,0.2114
812.00,0.2129
811.75,0.2146
811.50,0.2163
811.25,0.2182
811.00,0.2202
810.75,0.2226
810.50,0.2251
810.25,0.2278
810.00,0.2303
809.75,0.2328
809.50,0.2352
809.25,0.2377
809.00,0.2403
808.75,0.2430
808.50,0.2456
808.25,0.2482
808.00,0.2509
807.75,0.2538
807.50,0.2571
807.25,0.2605
807.00,0.2641
806.75,0.2677
806.50,0.2713
806.25,0.2751
806.00,0.2789
805.75,0.2824
805.50,0.2857
805.25,0.2888
805.00,0.2920
804.75,0.2956
804.50,0.2994
804.25,0.3035
804.00,0.3078
803.75,0.3120
803.50,0.3162
803.25,0.3203
803.00,0.3243
802.75,0.3283
802.50,0.3323
802.25,0.3365
802.00,0.3408
801.75,0.3453
801.50,0.3499
801.25,0.3546
801.00,0.3591
800.75,0.3636
800.50,0.3679
800.25,0.3723
800.00,0.3770
