Created as New Dataset,Sample 034 By irlear Date Thursday, January 01 2009
cm-1,A
4000.00,0.0067
3999.75,0.0068
3999.50,0.0067
3999.25,0.0066
3999.00,0.0064
3998.75,0.0063
3998.50,0.0062
3998.25,0.0062
3998.00,0.0063
3997.75,0.0064
3997.50,0.0065
3997.25,0.0065
3997.00,0.0066
3996.75,0.0067
3996.50,0.0068
3996.25,0.0068
3996.00,0.0068
3995.75,0.0068
3995.50,0.0067
3995.25,0.0066
3995.00,0.0065
3994.75,0.0065
3994.50,0.0066
3994.25,0.0067
3994.00,0.0067
3993.75,0.0066
3993.50,0.0066
3993.25,0.0065
3993.00,0.0065
3992.75,0.0065
3992.50,0.0065
3992.25,0.0064
3992.00,0.0064
3991.75,0.0064
3991.50,0.0065
3991.25,0.0066
3991.00,0.0066
3990.75,0.0066
3990.50,0.0065
3990.25,0.0064
3990.00,0.0064
3989.75,0.0064
3989.50,0.0065
3989.25,0.0066
3989.00,0.0066
3988.75,0.0066
3988.50,0.0066
3988.25,0.0065
3988.00,0.0065
3987.75,0.0065
3987.50,0.0065
3987.25,0.0066
3987.00,0.0066
3986.75,0.0066
3986.50,0.0066
3986.25,0.0066
3986.00,0.0066
3985.75,0.0066
3985.50,0.0066
3985.25,0.0066
3985.00,0.0066
3984.75,0.0066
3984.50,0.0066
3984.25,0.0066
3984.00,0.0067
3983.75,0.0068
3983.50,0.0069
3983.25,0.0070
3983.00,0.0071
3982.75,0.0070
3982.50,0.0069
3982.25,0.0068
3982.00,0.0067
3981.75,0.0066
3981.50,0.0066
3981.25,0.0065
3981.00,0.0065
3980.75,0.0065
3980.50,0.0064
3980.25,0.0064
3980.00,0.0063
3979.75,0.0063
3979.50,0.0064
3979.25,0.0064
3979.00,0.0064
3978.75,0.0064
3978.50,0.0063
3978.25,0.0062
3978.00,0.0062
3977.75,0.0062
3977.50,0.0063
3977.25,0.0065
3977.00,0.0066
3976.75,0.0066
3976.50,0.0066
3976.25,0.0066
3976.00,0.0065
3975.75,0.0065
3975.50,0.0064
3975.25,0.0064
3975.00,0.0063
3974.75,0.0062
3974.50,0.0061
3974.25,0.0062
3974.00,0.0063
3973.75,0.0065
3973.50,0.0066
3973.25,0.0066
3973.00,0.0067
3972.75,0.0068
3972.50,0.0069
3972.25,0.0070
3972.00,0.0071
3971.75,0.0070
3971.50,0.0068
3971.25,0.0066
3971.00,0.0064
3970.75,0.0063
3970.50,0.0064
3970.25,0.0065
3970.00,0.0066
3969.75,0.0067
3969.50,0.0067
3969.25,0.0066
3969.00,0.0064
3968.75,0.0062
3968.50,0.0061
3968.25,0.0061
3968.00,0.0062
3967.75,0.0063
3967.50,0.0065
3967.25,0.0066
3967.00,0.0066
3966.75,0.0067
3966.50,0.0067
3966.25,0.0066
3966.00,0.0066
3965.75,0.0065
3965.50,0.0065
3965.25,0.0065
3965.00,0.0064
3964.75,0.0063
3964.50,0.0062
3964.25,0.0062
3964.00,0.0062
3963.75,0.0063
3963.50,0.0064
3963.25,0.0066
3963.00,0.0067
3962.75,0.0067
3962.50,0.0068
3962.25,0.0068
3962.00,0.0067
3961.75,0.0066
3961.50,0.0065
3961.25,0.0064
3961.00,0.0064
3960.75,0.0064
3960.50,0.0065
3960.25,0.0067
3960.00,0.0067
3959.75,0.0067
3959.50,0.0066
3959.25,0.0064
3959.00,0.0062
3958.75,0.0061
3958.50,0.0061
3958.25,0.0063
3958.00,0.0065
3957.75,0.0067
3957.50,0.0069
3957.25,0.0070
3957.00,0.0070
3956.75,0.0069
3956.50,0.0068
3956.25,0.0067
3956.00,0.0066
3955.75,0.0065
3955.50,0.0064
3955.25,0.0063
3955.00,0.0062
3954.75,0.0062
3954.50,0.0062
3954.25,0.0062
3954.00,0.0063
3953.75,0.0065
3953.50,0.0066
3953.25,0.0067
3953.00,0.0068
3952.75,0.0067
3952.50,0.0066
3952.25,0.0065
3952.00,0.0064
3951.75,0.0063
3951.50,0.0063
3951.25,0.0063
3951.00,0.0064
3950.75,0.0064
3950.50,0.0064
3950.25,0.0065
3950.00,0.0065
3949.75,0.0066
3949.50,0.0067
3949.25,0.0067
3949.00,0.0066
3948.75,0.0065
3948.50,0.0065
3948.25,0.0064
3948.00,0.0063
3947.75,0.0063
3947.50,0.0063
3947.25,0.0064
3947.00,0.0066
3946.75,0.0068
3946.50,0.0068
3946.25,0.0067
3946.00,0.0066
3945.75,0.0065
3945.50,0.0065
3945.25,0.0067
3945.00,0.0069
3944.75,0.0070
3944.50,0.0071
3944.25,0.0071
3944.00,0.0069
3943.75,0.0068
3943.50,0.0067
3943.25,0.0066
3943.00,0.0066
3942.75,0.0067
3942.50,0.0068
3942.25,0.0068
3942.00,0.0067
3941.75,0.0066
3941.50,0.0066
3941.25,0.0066
3941.00,0.0066
3940.75,0.0066
3940.50,0.0066
3940.25,0.0066
3940.00,0.0066
3939.75,0.0066
3939.50,0.0065
3939.25,0.0064
3939.00,0.0063
3938.75,0.0064
3938.50,0.0065
3938.25,0.0066
3938.00,0.0066
3937.75,0.0066
3937.50,0.0066
3937.25,0.0065
3937.00,0.0064
3936.75,0.0063
3936.50,0.0061
3936.25,0.0060
3936.00,0.0059
3935.75,0.0059
3935.50,0.0060
3935.25,0.0062
3935.00,0.0063
3934.75,0.0064
3934.50,0.0065
3934.25,0.0065
3934.00,0.0065
3933.75,0.0066
3933.50,0.0066
3933.25,0.0067
3933.00,0.0067
3932.75,0.0067
3932.50,0.0068
3932.25,0.0070
3932.00,0.0071
3931.75,0.0070
3931.50,0.0069
3931.25,0.0068
3931.00,0.0068
3930.75,0.0067
3930.50,0.0067
3930.25,0.0067
3930.00,0.0067
3929.75,0.0067
3929.50,0.0067
3929.25,0.0067
3929.00,0.0067
3928.75,0.0067
3928.50,0.0066
3928.25,0.0065
3928.00,0.0064
3927.75,0.0064
3927.50,0.0064
3927.25,0.0064
3927.00,0.0064
3926.75,0.0063
3926.50,0.0062
3926.25,0.0061
3926.00,0.0062
3925.75,0.0062
3925.50,0.0064
3925.25,0.0066
3925.00,0.0068
3924.75,0.0069
3924.50,0.0069
3924.25,0.0068
3924.00,0.0066
3923.75,0.0065
3923.50,0.0064
3923.25,0.0065
3923.00,0.0066
3922.75,0.0067
3922.50,0.0069
3922.25,0.0071
3922.00,0.0072
3921.75,0.0072
3921.50,0.0070
3921.25,0.0068
3921.00,0.0065
3920.75,0.0064
3920.50,0.0063
3920.25,0.0063
3920.00,0.0063
3919.75,0.0063
3919.50,0.0062
3919.25,0.0062
3919.00,0.0061
3918.75,0.0062
3918.50,0.0063
3918.25,0.0064
3918.00,0.0065
3917.75,0.0064
3917.50,0.0063
3917.25,0.0061
3917.00,0.0061
3916.75,0.0063
3916.50,0.0065
3916.25,0.0067
3916.00,0.0067
3915.75,0.0067
3915.50,0.0067
3915.25,0.0067
3915.00,0.0068
3914.75,0.0068
3914.50,0.0069
3914.25,0.0068
3914.00,0.0068
3913.75,0.0067
3913.50,0.0066
3913.25,0.0066
3913.00,0.0066
3912.75,0.0065
3912.50,0.0064
3912.25,0.0064
3912.00,0.0063
3911.75,0.0062
3911.50,0.0061
3911.25,0.0061
3911.00,0.0062
3910.75,0.0063
3910.50,0.0064
3910.25,0.0065
3910.00,0.0065
3909.75,0.0066
3909.50,0.0066
3909.25,0.0067
3909.00,0.0067
3908.75,0.0067
3908.50,0.0067
3908.25,0.0066
3908.00,0.0066
3907.75,0.0065
3907.50,0.0064
3907.25,0.0064
3907.00,0.0063
3906.75,0.0063
3906.50,0.0063
3906.25,0.0063
3906.00,0.0065
3905.75,0.0066
3905.50,0.0068
3905.25,0.0068
3905.00,0.0068
3904.75,0.0066
3904.50,0.0063
3904.25,0.0061
3904.00,0.0061
3903.75,0.0062
3903.50,0.0063
3903.25,0.0063
3903.00,0.0064
3902.75,0.0064
3902.50,0.0065
3902.25,0.0065
3902.00,0.0065
3901.75,0.0064
3901.50,0.0062
3901.25,0.0061
3901.00,0.0061
3900.75,0.0063
3900.50,0.0065
3900.25,0.0067
3900.00,0.0069
3899.75,0.0069
3899.50,0.0067
3899.25,0.0064
3899.00,0.0061
3898.75,0.0061
3898.50,0.0062
3898.25,0.0063
3898.00,0.0065
3897.75,0.0066
3897.50,0.0067
3897.25,0.0068
3897.00,0.0067
3896.75,0.0067
3896.50,0.0066
3896.25,0.0066
3896.00,0.0067
3895.75,0.0068
3895.50,0.0069
3895.25,0.0068
3895.00,0.0068
3894.75,0.0066
3894.50,0.0065
3894.25,0.0065
3894.00,0.0065
3893.75,0.0065
3893.50,0.0065
3893.25,0.0064
3893.00,0.0064
3892.75,0.0064
3892.50,0.0066
3892.25,0.0067
3892.00,0.0068
3891.75,0.0068
3891.50,0.0067
3891.25,0.0065
3891.00,0.0063
3890.75,0.0062
3890.50,0.0062
3890.25,0.0063
3890.00,0.0064
3889.75,0.0066
3889.50,0.0068
3889.25,0.0069
3889.00,0.0070
3888.75,0.0071
3888.50,0.0071
3888.25,0.0070
3888.00,0.0068
3887.75,0.0066
3887.50,0.0064
3887.25,0.0063
3887.00,0.0062
3886.75,0.0063
3886.50,0.0064
3886.25,0.0064
3886.00,0.0064
3885.75,0.0065
3885.50,0.0065
3885.25,0.0065
3885.00,0.0067
3884.75,0.0068
3884.50,0.0069
3884.25,0.0070
3884.00,0.0071
3883.75,0.0070
3883.50,0.0070
3883.25,0.0069
3883.00,0.0067
3882.75,0.0066
3882.50,0.0065
3882.25,0.0064
3882.00,0.0065
3881.75,0.0066
3881.50,0.0067
3881.25,0.0068
3881.00,0.0068
3880.75,0.0067
3880.50,0.0065
3880.25,0.0064
3880.00,0.0063
3879.75,0.0061
3879.50,0.0060
3879.25,0.0059
3879.00,0.0059
3878.75,0.0060
3878.50,0.0061
3878.25,0.0064
3878.00,0.0066
3877.75,0.0067
3877.50,0.0066
3877.25,0.0065
3877.00,0.0064
3876.75,0.0062
3876.50,0.0062
3876.25,0.0062
3876.00,0.0063
3875.75,0.0064
3875.50,0.0066
3875.25,0.0066
3875.00,0.0066
3874.75,0.0064
3874.50,0.0062
3874.25,0.0063
3874.00,0.0065
3873.75,0.0065
3873.50,0.0065
3873.25,0.0064
3873.00,0.0062
3872.75,0.0062
3872.50,0.0061
3872.25,0.0062
3872.00,0.0064
3871.75,0.0066
3871.50,0.0069
3871.25,0.0071
3871.00,0.0071
3870.75,0.0070
3870.50,0.0067
3870.25,0.0063
3870.00,0.0061
3869.75,0.0062
3869.50,0.0066
3869.25,0.0070
3869.00,0.0071
3868.75,0.0071
3868.50,0.0068
3868.25,0.0066
3868.00,0.0063
3867.75,0.0062
3867.50,0.0061
3867.25,0.0061
3867.00,0.0061
3866.75,0.0061
3866.50,0.0062
3866.25,0.0064
3866.00,0.0065
3865.75,0.0066
3865.50,0.0067
3865.25,0.0066
3865.00,0.0067
3864.75,0.0068
3864.50,0.0068
3864.25,0.0068
3864.00,0.0068
3863.75,0.0068
3863.50,0.0069
3863.25,0.0070
3863.00,0.0071
3862.75,0.0072
3862.50,0.0071
3862.25,0.0069
3862.00,0.0066
3861.75,0.0064
3861.50,0.0064
3861.25,0.0064
3861.00,0.0064
3860.75,0.0063
3860.50,0.0062
3860.25,0.0062
3860.00,0.0062
3859.75,0.0063
3859.50,0.0065
3859.25,0.0065
3859.00,0.0066
3858.75,0.0067
3858.50,0.0068
3858.25,0.0069
3858.00,0.0069
3857.75,0.0069
3857.50,0.0068
3857.25,0.0067
3857.00,0.0067
3856.75,0.0068
3856.50,0.0068
3856.25,0.0067
3856.00,0.0066
3855.75,0.0065
3855.50,0.0065
3855.25,0.0065
3855.00,0.0067
3854.75,0.0068
3854.50,0.0069
3854.25,0.0072
3854.00,0.0081
3853.75,0.0086
3853.50,0.0083
3853.25,0.0078
3853.00,0.0074
3852.75,0.0070
3852.50,0.0065
3852.25,0.0062
3852.00,0.0061
3851.75,0.0062
3851.50,0.0064
3851.25,0.0065
3851.00,0.0064
3850.75,0.0064
3850.50,0.0064
3850.25,0.0064
3850.00,0.0066
3849.75,0.0067
3849.50,0.0068
3849.25,0.0068
3849.00,0.0068
3848.75,0.0067
3848.50,0.0067
3848.25,0.0067
3848.00,0.0067
3847.75,0.0068
3847.50,0.0068
3847.25,0.0067
3847.00,0.0066
3846.75,0.0065
3846.50,0.0064
3846.25,0.0065
3846.00,0.0066
3845.75,0.0067
3845.50,0.0067
3845.25,0.0067
3845.00,0.0067
3844.75,0.0067
3844.50,0.0067
3844.25,0.0068
3844.00,0.0068
3843.75,0.0068
3843.50,0.0066
3843.25,0.0064
3843.00,0.0061
3842.75,0.0060
3842.50,0.0061
3842.25,0.0062
3842.00,0.0064
3841.75,0.0065
3841.50,0.0065
3841.25,0.0063
3841.00,0.0061
3840.75,0.0060
3840.50,0.0060
3840.25,0.0062
3840.00,0.0065
3839.75,0.0067
3839.50,0.0069
3839.25,0.0069
3839.00,0.0069
3838.75,0.0068
3838.50,0.0068
3838.25,0.0067
3838.00,0.0067
3837.75,0.0069
3837.50,0.0069
3837.25,0.0068
3837.00,0.0068
3836.75,0.0069
3836.50,0.0069
3836.25,0.0068
3836.00,0.0068
3835.75,0.0066
3835.50,0.0062
3835.25,0.0059
3835.00,0.0057
3834.75,0.0057
3834.50,0.0059
3834.25,0.0060
3834.00,0.0061
3833.75,0.0061
3833.50,0.0062
3833.25,0.0063
3833.00,0.0065
3832.75,0.0067
3832.50,0.0068
3832.25,0.0067
3832.00,0.0066
3831.75,0.0065
3831.50,0.0065
3831.25,0.0066
3831.00,0.0066
3830.75,0.0066
3830.50,0.0066
3830.25,0.0064
3830.00,0.0064
3829.75,0.0063
3829.50,0.0063
3829.25,0.0064
3829.00,0.0064
3828.75,0.0064
3828.50,0.0064
3828.25,0.0065
3828.00,0.0066
3827.75,0.0067
3827.50,0.0069
3827.25,0.0071
3827.00,0.0072
3826.75,0.0073
3826.50,0.0073
3826.25,0.0071
3826.00,0.0069
3825.75,0.0066
3825.50,0.0065
3825.25,0.0065
3825.00,0.0066
3824.75,0.0068
3824.50,0.0069
3824.25,0.0071
3824.00,0.0071
3823.75,0.0071
3823.50,0.0070
3823.25,0.0069
3823.00,0.0068
3822.75,0.0066
3822.50,0.0065
3822.25,0.0063
3822.00,0.0061
3821.75,0.0060
3821.50,0.0061
3821.25,0.0062
3821.00,0.0062
3820.75,0.0062
3820.50,0.0063
3820.25,0.0067
3820.00,0.0070
3819.75,0.0071
3819.50,0.0071
3819.25,0.0070
3819.00,0.0068
3818.75,0.0067
3818.50,0.0067
3818.25,0.0068
3818.00,0.0069
3817.75,0.0070
3817.50,0.0070
3817.25,0.0070
3817.00,0.0070
3816.75,0.0070
3816.50,0.0070
3816.25,0.0071
3816.00,0.0073
3815.75,0.0073
3815.50,0.0071
3815.25,0.0068
3815.00,0.0066
3814.75,0.0064
3814.50,0.0064
3814.25,0.0065
3814.00,0.0066
3813.75,0.0067
3813.50,0.0068
3813.25,0.0068
3813.00,0.0068
3812.75,0.0069
3812.50,0.0069
3812.25,0.0069
3812.00,0.0068
3811.75,0.0068
3811.50,0.0067
3811.25,0.0066
3811.00,0.0066
3810.75,0.0066
3810.50,0.0066
3810.25,0.0065
3810.00,0.0065
3809.75,0.0064
3809.50,0.0063
3809.25,0.0062
3809.00,0.0062
3808.75,0.0063
3808.50,0.0065
3808.25,0.0067
3808.00,0.0069
3807.75,0.0071
3807.50,0.0073
3807.25,0.0073
3807.00,0.0073
3806.75,0.0072
3806.50,0.0070
3806.25,0.0067
3806.00,0.0066
3805.75,0.0064
3805.50,0.0063
3805.25,0.0063
3805.00,0.0064
3804.75,0.0065
3804.50,0.0066
3804.25,0.0066
3804.00,0.0066
3803.75,0.0064
3803.50,0.0064
3803.25,0.0064
3803.00,0.0065
3802.75,0.0068
3802.50,0.0071
3802.25,0.0073
3802.00,0.0072
3801.75,0.0070
3801.50,0.0069
3801.25,0.0071
3801.00,0.0074
3800.75,0.0075
3800.50,0.0074
3800.25,0.0071
3800.00,0.0068
3799.75,0.0065
3799.50,0.0064
3799.25,0.0063
3799.00,0.0063
3798.75,0.0064
3798.50,0.0065
3798.25,0.0066
3798.00,0.0066
3797.75,0.0067
3797.50,0.0068
3797.25,0.0069
3797.00,0.0069
3796.75,0.0068
3796.50,0.0067
3796.25,0.0067
3796.00,0.0068
3795.75,0.0068
3795.50,0.0068
3795.25,0.0067
3795.00,0.0067
3794.75,0.0067
3794.50,0.0067
3794.25,0.0067
3794.00,0.0067
3793.75,0.0066
3793.50,0.0066
3793.25,0.0065
3793.00,0.0064
3792.75,0.0063
3792.50,0.0063
3792.25,0.0064
3792.00,0.0065
3791.75,0.0065
3791.50,0.0065
3791.25,0.0065
3791.00,0.0064
3790.75,0.0063
3790.50,0.0063
3790.25,0.0062
3790.00,0.0062
3789.75,0.0062
3789.50,0.0062
3789.25,0.0063
3789.00,0.0063
3788.75,0.0063
3788.50,0.0064
3788.25,0.0064
3788.00,0.0066
3787.75,0.0068
3787.50,0.0069
3787.25,0.0069
3787.00,0.0069
3786.75,0.0068
3786.50,0.0068
3786.25,0.0068
3786.00,0.0069
3785.75,0.0069
3785.50,0.0069
3785.25,0.0068
3785.00,0.0067
3784.75,0.0067
3784.50,0.0066
3784.25,0.0067
3784.00,0.0067
3783.75,0.0067
3783.50,0.0066
3783.25,0.0066
3783.00,0.0066
3782.75,0.0066
3782.50,0.0068
3782.25,0.0069
3782.00,0.0070
3781.75,0.0071
3781.50,0.0071
3781.25,0.0072
3781.00,0.0072
3780.75,0.0072
3780.50,0.0071
3780.25,0.0068
3780.00,0.0065
3779.75,0.0061
3779.50,0.0058
3779.25,0.0059
3779.00,0.0062
3778.75,0.0065
3778.50,0.0068
3778.25,0.0071
3778.00,0.0072
3777.75,0.0071
3777.50,0.0069
3777.25,0.0067
3777.00,0.0064
3776.75,0.0062
3776.50,0.0062
3776.25,0.0063
3776.00,0.0064
3775.75,0.0065
3775.50,0.0065
3775.25,0.0065
3775.00,0.0065
3774.75,0.0064
3774.50,0.0064
3774.25,0.0064
3774.00,0.0064
3773.75,0.0064
3773.50,0.0065
3773.25,0.0065
3773.00,0.0066
3772.75,0.0067
3772.50,0.0068
3772.25,0.0068
3772.00,0.0069
3771.75,0.0069
3771.50,0.0069
3771.25,0.0069
3771.00,0.0069
3770.75,0.0069
3770.50,0.0069
3770.25,0.0068
3770.00,0.0068
3769.75,0.0068
3769.50,0.0067
3769.25,0.0066
3769.00,0.0065
3768.75,0.0065
3768.50,0.0065
3768.25,0.0065
3768.00,0.0066
3767.75,0.0066
3767.50,0.0067
3767.25,0.0067
3767.00,0.0067
3766.75,0.0066
3766.50,0.0066
3766.25,0.0067
3766.00,0.0068
3765.75,0.0068
3765.50,0.0068
3765.25,0.0066
3765.00,0.0064
3764.75,0.0064
3764.50,0.0065
3764.25,0.0067
3764.00,0.0068
3763.75,0.0069
3763.50,0.0070
3763.25,0.0070
3763.00,0.0071
3762.75,0.0070
3762.50,0.0069
3762.25,0.0068
3762.00,0.0067
3761.75,0.0066
3761.50,0.0066
3761.25,0.0067
3761.00,0.0068
3760.75,0.0069
3760.50,0.0068
3760.25,0.0067
3760.00,0.0065
3759.75,0.0064
3759.50,0.0063
3759.25,0.0063
3759.00,0.0063
3758.75,0.0065
3758.50,0.0067
3758.25,0.0069
3758.00,0.0072
3757.75,0.0073
3757.50,0.0073
3757.25,0.0073
3757.00,0.0072
3756.75,0.0070
3756.50,0.0069
3756.25,0.0068
3756.00,0.0067
3755.75,0.0066
3755.50,0.0066
3755.25,0.0067
3755.00,0.0069
3754.75,0.0070
3754.50,0.0071
3754.25,0.0071
3754.00,0.0071
3753.75,0.0071
3753.50,0.0071
3753.25,0.0073
3753.00,0.0076
3752.75,0.0078
3752.50,0.0078
3752.25,0.0076
3752.00,0.0073
3751.75,0.0071
3751.50,0.0070
3751.25,0.0071
3751.00,0.0073
3750.75,0.0074
3750.50,0.0077
3750.25,0.0080
3750.00,0.0083
3749.75,0.0085
3749.50,0.0084
3749.25,0.0078
3749.00,0.0070
3748.75,0.0066
3748.50,0.0065
3748.25,0.0066
3748.00,0.0067
3747.75,0.0069
3747.50,0.0071
3747.25,0.0074
3747.00,0.0076
3746.75,0.0076
3746.50,0.0074
3746.25,0.0073
3746.00,0.0072
3745.75,0.0072
3745.50,0.0072
3745.25,0.0071
3745.00,0.0063
3744.75,0.0049
3744.50,0.0035
3744.25,0.0029
3744.00,0.0036
3743.75,0.0047
3743.50,0.0056
3743.25,0.0061
3743.00,0.0064
3742.75,0.0067
3742.50,0.0068
3742.25,0.0068
3742.00,0.0068
3741.75,0.0068
3741.50,0.0068
3741.25,0.0070
3741.00,0.0073
3740.75,0.0075
3740.50,0.0076
3740.25,0.0076
3740.00,0.0075
3739.75,0.0075
3739.50,0.0075
3739.25,0.0076
3739.00,0.0078
3738.75,0.0078
3738.50,0.0078
3738.25,0.0077
3738.00,0.0077
3737.75,0.0077
3737.50,0.0078
3737.25,0.0078
3737.00,0.0078
3736.75,0.0077
3736.50,0.0076
3736.25,0.0075
3736.00,0.0074
3735.75,0.0071
3735.50,0.0066
3735.25,0.0061
3735.00,0.0060
3734.75,0.0062
3734.50,0.0064
3734.25,0.0065
3734.00,0.0066
3733.75,0.0066
3733.50,0.0066
3733.25,0.0068
3733.00,0.0070
3732.75,0.0073
3732.50,0.0077
3732.25,0.0080
3732.00,0.0081
3731.75,0.0078
3731.50,0.0074
3731.25,0.0072
3731.00,0.0071
3730.75,0.0071
3730.50,0.0071
3730.25,0.0071
3730.00,0.0070
3729.75,0.0070
3729.50,0.0069
3729.25,0.0069
3729.00,0.0069
3728.75,0.0069
3728.50,0.0069
3728.25,0.0068
3728.00,0.0069
3727.75,0.0070
3727.50,0.0071
3727.25,0.0071
3727.00,0.0071
3726.75,0.0070
3726.50,0.0068
3726.25,0.0067
3726.00,0.0066
3725.75,0.0067
3725.50,0.0068
3725.25,0.0069
3725.00,0.0071
3724.75,0.0073
3724.50,0.0073
3724.25,0.0073
3724.00,0.0073
3723.75,0.0073
3723.50,0.0074
3723.25,0.0076
3723.00,0.0076
3722.75,0.0076
3722.50,0.0074
3722.25,0.0073
3722.00,0.0072
3721.75,0.0071
3721.50,0.0070
3721.25,0.0068
3721.00,0.0067
3720.75,0.0067
3720.50,0.0069
3720.25,0.0070
3720.00,0.0071
3719.75,0.0070
3719.50,0.0067
3719.25,0.0065
3719.00,0.0063
3718.75,0.0062
3718.50,0.0062
3718.25,0.0062
3718.00,0.0062
3717.75,0.0063
3717.50,0.0064
3717.25,0.0065
3717.00,0.0065
3716.75,0.0066
3716.50,0.0068
3716.25,0.0070
3716.00,0.0072
3715.75,0.0074
3715.50,0.0074
3715.25,0.0075
3715.00,0.0075
3714.75,0.0075
3714.50,0.0073
3714.25,0.0071
3714.00,0.0068
3713.75,0.0067
3713.50,0.0067
3713.25,0.0069
3713.00,0.0073
3712.75,0.0077
3712.50,0.0081
3712.25,0.0086
3712.00,0.0087
3711.75,0.0082
3711.50,0.0076
3711.25,0.0071
3711.00,0.0068
3710.75,0.0068
3710.50,0.0068
3710.25,0.0068
3710.00,0.0068
3709.75,0.0066
3709.50,0.0065
3709.25,0.0066
3709.00,0.0068
3708.75,0.0070
3708.50,0.0072
3708.25,0.0072
3708.00,0.0073
3707.75,0.0074
3707.50,0.0075
3707.25,0.0075
3707.00,0.0074
3706.75,0.0072
3706.50,0.0071
3706.25,0.0070
3706.00,0.0071
3705.75,0.0071
3705.50,0.0073
3705.25,0.0074
3705.00,0.0074
3704.75,0.0073
3704.50,0.0071
3704.25,0.0069
3704.00,0.0067
3703.75,0.0065
3703.50,0.0064
3703.25,0.0064
3703.00,0.0064
3702.75,0.0065
3702.50,0.0065
3702.25,0.0065
3702.00,0.0065
3701.75,0.0064
3701.50,0.0064
3701.25,0.0064
3701.00,0.0066
3700.75,0.0070
3700.50,0.0073
3700.25,0.0074
3700.00,0.0074
3699.75,0.0073
3699.50,0.0072
3699.25,0.0070
3699.00,0.0070
3698.75,0.0071
3698.50,0.0072
3698.25,0.0072
3698.00,0.0072
3697.75,0.0072
3697.50,0.0071
3697.25,0.0071
3697.00,0.0071
3696.75,0.0071
3696.50,0.0071
3696.25,0.0071
3696.00,0.0069
3695.75,0.0068
3695.50,0.0067
3695.25,0.0068
3695.00,0.0069
3694.75,0.0070
3694.50,0.0070
3694.25,0.0070
3694.00,0.0069
3693.75,0.0068
3693.50,0.0067
3693.25,0.0067
3693.00,0.0068
3692.75,0.0068
3692.50,0.0068
3692.25,0.0068
3692.00,0.0067
3691.75,0.0067
3691.50,0.0068
3691.25,0.0072
3691.00,0.0077
3690.75,0.0080
3690.50,0.0078
3690.25,0.0073
3690.00,0.0069
3689.75,0.0066
3689.50,0.0065
3689.25,0.0065
3689.00,0.0066
3688.75,0.0068
3688.50,0.0072
3688.25,0.0075
3688.00,0.0075
3687.75,0.0072
3687.50,0.0070
3687.25,0.0068
3687.00,0.0068
3686.75,0.0069
3686.50,0.0069
3686.25,0.0069
3686.00,0.0067
3685.75,0.0065
3685.50,0.0064
3685.25,0.0063
3685.00,0.0064
3684.75,0.0065
3684.50,0.0066
3684.25,0.0067
3684.00,0.0068
3683.75,0.0069
3683.50,0.0071
3683.25,0.0072
3683.00,0.0074
3682.75,0.0075
3682.50,0.0076
3682.25,0.0075
3682.00,0.0074
3681.75,0.0072
3681.50,0.0071
3681.25,0.0069
3681.00,0.0068
3680.75,0.0068
3680.50,0.0067
3680.25,0.0066
3680.00,0.0064
3679.75,0.0063
3679.50,0.0063
3679.25,0.0064
3679.00,0.0066
3678.75,0.0068
3678.50,0.0069
3678.25,0.0070
3678.00,0.0071
3677.75,0.0072
3677.50,0.0073
3677.25,0.0075
3677.00,0.0076
3676.75,0.0075
3676.50,0.0073
3676.25,0.0068
3676.00,0.0064
3675.75,0.0064
3675.50,0.0068
3675.25,0.0072
3675.00,0.0073
3674.75,0.0072
3674.50,0.0070
3674.25,0.0069
3674.00,0.0068
3673.75,0.0068
3673.50,0.0068
3673.25,0.0068
3673.00,0.0068
3672.75,0.0067
3672.50,0.0067
3672.25,0.0066
3672.00,0.0066
3671.75,0.0067
3671.50,0.0067
3671.25,0.0067
3671.00,0.0066
3670.75,0.0069
3670.50,0.0074
3670.25,0.0078
3670.00,0.0079
3669.75,0.0078
3669.50,0.0076
3669.25,0.0075
3669.00,0.0074
3668.75,0.0073
3668.50,0.0071
3668.25,0.0068
3668.00,0.0065
3667.75,0.0063
3667.50,0.0063
3667.25,0.0064
3667.00,0.0065
3666.75,0.0066
3666.50,0.0066
3666.25,0.0066
3666.00,0.0067
3665.75,0.0068
3665.50,0.0070
3665.25,0.0072
3665.00,0.0073
3664.75,0.0073
3664.50,0.0073
3664.25,0.0072
3664.00,0.0071
3663.75,0.0071
3663.50,0.0070
3663.25,0.0068
3663.00,0.0067
3662.75,0.0065
3662.50,0.0064
3662.25,0.0063
3662.00,0.0063
3661.75,0.0063
3661.50,0.0064
3661.25,0.0065
3661.00,0.0067
3660.75,0.0069
3660.50,0.0070
3660.25,0.0071
3660.00,0.0072
3659.75,0.0071
3659.50,0.0070
3659.25,0.0070
3659.00,0.0069
3658.75,0.0069
3658.50,0.0068
3658.25,0.0067
3658.00,0.0067
3657.75,0.0066
3657.50,0.0067
3657.25,0.0068
3657.00,0.0069
3656.75,0.0070
3656.50,0.0069
3656.25,0.0068
3656.00,0.0069
3655.75,0.0071
3655.50,0.0073
3655.25,0.0074
3655.00,0.0074
3654.75,0.0073
3654.50,0.0071
3654.25,0.0068
3654.00,0.0066
3653.75,0.0066
3653.50,0.0067
3653.25,0.0068
3653.00,0.0069
3652.75,0.0069
3652.50,0.0069
3652.25,0.0068
3652.00,0.0067
3651.75,0.0066
3651.50,0.0065
3651.25,0.0063
3651.00,0.0061
3650.75,0.0059
3650.50,0.0059
3650.25,0.0062
3650.00,0.0066
3649.75,0.0069
3649.50,0.0071
3649.25,0.0073
3649.00,0.0076
3648.75,0.0078
3648.50,0.0078
3648.25,0.0077
3648.00,0.0074
3647.75,0.0069
3647.50,0.0065
3647.25,0.0062
3647.00,0.0061
3646.75,0.0064
3646.50,0.0067
3646.25,0.0071
3646.00,0.0073
3645.75,0.0074
3645.50,0.0074
3645.25,0.0073
3645.00,0.0071
3644.75,0.0070
3644.50,0.0069
3644.25,0.0069
3644.00,0.0070
3643.75,0.0071
3643.50,0.0072
3643.25,0.0073
3643.00,0.0074
3642.75,0.0074
3642.50,0.0075
3642.25,0.0075
3642.00,0.0074
3641.75,0.0073
3641.50,0.0071
3641.25,0.0068
3641.00,0.0065
3640.75,0.0063
3640.50,0.0063
3640.25,0.0064
3640.00,0.0066
3639.75,0.0069
3639.50,0.0070
3639.25,0.0071
3639.00,0.0072
3638.75,0.0072
3638.50,0.0073
3638.25,0.0074
3638.00,0.0076
3637.75,0.0076
3637.50,0.0074
3637.25,0.0071
3637.00,0.0069
3636.75,0.0068
3636.50,0.0068
3636.25,0.0070
3636.00,0.0071
3635.75,0.0073
3635.50,0.0073
3635.25,0.0071
3635.00,0.0069
3634.75,0.0067
3634.50,0.0067
3634.25,0.0068
3634.00,0.0071
3633.75,0.0074
3633.50,0.0076
3633.25,0.0077
3633.00,0.0076
3632.75,0.0075
3632.50,0.0074
3632.25,0.0073
3632.00,0.0072
3631.75,0.0071
3631.50,0.0070
3631.25,0.0071
3631.00,0.0072
3630.75,0.0074
3630.50,0.0076
3630.25,0.0076
3630.00,0.0074
3629.75,0.0071
3629.50,0.0069
3629.25,0.0071
3629.00,0.0073
3628.75,0.0072
3628.50,0.0068
3628.25,0.0063
3628.00,0.0060
3627.75,0.0062
3627.50,0.0065
3627.25,0.0069
3627.00,0.0072
3626.75,0.0074
3626.50,0.0076
3626.25,0.0076
3626.00,0.0076
3625.75,0.0075
3625.50,0.0073
3625.25,0.0070
3625.00,0.0069
3624.75,0.0068
3624.50,0.0068
3624.25,0.0069
3624.00,0.0071
3623.75,0.0073
3623.50,0.0075
3623.25,0.0076
3623.00,0.0076
3622.75,0.0075
3622.50,0.0074
3622.25,0.0073
3622.00,0.0073
3621.75,0.0075
3621.50,0.0077
3621.25,0.0080
3621.00,0.0081
3620.75,0.0081
3620.50,0.0080
3620.25,0.0077
3620.00,0.0073
3619.75,0.0069
3619.50,0.0067
3619.25,0.0069
3619.00,0.0073
3618.75,0.0077
3618.50,0.0078
3618.25,0.0078
3618.00,0.0077
3617.75,0.0075
3617.50,0.0073
3617.25,0.0072
3617.00,0.0073
3616.75,0.0073
3616.50,0.0073
3616.25,0.0073
3616.00,0.0074
3615.75,0.0075
3615.50,0.0077
3615.25,0.0078
3615.00,0.0077
3614.75,0.0075
3614.50,0.0071
3614.25,0.0069
3614.00,0.0068
3613.75,0.0069
3613.50,0.0071
3613.25,0.0073
3613.00,0.0075
3612.75,0.0078
3612.50,0.0081
3612.25,0.0080
3612.00,0.0077
3611.75,0.0074
3611.50,0.0071
3611.25,0.0069
3611.00,0.0068
3610.75,0.0068
3610.50,0.0068
3610.25,0.0068
3610.00,0.0068
3609.75,0.0067
3609.50,0.0066
3609.25,0.0066
3609.00,0.0068
3608.75,0.0070
3608.50,0.0074
3608.25,0.0076
3608.00,0.0077
3607.75,0.0077
3607.50,0.0077
3607.25,0.0077
3607.00,0.0078
3606.75,0.0077
3606.50,0.0074
3606.25,0.0071
3606.00,0.0069
3605.75,0.0068
3605.50,0.0068
3605.25,0.0069
3605.00,0.0070
3604.75,0.0070
3604.50,0.0070
3604.25,0.0070
3604.00,0.0071
3603.75,0.0071
3603.50,0.0072
3603.25,0.0072
3603.00,0.0072
3602.75,0.0071
3602.50,0.0070
3602.25,0.0069
3602.00,0.0070
3601.75,0.0071
3601.50,0.0073
3601.25,0.0075
3601.00,0.0077
3600.75,0.0078
3600.50,0.0077
3600.25,0.0076
3600.00,0.0074
3599.75,0.0074
3599.50,0.0074
3599.25,0.0074
3599.00,0.0075
3598.75,0.0076
3598.50,0.0077
3598.25,0.0076
3598.00,0.0074
3597.75,0.0070
3597.50,0.0067
3597.25,0.0065
3597.00,0.0065
3596.75,0.0065
3596.50,0.0066
3596.25,0.0067
3596.00,0.0067
3595.75,0.0067
3595.50,0.0068
3595.25,0.0070
3595.00,0.0071
3594.75,0.0072
3594.50,0.0072
3594.25,0.0072
3594.00,0.0072
3593.75,0.0073
3593.50,0.0073
3593.25,0.0074
3593.00,0.0073
3592.75,0.0073
3592.50,0.0071
3592.25,0.0069
3592.00,0.0068
3591.75,0.0067
3591.50,0.0068
3591.25,0.0070
3591.00,0.0073
3590.75,0.0075
3590.50,0.0076
3590.25,0.0077
3590.00,0.0077
3589.75,0.0078
3589.50,0.0079
3589.25,0.0079
3589.00,0.0078
3588.75,0.0075
3588.50,0.0073
3588.25,0.0071
3588.00,0.0072
3587.75,0.0073
3587.50,0.0075
3587.25,0.0077
3587.00,0.0079
3586.75,0.0078
3586.50,0.0074
3586.25,0.0070
3586.00,0.0068
3585.75,0.0068
3585.50,0.0069
3585.25,0.0071
3585.00,0.0071
3584.75,0.0072
3584.50,0.0072
3584.25,0.0073
3584.00,0.0074
3583.75,0.0076
3583.50,0.0077
3583.25,0.0076
3583.00,0.0075
3582.75,0.0073
3582.50,0.0072
3582.25,0.0071
3582.00,0.0072
3581.75,0.0073
3581.50,0.0073
3581.25,0.0073
3581.00,0.0072
3580.75,0.0071
3580.50,0.0071
3580.25,0.0071
3580.00,0.0072
3579.75,0.0072
3579.50,0.0072
3579.25,0.0072
3579.00,0.0072
3578.75,0.0071
3578.50,0.0071
3578.25,0.0070
3578.00,0.0070
3577.75,0.0071
3577.50,0.0072
3577.25,0.0073
3577.00,0.0073
3576.75,0.0072
3576.50,0.0070
3576.25,0.0069
3576.00,0.0068
3575.75,0.0069
3575.50,0.0071
3575.25,0.0073
3575.00,0.0075
3574.75,0.0076
3574.50,0.0076
3574.25,0.0076
3574.00,0.0077
3573.75,0.0077
3573.50,0.0076
3573.25,0.0075
3573.00,0.0073
3572.75,0.0071
3572.50,0.0069
3572.25,0.0069
3572.00,0.0069
3571.75,0.0069
3571.50,0.0070
3571.25,0.0071
3571.00,0.0072
3570.75,0.0073
3570.50,0.0073
3570.25,0.0073
3570.00,0.0072
3569.75,0.0071
3569.50,0.0071
3569.25,0.0071
3569.00,0.0072
3568.75,0.0072
3568.50,0.0073
3568.25,0.0076
3568.00,0.0078
3567.75,0.0079
3567.50,0.0079
3567.25,0.0079
3567.00,0.0080
3566.75,0.0082
3566.50,0.0084
3566.25,0.0085
3566.00,0.0083
3565.75,0.0080
3565.50,0.0077
3565.25,0.0075
3565.00,0.0074
3564.75,0.0074
3564.50,0.0075
3564.25,0.0076
3564.00,0.0077
3563.75,0.0078
3563.50,0.0078
3563.25,0.0077
3563.00,0.0075
3562.75,0.0073
3562.50,0.0071
3562.25,0.0070
3562.00,0.0069
3561.75,0.0069
3561.50,0.0070
3561.25,0.0072
3561.00,0.0073
3560.75,0.0075
3560.50,0.0075
3560.25,0.0075
3560.00,0.0074
3559.75,0.0073
3559.50,0.0072
3559.25,0.0072
3559.00,0.0073
3558.75,0.0074
3558.50,0.0075
3558.25,0.0075
3558.00,0.0075
3557.75,0.0075
3557.50,0.0074
3557.25,0.0073
3557.00,0.0073
3556.75,0.0074
3556.50,0.0074
3556.25,0.0073
3556.00,0.0072
3555.75,0.0072
3555.50,0.0071
3555.25,0.0071
3555.00,0.0070
3554.75,0.0069
3554.50,0.0068
3554.25,0.0067
3554.00,0.0067
3553.75,0.0068
3553.50,0.0069
3553.25,0.0070
3553.00,0.0072
3552.75,0.0073
3552.50,0.0073
3552.25,0.0073
3552.00,0.0072
3551.75,0.0071
3551.50,0.0070
3551.25,0.0069
3551.00,0.0070
3550.75,0.0070
3550.50,0.0070
3550.25,0.0071
3550.00,0.0071
3549.75,0.0072
3549.50,0.0072
3549.25,0.0072
3549.00,0.0071
3548.75,0.0071
3548.50,0.0071
3548.25,0.0071
3548.00,0.0073
3547.75,0.0074
3547.50,0.0074
3547.25,0.0074
3547.00,0.0074
3546.75,0.0073
3546.50,0.0073
3546.25,0.0074
3546.00,0.0075
3545.75,0.0077
3545.50,0.0079
3545.25,0.0080
3545.00,0.0080
3544.75,0.0078
3544.50,0.0076
3544.25,0.0075
3544.00,0.0074
3543.75,0.0073
3543.50,0.0073
3543.25,0.0073
3543.00,0.0073
3542.75,0.0073
3542.50,0.0074
3542.25,0.0075
3542.00,0.0075
3541.75,0.0076
3541.50,0.0076
3541.25,0.0075
3541.00,0.0074
3540.75,0.0072
3540.50,0.0070
3540.25,0.0069
3540.00,0.0067
3539.75,0.0066
3539.50,0.0066
3539.25,0.0067
3539.00,0.0068
3538.75,0.0069
3538.50,0.0070
3538.25,0.0070
3538.00,0.0070
3537.75,0.0070
3537.50,0.0069
3537.25,0.0069
3537.00,0.0070
3536.75,0.0071
3536.50,0.0071
3536.25,0.0071
3536.00,0.0069
3535.75,0.0068
3535.50,0.0068
3535.25,0.0068
3535.00,0.0069
3534.75,0.0071
3534.50,0.0072
3534.25,0.0074
3534.00,0.0075
3533.75,0.0075
3533.50,0.0075
3533.25,0.0075
3533.00,0.0074
3532.75,0.0074
3532.50,0.0073
3532.25,0.0074
3532.00,0.0074
3531.75,0.0075
3531.50,0.0075
3531.25,0.0075
3531.00,0.0075
3530.75,0.0075
3530.50,0.0076
3530.25,0.0076
3530.00,0.0078
3529.75,0.0078
3529.50,0.0079
3529.25,0.0078
3529.00,0.0076
3528.75,0.0073
3528.50,0.0070
3528.25,0.0067
3528.00,0.0066
3527.75,0.0066
3527.50,0.0067
3527.25,0.0069
3527.00,0.0071
3526.75,0.0073
3526.50,0.0073
3526.25,0.0073
3526.00,0.0073
3525.75,0.0073
3525.50,0.0073
3525.25,0.0073
3525.00,0.0074
3524.75,0.0074
3524.50,0.0075
3524.25,0.0075
3524.00,0.0076
3523.75,0.0076
3523.50,0.0076
3523.25,0.0075
3523.00,0.0075
3522.75,0.0074
3522.50,0.0073
3522.25,0.0072
3522.00,0.0071
3521.75,0.0072
3521.50,0.0073
3521.25,0.0074
3521.00,0.0074
3520.75,0.0073
3520.50,0.0072
3520.25,0.0071
3520.00,0.0070
3519.75,0.0069
3519.50,0.0068
3519.25,0.0068
3519.00,0.0069
3518.75,0.0070
3518.50,0.0071
3518.25,0.0071
3518.00,0.0070
3517.75,0.0070
3517.50,0.0070
3517.25,0.0070
3517.00,0.0070
3516.75,0.0070
3516.50,0.0070
3516.25,0.0071
3516.00,0.0071
3515.75,0.0071
3515.50,0.0071
3515.25,0.0071
3515.00,0.0072
3514.75,0.0074
3514.50,0.0075
3514.25,0.0075
3514.00,0.0075
3513.75,0.0074
3513.50,0.0073
3513.25,0.0072
3513.00,0.0071
3512.75,0.0070
3512.50,0.0071
3512.25,0.0071
3512.00,0.0072
3511.75,0.0072
3511.50,0.0073
3511.25,0.0073
3511.00,0.0074
3510.75,0.0073
3510.50,0.0072
3510.25,0.0071
3510.00,0.0070
3509.75,0.0071
3509.50,0.0072
3509.25,0.0073
3509.00,0.0073
3508.75,0.0073
3508.50,0.0073
3508.25,0.0073
3508.00,0.0074
3507.75,0.0076
3507.50,0.0078
3507.25,0.0080
3507.00,0.0081
3506.75,0.0081
3506.50,0.0080
3506.25,0.0079
3506.00,0.0077
3505.75,0.0075
3505.50,0.0074
3505.25,0.0073
3505.00,0.0073
3504.75,0.0074
3504.50,0.0076
3504.25,0.0076
3504.00,0.0076
3503.75,0.0076
3503.50,0.0074
3503.25,0.0073
3503.00,0.0072
3502.75,0.0071
3502.50,0.0071
3502.25,0.0071
3502.00,0.0072
3501.75,0.0072
3501.50,0.0072
3501.25,0.0072
3501.00,0.0071
3500.75,0.0070
3500.50,0.0070
3500.25,0.0070
3500.00,0.0071
3499.75,0.0071
3499.50,0.0072
3499.25,0.0072
3499.00,0.0073
3498.75,0.0074
3498.50,0.0075
3498.25,0.0075
3498.00,0.0073
3497.75,0.0071
3497.50,0.0070
3497.25,0.0069
3497.00,0.0069
3496.75,0.0069
3496.50,0.0070
3496.25,0.0072
3496.00,0.0074
3495.75,0.0076
3495.50,0.0076
3495.25,0.0076
3495.00,0.0075
3494.75,0.0074
3494.50,0.0073
3494.25,0.0072
3494.00,0.0071
3493.75,0.0071
3493.50,0.0071
3493.25,0.0072
3493.00,0.0073
3492.75,0.0075
3492.50,0.0077
3492.25,0.0078
3492.00,0.0079
3491.75,0.0079
3491.50,0.0079
3491.25,0.0078
3491.00,0.0077
3490.75,0.0077
3490.50,0.0076
3490.25,0.0074
3490.00,0.0072
3489.75,0.0070
3489.50,0.0068
3489.25,0.0067
3489.00,0.0068
3488.75,0.0070
3488.50,0.0071
3488.25,0.0073
3488.00,0.0073
3487.75,0.0073
3487.50,0.0073
3487.25,0.0073
3487.00,0.0074
3486.75,0.0074
3486.50,0.0074
3486.25,0.0074
3486.00,0.0074
3485.75,0.0074
3485.50,0.0074
3485.25,0.0074
3485.00,0.0074
3484.75,0.0075
3484.50,0.0076
3484.25,0.0076
3484.00,0.0076
3483.75,0.0074
3483.50,0.0073
3483.25,0.0072
3483.00,0.0072
3482.75,0.0072
3482.50,0.0072
3482.25,0.0072
3482.00,0.0072
3481.75,0.0072
3481.50,0.0073
3481.25,0.0073
3481.00,0.0073
3480.75,0.0073
3480.50,0.0072
3480.25,0.0072
3480.00,0.0071
3479.75,0.0072
3479.50,0.0072
3479.25,0.0073
3479.00,0.0073
3478.75,0.0073
3478.50,0.0073
3478.25,0.0073
3478.00,0.0073
3477.75,0.0073
3477.50,0.0073
3477.25,0.0073
3477.00,0.0073
3476.75,0.0073
3476.50,0.0073
3476.25,0.0073
3476.00,0.0073
3475.75,0.0073
3475.50,0.0072
3475.25,0.0073
3475.00,0.0073
3474.75,0.0074
3474.50,0.0074
3474.25,0.0074
3474.00,0.0074
3473.75,0.0074
3473.50,0.0074
3473.25,0.0074
3473.00,0.0074
3472.75,0.0074
3472.50,0.0074
3472.25,0.0074
3472.00,0.0075
3471.75,0.0075
3471.50,0.0076
3471.25,0.0076
3471.00,0.0077
3470.75,0.0077
3470.50,0.0077
3470.25,0.0077
3470.00,0.0077
3469.75,0.0076
3469.50,0.0075
3469.25,0.0074
3469.00,0.0073
3468.75,0.0073
3468.50,0.0073
3468.25,0.0074
3468.00,0.0075
3467.75,0.0076
3467.50,0.0077
3467.25,0.0077
3467.00,0.0077
3466.75,0.0076
3466.50,0.0076
3466.25,0.0077
3466.00,0.0079
3465.75,0.0079
3465.50,0.0079
3465.25,0.0078
3465.00,0.0076
3464.75,0.0073
3464.50,0.0072
3464.25,0.0071
3464.00,0.0072
3463.75,0.0073
3463.50,0.0074
3463.25,0.0075
3463.00,0.0076
3462.75,0.0075
3462.50,0.0074
3462.25,0.0073
3462.00,0.0073
3461.75,0.0073
3461.50,0.0075
3461.25,0.0077
3461.00,0.0078
3460.75,0.0077
3460.50,0.0075
3460.25,0.0074
3460.00,0.0073
3459.75,0.0073
3459.50,0.0074
3459.25,0.0075
3459.00,0.0075
3458.75,0.0076
3458.50,0.0075
3458.25,0.0074
3458.00,0.0073
3457.75,0.0072
3457.50,0.0072
3457.25,0.0073
3457.00,0.0074
3456.75,0.0075
3456.50,0.0075
3456.25,0.0074
3456.00,0.0073
3455.75,0.0072
3455.50,0.0071
3455.25,0.0069
3455.00,0.0069
3454.75,0.0068
3454.50,0.0069
3454.25,0.0070
3454.00,0.0071
3453.75,0.0072
3453.50,0.0073
3453.25,0.0074
3453.00,0.0075
3452.75,0.0074
3452.50,0.0073
3452.25,0.0071
3452.00,0.0070
3451.75,0.0069
3451.50,0.0070
3451.25,0.0071
3451.00,0.0072
3450.75,0.0072
3450.50,0.0073
3450.25,0.0074
3450.00,0.0075
3449.75,0.0076
3449.50,0.0077
3449.25,0.0077
3449.00,0.0077
3448.75,0.0076
3448.50,0.0075
3448.25,0.0075
3448.00,0.0076
3447.75,0.0077
3447.50,0.0078
3447.25,0.0081
3447.00,0.0084
3446.75,0.0085
3446.50,0.0084
3446.25,0.0082
3446.00,0.0079
3445.75,0.0076
3445.50,0.0075
3445.25,0.0074
3445.00,0.0074
3444.75,0.0075
3444.50,0.0076
3444.25,0.0078
3444.00,0.0078
3443.75,0.0077
3443.50,0.0076
3443.25,0.0075
3443.00,0.0075
3442.75,0.0075
3442.50,0.0075
3442.25,0.0074
3442.00,0.0073
3441.75,0.0073
3441.50,0.0073
3441.25,0.0072
3441.00,0.0072
3440.75,0.0071
3440.50,0.0072
3440.25,0.0072
3440.00,0.0073
3439.75,0.0074
3439.50,0.0075
3439.25,0.0075
3439.00,0.0074
3438.75,0.0074
3438.50,0.0073
3438.25,0.0073
3438.00,0.0074
3437.75,0.0074
3437.50,0.0075
3437.25,0.0074
3437.00,0.0074
3436.75,0.0074
3436.50,0.0074
3436.25,0.0075
3436.00,0.0076
3435.75,0.0076
3435.50,0.0075
3435.25,0.0074
3435.00,0.0074
3434.75,0.0074
3434.50,0.0074
3434.25,0.0073
3434.00,0.0072
3433.75,0.0071
3433.50,0.0071
3433.25,0.0071
3433.00,0.0072
3432.75,0.0073
3432.50,0.0073
3432.25,0.0073
3432.00,0.0072
3431.75,0.0071
3431.50,0.0071
3431.25,0.0072
3431.00,0.0074
3430.75,0.0076
3430.50,0.0077
3430.25,0.0078
3430.00,0.0077
3429.75,0.0075
3429.50,0.0074
3429.25,0.0074
3429.00,0.0074
3428.75,0.0075
3428.50,0.0076
3428.25,0.0076
3428.00,0.0075
3427.75,0.0074
3427.50,0.0073
3427.25,0.0073
3427.00,0.0072
3426.75,0.0073
3426.50,0.0074
3426.25,0.0076
3426.00,0.0078
3425.75,0.0080
3425.50,0.0080
3425.25,0.0080
3425.00,0.0079
3424.75,0.0078
3424.50,0.0078
3424.25,0.0079
3424.00,0.0078
3423.75,0.0077
3423.50,0.0076
3423.25,0.0075
3423.00,0.0074
3422.75,0.0074
3422.50,0.0075
3422.25,0.0075
3422.00,0.0075
3421.75,0.0074
3421.50,0.0073
3421.25,0.0073
3421.00,0.0072
3420.75,0.0072
3420.50,0.0072
3420.25,0.0072
3420.00,0.0073
3419.75,0.0073
3419.50,0.0073
3419.25,0.0072
3419.00,0.0071
3418.75,0.0070
3418.50,0.0071
3418.25,0.0071
3418.00,0.0072
3417.75,0.0072
3417.50,0.0072
3417.25,0.0072
3417.00,0.0073
3416.75,0.0074
3416.50,0.0075
3416.25,0.0076
3416.00,0.0076
3415.75,0.0076
3415.50,0.0075
3415.25,0.0074
3415.00,0.0074
3414.75,0.0074
3414.50,0.0075
3414.25,0.0075
3414.00,0.0075
3413.75,0.0075
3413.50,0.0075
3413.25,0.0074
3413.00,0.0074
3412.75,0.0073
3412.50,0.0072
3412.25,0.0071
3412.00,0.0070
3411.75,0.0071
3411.50,0.0072
3411.25,0.0074
3411.00,0.0075
3410.75,0.0076
3410.50,0.0076
3410.25,0.0075
3410.00,0.0074
3409.75,0.0074
3409.50,0.0074
3409.25,0.0074
3409.00,0.0074
3408.75,0.0074
3408.50,0.0074
3408.25,0.0074
3408.00,0.0074
3407.75,0.0074
3407.50,0.0075
3407.25,0.0075
3407.00,0.0076
3406.75,0.0076
3406.50,0.0076
3406.25,0.0076
3406.00,0.0075
3405.75,0.0074
3405.50,0.0073
3405.25,0.0072
3405.00,0.0071
3404.75,0.0072
3404.50,0.0073
3404.25,0.0074
3404.00,0.0076
3403.75,0.0077
3403.50,0.0078
3403.25,0.0077
3403.00,0.0076
3402.75,0.0074
3402.50,0.0073
3402.25,0.0073
3402.00,0.0073
3401.75,0.0074
3401.50,0.0075
3401.25,0.0076
3401.00,0.0077
3400.75,0.0077
3400.50,0.0076
3400.25,0.0075
3400.00,0.0073
3399.75,0.0071
3399.50,0.0070
3399.25,0.0070
3399.00,0.0071
3398.75,0.0072
3398.50,0.0074
3398.25,0.0075
3398.00,0.0076
3397.75,0.0076
3397.50,0.0077
3397.25,0.0077
3397.00,0.0077
3396.75,0.0077
3396.50,0.0077
3396.25,0.0077
3396.00,0.0077
3395.75,0.0077
3395.50,0.0076
3395.25,0.0076
3395.00,0.0075
3394.75,0.0075
3394.50,0.0076
3394.25,0.0077
3394.00,0.0078
3393.75,0.0078
3393.50,0.0079
3393.25,0.0079
3393.00,0.0079
3392.75,0.0078
3392.50,0.0077
3392.25,0.0076
3392.00,0.0075
3391.75,0.0075
3391.50,0.0075
3391.25,0.0076
3391.00,0.0076
3390.75,0.0076
3390.50,0.0076
3390.25,0.0076
3390.00,0.0077
3389.75,0.0078
3389.50,0.0079
3389.25,0.0080
3389.00,0.0080
3388.75,0.0080
3388.50,0.0080
3388.25,0.0080
3388.00,0.0079
3387.75,0.0079
3387.50,0.0080
3387.25,0.0079
3387.00,0.0079
3386.75,0.0078
3386.50,0.0076
3386.25,0.0075
3386.00,0.0075
3385.75,0.0076
3385.50,0.0077
3385.25,0.0078
3385.00,0.0079
3384.75,0.0079
3384.50,0.0078
3384.25,0.0076
3384.00,0.0073
3383.75,0.0072
3383.50,0.0071
3383.25,0.0072
3383.00,0.0073
3382.75,0.0074
3382.50,0.0075
3382.25,0.0075
3382.00,0.0075
3381.75,0.0075
3381.50,0.0076
3381.25,0.0077
3381.00,0.0077
3380.75,0.0077
3380.50,0.0076
3380.25,0.0075
3380.00,0.0074
3379.75,0.0073
3379.50,0.0073
3379.25,0.0073
3379.00,0.0074
3378.75,0.0076
3378.50,0.0078
3378.25,0.0079
3378.00,0.0081
3377.75,0.0081
3377.50,0.0080
3377.25,0.0079
3377.00,0.0077
3376.75,0.0076
3376.50,0.0076
3376.25,0.0077
3376.00,0.0078
3375.75,0.0078
3375.50,0.0077
3375.25,0.0075
3375.00,0.0074
3374.75,0.0073
3374.50,0.0073
3374.25,0.0073
3374.00,0.0073
3373.75,0.0072
3373.50,0.0073
3373.25,0.0073
3373.00,0.0074
3372.75,0.0075
3372.50,0.0075
3372.25,0.0075
3372.00,0.0074
3371.75,0.0074
3371.50,0.0074
3371.25,0.0074
3371.00,0.0074
3370.75,0.0074
3370.50,0.0074
3370.25,0.0075
3370.00,0.0075
3369.75,0.0076
3369.50,0.0077
3369.25,0.0078
3369.00,0.0079
3368.75,0.0080
3368.50,0.0079
3368.25,0.0078
3368.00,0.0077
3367.75,0.0076
3367.50,0.0076
3367.25,0.0076
3367.00,0.0076
3366.75,0.0077
3366.50,0.0078
3366.25,0.0078
3366.00,0.0079
3365.75,0.0078
3365.50,0.0078
3365.25,0.0077
3365.00,0.0076
3364.75,0.0075
3364.50,0.0076
3364.25,0.0077
3364.00,0.0078
3363.75,0.0079
3363.50,0.0078
3363.25,0.0077
3363.00,0.0077
3362.75,0.0076
3362.50,0.0076
3362.25,0.0076
3362.00,0.0077
3361.75,0.0078
3361.50,0.0079
3361.25,0.0080
3361.00,0.0079
3360.75,0.0079
3360.50,0.0078
3360.25,0.0078
3360.00,0.0078
3359.75,0.0078
3359.50,0.0078
3359.25,0.0077
3359.00,0.0076
3358.75,0.0075
3358.50,0.0076
3358.25,0.0077
3358.00,0.0077
3357.75,0.0076
3357.50,0.0075
3357.25,0.0074
3357.00,0.0073
3356.75,0.0073
3356.50,0.0074
3356.25,0.0076
3356.00,0.0078
3355.75,0.0080
3355.50,0.0082
3355.25,0.0083
3355.00,0.0082
3354.75,0.0081
3354.50,0.0080
3354.25,0.0078
3354.00,0.0077
3353.75,0.0076
3353.50,0.0076
3353.25,0.0076
3353.00,0.0075
3352.75,0.0075
3352.50,0.0074
3352.25,0.0075
3352.00,0.0076
3351.75,0.0077
3351.50,0.0078
3351.25,0.0078
3351.00,0.0077
3350.75,0.0076
3350.50,0.0075
3350.25,0.0075
3350.00,0.0076
3349.75,0.0077
3349.50,0.0079
3349.25,0.0080
3349.00,0.0080
3348.75,0.0080
3348.50,0.0080
3348.25,0.0079
3348.00,0.0078
3347.75,0.0078
3347.50,0.0077
3347.25,0.0076
3347.00,0.0074
3346.75,0.0073
3346.50,0.0073
3346.25,0.0073
3346.00,0.0075
3345.75,0.0077
3345.50,0.0078
3345.25,0.0079
3345.00,0.0079
3344.75,0.0079
3344.50,0.0079
3344.25,0.0079
3344.00,0.0079
3343.75,0.0077
3343.50,0.0076
3343.25,0.0076
3343.00,0.0076
3342.75,0.0077
3342.50,0.0078
3342.25,0.0078
3342.00,0.0077
3341.75,0.0076
3341.50,0.0076
3341.25,0.0076
3341.00,0.0076
3340.75,0.0076
3340.50,0.0077
3340.25,0.0077
3340.00,0.0078
3339.75,0.0079
3339.50,0.0079
3339.25,0.0079
3339.00,0.0078
3338.75,0.0077
3338.50,0.0076
3338.25,0.0075
3338.00,0.0075
3337.75,0.0076
3337.50,0.0077
3337.25,0.0077
3337.00,0.0077
3336.75,0.0077
3336.50,0.0077
3336.25,0.0078
3336.00,0.0078
3335.75,0.0078
3335.50,0.0077
3335.25,0.0076
3335.00,0.0076
3334.75,0.0076
3334.50,0.0077
3334.25,0.0079
3334.00,0.0080
3333.75,0.0081
3333.50,0.0080
3333.25,0.0078
3333.00,0.0077
3332.75,0.0077
3332.50,0.0077
3332.25,0.0078
3332.00,0.0079
3331.75,0.0079
3331.50,0.0078
3331.25,0.0077
3331.00,0.0076
3330.75,0.0077
3330.50,0.0077
3330.25,0.0078
3330.00,0.0079
3329.75,0.0079
3329.50,0.0079
3329.25,0.0078
3329.00,0.0078
3328.75,0.0078
3328.50,0.0078
3328.25,0.0078
3328.00,0.0078
3327.75,0.0078
3327.50,0.0078
3327.25,0.0079
3327.00,0.0080
3326.75,0.0081
3326.50,0.0081
3326.25,0.0080
3326.00,0.0078
3325.75,0.0076
3325.50,0.0074
3325.25,0.0073
3325.00,0.0074
3324.75,0.0076
3324.50,0.0078
3324.25,0.0081
3324.00,0.0083
3323.75,0.0083
3323.50,0.0083
3323.25,0.0083
3323.00,0.0081
3322.75,0.0080
3322.50,0.0078
3322.25,0.0077
3322.00,0.0077
3321.75,0.0076
3321.50,0.0076
3321.25,0.0076
3321.00,0.0077
3320.75,0.0078
3320.50,0.0078
3320.25,0.0077
3320.00,0.0076
3319.75,0.0076
3319.50,0.0077
3319.25,0.0079
3319.00,0.0081
3318.75,0.0082
3318.50,0.0082
3318.25,0.0082
3318.00,0.0082
3317.75,0.0082
3317.50,0.0082
3317.25,0.0082
3317.00,0.0080
3316.75,0.0079
3316.50,0.0078
3316.25,0.0077
3316.00,0.0078
3315.75,0.0078
3315.50,0.0080
3315.25,0.0081
3315.00,0.0082
3314.75,0.0082
3314.50,0.0081
3314.25,0.0080
3314.00,0.0079
3313.75,0.0078
3313.50,0.0077
3313.25,0.0077
3313.00,0.0077
3312.75,0.0077
3312.50,0.0077
3312.25,0.0077
3312.00,0.0077
3311.75,0.0077
3311.50,0.0077
3311.25,0.0078
3311.00,0.0079
3310.75,0.0080
3310.50,0.0081
3310.25,0.0082
3310.00,0.0082
3309.75,0.0082
3309.50,0.0081
3309.25,0.0080
3309.00,0.0079
3308.75,0.0078
3308.50,0.0078
3308.25,0.0077
3308.00,0.0077
3307.75,0.0077
3307.50,0.0078
3307.25,0.0079
3307.00,0.0080
3306.75,0.0081
3306.50,0.0081
3306.25,0.0081
3306.00,0.0080
3305.75,0.0080
3305.50,0.0079
3305.25,0.0079
3305.00,0.0079
3304.75,0.0080
3304.50,0.0080
3304.25,0.0080
3304.00,0.0080
3303.75,0.0080
3303.50,0.0079
3303.25,0.0079
3303.00,0.0079
3302.75,0.0079
3302.50,0.0080
3302.25,0.0080
3302.00,0.0081
3301.75,0.0080
3301.50,0.0080
3301.25,0.0079
3301.00,0.0078
3300.75,0.0077
3300.50,0.0077
3300.25,0.0076
3300.00,0.0077
3299.75,0.0078
3299.50,0.0079
3299.25,0.0080
3299.00,0.0081
3298.75,0.0081
3298.50,0.0081
3298.25,0.0081
3298.00,0.0080
3297.75,0.0079
3297.50,0.0078
3297.25,0.0077
3297.00,0.0077
3296.75,0.0078
3296.50,0.0078
3296.25,0.0078
3296.00,0.0077
3295.75,0.0077
3295.50,0.0076
3295.25,0.0075
3295.00,0.0076
3294.75,0.0077
3294.50,0.0078
3294.25,0.0079
3294.00,0.0080
3293.75,0.0081
3293.50,0.0082
3293.25,0.0083
3293.00,0.0082
3292.75,0.0081
3292.50,0.0079
3292.25,0.0077
3292.00,0.0077
3291.75,0.0077
3291.50,0.0078
3291.25,0.0079
3291.00,0.0080
3290.75,0.0081
3290.50,0.0082
3290.25,0.0082
3290.00,0.0082
3289.75,0.0082
3289.50,0.0082
3289.25,0.0081
3289.00,0.0080
3288.75,0.0078
3288.50,0.0076
3288.25,0.0075
3288.00,0.0075
3287.75,0.0076
3287.50,0.0077
3287.25,0.0078
3287.00,0.0080
3286.75,0.0081
3286.50,0.0081
3286.25,0.0080
3286.00,0.0079
3285.75,0.0078
3285.50,0.0077
3285.25,0.0077
3285.00,0.0078
3284.75,0.0078
3284.50,0.0079
3284.25,0.0080
3284.00,0.0081
3283.75,0.0080
3283.50,0.0080
3283.25,0.0080
3283.00,0.0080
3282.75,0.0080
3282.50,0.0081
3282.25,0.0081
3282.00,0.0081
3281.75,0.0081
3281.50,0.0080
3281.25,0.0079
3281.00,0.0079
3280.75,0.0079
3280.50,0.0079
3280.25,0.0079
3280.00,0.0079
3279.75,0.0079
3279.50,0.0079
3279.25,0.0079
3279.00,0.0080
3278.75,0.0081
3278.50,0.0082
3278.25,0.0082
3278.00,0.0083
3277.75,0.0083
3277.50,0.0082
3277.25,0.0081
3277.00,0.0079
3276.75,0.0077
3276.50,0.0075
3276.25,0.0075
3276.00,0.0076
3275.75,0.0077
3275.50,0.0078
3275.25,0.0078
3275.00,0.0078
3274.75,0.0078
3274.50,0.0079
3274.25,0.0080
3274.00,0.0081
3273.75,0.0082
3273.50,0.0081
3273.25,0.0081
3273.00,0.0080
3272.75,0.0079
3272.50,0.0079
3272.25,0.0079
3272.00,0.0079
3271.75,0.0079
3271.50,0.0080
3271.25,0.0079
3271.00,0.0078
3270.75,0.0077
3270.50,0.0077
3270.25,0.0077
3270.00,0.0076
3269.75,0.0077
3269.50,0.0077
3269.25,0.0078
3269.00,0.0079
3268.75,0.0081
3268.50,0.0081
3268.25,0.0082
3268.00,0.0083
3267.75,0.0083
3267.50,0.0084
3267.25,0.0084
3267.00,0.0083
3266.75,0.0083
3266.50,0.0082
3266.25,0.0082
3266.00,0.0081
3265.75,0.0080
3265.50,0.0080
3265.25,0.0079
3265.00,0.0078
3264.75,0.0078
3264.50,0.0078
3264.25,0.0078
3264.00,0.0078
3263.75,0.0078
3263.50,0.0077
3263.25,0.0076
3263.00,0.0075
3262.75,0.0075
3262.50,0.0076
3262.25,0.0077
3262.00,0.0078
3261.75,0.0079
3261.50,0.0080
3261.25,0.0080
3261.00,0.0080
3260.75,0.0079
3260.50,0.0079
3260.25,0.0079
3260.00,0.0079
3259.75,0.0079
3259.50,0.0078
3259.25,0.0078
3259.00,0.0079
3258.75,0.0079
3258.50,0.0080
3258.25,0.0079
3258.00,0.0079
3257.75,0.0079
3257.50,0.0079
3257.25,0.0079
3257.00,0.0079
3256.75,0.0079
3256.50,0.0079
3256.25,0.0080
3256.00,0.0081
3255.75,0.0081
3255.50,0.0082
3255.25,0.0081
3255.00,0.0081
3254.75,0.0081
3254.50,0.0081
3254.25,0.0081
3254.00,0.0082
3253.75,0.0082
3253.50,0.0081
3253.25,0.0081
3253.00,0.0080
3252.75,0.0080
3252.50,0.0079
3252.25,0.0079
3252.00,0.0078
3251.75,0.0078
3251.50,0.0077
3251.25,0.0078
3251.00,0.0078
3250.75,0.0078
3250.50,0.0078
3250.25,0.0077
3250.00,0.0077
3249.75,0.0078
3249.50,0.0079
3249.25,0.0080
3249.00,0.0081
3248.75,0.0082
3248.50,0.0082
3248.25,0.0081
3248.00,0.0081
3247.75,0.0080
3247.50,0.0079
3247.25,0.0078
3247.00,0.0078
3246.75,0.0078
3246.50,0.0078
3246.25,0.0078
3246.00,0.0078
3245.75,0.0078
3245.50,0.0078
3245.25,0.0079
3245.00,0.0079
3244.75,0.0079
3244.50,0.0079
3244.25,0.0079
3244.00,0.0079
3243.75,0.0079
3243.50,0.0079
3243.25,0.0079
3243.00,0.0079
3242.75,0.0078
3242.50,0.0076
3242.25,0.0074
3242.00,0.0072
3241.75,0.0071
3241.50,0.0071
3241.25,0.0073
3241.00,0.0075
3240.75,0.0077
3240.50,0.0079
3240.25,0.0079
3240.00,0.0078
3239.75,0.0078
3239.50,0.0077
3239.25,0.0077
3239.00,0.0076
3238.75,0.0075
3238.50,0.0075
3238.25,0.0075
3238.00,0.0076
3237.75,0.0076
3237.50,0.0077
3237.25,0.0076
3237.00,0.0074
3236.75,0.0074
3236.50,0.0074
3236.25,0.0076
3236.00,0.0077
3235.75,0.0078
3235.50,0.0079
3235.25,0.0078
3235.00,0.0077
3234.75,0.0077
3234.50,0.0077
3234.25,0.0078
3234.00,0.0079
3233.75,0.0080
3233.50,0.0080
3233.25,0.0079
3233.00,0.0078
3232.75,0.0076
3232.50,0.0075
3232.25,0.0075
3232.00,0.0076
3231.75,0.0075
3231.50,0.0075
3231.25,0.0074
3231.00,0.0073
3230.75,0.0073
3230.50,0.0073
3230.25,0.0074
3230.00,0.0075
3229.75,0.0076
3229.50,0.0077
3229.25,0.0078
3229.00,0.0079
3228.75,0.0079
3228.50,0.0079
3228.25,0.0079
3228.00,0.0078
3227.75,0.0078
3227.50,0.0077
3227.25,0.0076
3227.00,0.0076
3226.75,0.0076
3226.50,0.0076
3226.25,0.0076
3226.00,0.0075
3225.75,0.0075
3225.50,0.0075
3225.25,0.0075
3225.00,0.0076
3224.75,0.0076
3224.50,0.0076
3224.25,0.0076
3224.00,0.0076
3223.75,0.0076
3223.50,0.0077
3223.25,0.0077
3223.00,0.0076
3222.75,0.0075
3222.50,0.0074
3222.25,0.0073
3222.00,0.0072
3221.75,0.0073
3221.50,0.0074
3221.25,0.0075
3221.00,0.0076
3220.75,0.0077
3220.50,0.0077
3220.25,0.0077
3220.00,0.0077
3219.75,0.0077
3219.50,0.0077
3219.25,0.0077
3219.00,0.0076
3218.75,0.0074
3218.50,0.0074
3218.25,0.0074
3218.00,0.0074
3217.75,0.0075
3217.50,0.0075
3217.25,0.0075
3217.00,0.0074
3216.75,0.0075
3216.50,0.0075
3216.25,0.0076
3216.00,0.0076
3215.75,0.0077
3215.50,0.0077
3215.25,0.0077
3215.00,0.0077
3214.75,0.0077
3214.50,0.0076
3214.25,0.0076
3214.00,0.0076
3213.75,0.0076
3213.50,0.0076
3213.25,0.0075
3213.00,0.0075
3212.75,0.0074
3212.50,0.0073
3212.25,0.0072
3212.00,0.0071
3211.75,0.0072
3211.50,0.0072
3211.25,0.0073
3211.00,0.0072
3210.75,0.0072
3210.50,0.0072
3210.25,0.0073
3210.00,0.0074
3209.75,0.0076
3209.50,0.0077
3209.25,0.0078
3209.00,0.0079
3208.75,0.0079
3208.50,0.0078
3208.25,0.0076
3208.00,0.0075
3207.75,0.0074
3207.50,0.0074
3207.25,0.0074
3207.00,0.0075
3206.75,0.0075
3206.50,0.0077
3206.25,0.0078
3206.00,0.0078
3205.75,0.0078
3205.50,0.0077
3205.25,0.0076
3205.00,0.0076
3204.75,0.0076
3204.50,0.0077
3204.25,0.0077
3204.00,0.0077
3203.75,0.0076
3203.50,0.0075
3203.25,0.0074
3203.00,0.0074
3202.75,0.0074
3202.50,0.0075
3202.25,0.0076
3202.00,0.0076
3201.75,0.0076
3201.50,0.0076
3201.25,0.0075
3201.00,0.0076
3200.75,0.0077
3200.50,0.0078
3200.25,0.0079
3200.00,0.0078
3199.75,0.0077
3199.50,0.0075
3199.25,0.0073
3199.00,0.0072
3198.75,0.0072
3198.50,0.0073
3198.25,0.0074
3198.00,0.0075
3197.75,0.0075
3197.50,0.0075
3197.25,0.0074
3197.00,0.0075
3196.75,0.0075
3196.50,0.0076
3196.25,0.0077
3196.00,0.0076
3195.75,0.0076
3195.50,0.0076
3195.25,0.0076
3195.00,0.0077
3194.75,0.0078
3194.50,0.0079
3194.25,0.0079
3194.00,0.0080
3193.75,0.0080
3193.50,0.0079
3193.25,0.0078
3193.00,0.0077
3192.75,0.0077
3192.50,0.0077
3192.25,0.0078
3192.00,0.0078
3191.75,0.0076
3191.50,0.0075
3191.25,0.0073
3191.00,0.0072
3190.75,0.0072
3190.50,0.0073
3190.25,0.0074
3190.00,0.0074
3189.75,0.0075
3189.50,0.0075
3189.25,0.0076
3189.00,0.0076
3188.75,0.0076
3188.50,0.0076
3188.25,0.0076
3188.00,0.0076
3187.75,0.0076
3187.50,0.0076
3187.25,0.0075
3187.00,0.0075
3186.75,0.0075
3186.50,0.0075
3186.25,0.0075
3186.00,0.0076
3185.75,0.0077
3185.50,0.0077
3185.25,0.0076
3185.00,0.0074
3184.75,0.0072
3184.50,0.0071
3184.25,0.0072
3184.00,0.0073
3183.75,0.0074
3183.50,0.0075
3183.25,0.0076
3183.00,0.0076
3182.75,0.0075
3182.50,0.0075
3182.25,0.0074
3182.00,0.0074
3181.75,0.0076
3181.50,0.0077
3181.25,0.0079
3181.00,0.0079
3180.75,0.0079
3180.50,0.0078
3180.25,0.0076
3180.00,0.0075
3179.75,0.0074
3179.50,0.0074
3179.25,0.0073
3179.00,0.0073
3178.75,0.0073
3178.50,0.0074
3178.25,0.0074
3178.00,0.0075
3177.75,0.0076
3177.50,0.0076
3177.25,0.0075
3177.00,0.0075
3176.75,0.0074
3176.50,0.0074
3176.25,0.0075
3176.00,0.0075
3175.75,0.0076
3175.50,0.0076
3175.25,0.0077
3175.00,0.0077
3174.75,0.0078
3174.50,0.0078
3174.25,0.0078
3174.00,0.0077
3173.75,0.0076
3173.50,0.0076
3173.25,0.0075
3173.00,0.0074
3172.75,0.0074
3172.50,0.0075
3172.25,0.0076
3172.00,0.0076
3171.75,0.0076
3171.50,0.0075
3171.25,0.0075
3171.00,0.0075
3170.75,0.0075
3170.50,0.0076
3170.25,0.0076
3170.00,0.0076
3169.75,0.0074
3169.50,0.0072
3169.25,0.0071
3169.00,0.0070
3168.75,0.0070
3168.50,0.0071
3168.25,0.0072
3168.00,0.0073
3167.75,0.0074
3167.50,0.0075
3167.25,0.0075
3167.00,0.0074
3166.75,0.0074
3166.50,0.0073
3166.25,0.0073
3166.00,0.0072
3165.75,0.0072
3165.50,0.0073
3165.25,0.0074
3165.00,0.0075
3164.75,0.0076
3164.50,0.0076
3164.25,0.0075
3164.00,0.0074
3163.75,0.0073
3163.50,0.0073
3163.25,0.0073
3163.00,0.0073
3162.75,0.0073
3162.50,0.0074
3162.25,0.0074
3162.00,0.0075
3161.75,0.0075
3161.50,0.0075
3161.25,0.0074
3161.00,0.0074
3160.75,0.0073
3160.50,0.0073
3160.25,0.0072
3160.00,0.0072
3159.75,0.0073
3159.50,0.0074
3159.25,0.0075
3159.00,0.0075
3158.75,0.0074
3158.50,0.0074
3158.25,0.0074
3158.00,0.0075
3157.75,0.0075
3157.50,0.0076
3157.25,0.0076
3157.00,0.0077
3156.75,0.0076
3156.50,0.0075
3156.25,0.0074
3156.00,0.0074
3155.75,0.0074
3155.50,0.0075
3155.25,0.0076
3155.00,0.0078
3154.75,0.0079
3154.50,0.0079
3154.25,0.0078
3154.00,0.0076
3153.75,0.0074
3153.50,0.0072
3153.25,0.0072
3153.00,0.0073
3152.75,0.0075
3152.50,0.0077
3152.25,0.0079
3152.00,0.0080
3151.75,0.0080
3151.50,0.0079
3151.25,0.0078
3151.00,0.0076
3150.75,0.0076
3150.50,0.0076
3150.25,0.0076
3150.00,0.0076
3149.75,0.0076
3149.50,0.0076
3149.25,0.0075
3149.00,0.0075
3148.75,0.0075
3148.50,0.0074
3148.25,0.0074
3148.00,0.0073
3147.75,0.0072
3147.50,0.0072
3147.25,0.0073
3147.00,0.0073
3146.75,0.0074
3146.50,0.0075
3146.25,0.0076
3146.00,0.0077
3145.75,0.0077
3145.50,0.0078
3145.25,0.0077
3145.00,0.0077
3144.75,0.0076
3144.50,0.0075
3144.25,0.0075
3144.00,0.0074
3143.75,0.0075
3143.50,0.0075
3143.25,0.0076
3143.00,0.0076
3142.75,0.0076
3142.50,0.0075
3142.25,0.0074
3142.00,0.0074
3141.75,0.0075
3141.50,0.0076
3141.25,0.0077
3141.00,0.0077
3140.75,0.0077
3140.50,0.0077
3140.25,0.0076
3140.00,0.0075
3139.75,0.0075
3139.50,0.0075
3139.25,0.0076
3139.00,0.0076
3138.75,0.0077
3138.50,0.0076
3138.25,0.0076
3138.00,0.0075
3137.75,0.0075
3137.50,0.0074
3137.25,0.0074
3137.00,0.0074
3136.75,0.0074
3136.50,0.0075
3136.25,0.0075
3136.00,0.0075
3135.75,0.0074
3135.50,0.0074
3135.25,0.0073
3135.00,0.0073
3134.75,0.0074
3134.50,0.0074
3134.25,0.0075
3134.00,0.0075
3133.75,0.0074
3133.50,0.0073
3133.25,0.0074
3133.00,0.0075
3132.75,0.0076
3132.50,0.0077
3132.25,0.0078
3132.00,0.0077
3131.75,0.0076
3131.50,0.0075
3131.25,0.0075
3131.00,0.0075
3130.75,0.0075
3130.50,0.0075
3130.25,0.0075
3130.00,0.0076
3129.75,0.0075
3129.50,0.0075
3129.25,0.0075
3129.00,0.0075
3128.75,0.0075
3128.50,0.0074
3128.25,0.0074
3128.00,0.0073
3127.75,0.0074
3127.50,0.0074
3127.25,0.0076
3127.00,0.0076
3126.75,0.0077
3126.50,0.0076
3126.25,0.0076
3126.00,0.0075
3125.75,0.0075
3125.50,0.0074
3125.25,0.0074
3125.00,0.0074
3124.75,0.0074
3124.50,0.0074
3124.25,0.0074
3124.00,0.0074
3123.75,0.0074
3123.50,0.0075
3123.25,0.0076
3123.00,0.0077
3122.75,0.0078
3122.50,0.0079
3122.25,0.0079
3122.00,0.0079
3121.75,0.0078
3121.50,0.0077
3121.25,0.0076
3121.00,0.0075
3120.75,0.0075
3120.50,0.0075
3120.25,0.0076
3120.00,0.0077
3119.75,0.0077
3119.50,0.0076
3119.25,0.0076
3119.00,0.0075
3118.75,0.0075
3118.50,0.0075
3118.25,0.0075
3118.00,0.0075
3117.75,0.0074
3117.50,0.0074
3117.25,0.0075
3117.00,0.0076
3116.75,0.0076
3116.50,0.0077
3116.25,0.0077
3116.00,0.0076
3115.75,0.0076
3115.50,0.0075
3115.25,0.0075
3115.00,0.0075
3114.75,0.0074
3114.50,0.0075
3114.25,0.0075
3114.00,0.0075
3113.75,0.0076
3113.50,0.0076
3113.25,0.0077
3113.00,0.0077
3112.75,0.0077
3112.50,0.0077
3112.25,0.0077
3112.00,0.0077
3111.75,0.0078
3111.50,0.0079
3111.25,0.0079
3111.00,0.0079
3110.75,0.0079
3110.50,0.0079
3110.25,0.0080
3110.00,0.0080
3109.75,0.0079
3109.50,0.0077
3109.25,0.0076
3109.00,0.0075
3108.75,0.0074
3108.50,0.0075
3108.25,0.0075
3108.00,0.0076
3107.75,0.0076
3107.50,0.0076
3107.25,0.0076
3107.00,0.0077
3106.75,0.0077
3106.50,0.0077
3106.25,0.0077
3106.00,0.0079
3105.75,0.0081
3105.50,0.0082
3105.25,0.0081
3105.00,0.0080
3104.75,0.0078
3104.50,0.0075
3104.25,0.0074
3104.00,0.0073
3103.75,0.0074
3103.50,0.0075
3103.25,0.0077
3103.00,0.0078
3102.75,0.0078
3102.50,0.0077
3102.25,0.0076
3102.00,0.0076
3101.75,0.0076
3101.50,0.0076
3101.25,0.0077
3101.00,0.0077
3100.75,0.0078
3100.50,0.0078
3100.25,0.0078
3100.00,0.0078
3099.75,0.0077
3099.50,0.0077
3099.25,0.0077
3099.00,0.0077
3098.75,0.0077
3098.50,0.0076
3098.25,0.0075
3098.00,0.0074
3097.75,0.0074
3097.50,0.0075
3097.25,0.0076
3097.00,0.0077
3096.75,0.0078
3096.50,0.0078
3096.25,0.0078
3096.00,0.0079
3095.75,0.0078
3095.50,0.0078
3095.25,0.0076
3095.00,0.0075
3094.75,0.0073
3094.50,0.0072
3094.25,0.0071
3094.00,0.0072
3093.75,0.0073
3093.50,0.0075
3093.25,0.0078
3093.00,0.0079
3092.75,0.0080
3092.50,0.0079
3092.25,0.0078
3092.00,0.0076
3091.75,0.0075
3091.50,0.0075
3091.25,0.0075
3091.00,0.0076
3090.75,0.0076
3090.50,0.0075
3090.25,0.0074
3090.00,0.0073
3089.75,0.0072
3089.50,0.0072
3089.25,0.0072
3089.00,0.0073
3088.75,0.0075
3088.50,0.0076
3088.25,0.0078
3088.00,0.0078
3087.75,0.0079
3087.50,0.0078
3087.25,0.0078
3087.00,0.0078
3086.75,0.0078
3086.50,0.0079
3086.25,0.0080
3086.00,0.0079
3085.75,0.0078
3085.50,0.0076
3085.25,0.0074
3085.00,0.0073
3084.75,0.0074
3084.50,0.0075
3084.25,0.0077
3084.00,0.0079
3083.75,0.0080
3083.50,0.0080
3083.25,0.0080
3083.00,0.0079
3082.75,0.0080
3082.50,0.0081
3082.25,0.0082
3082.00,0.0082
3081.75,0.0081
3081.50,0.0080
3081.25,0.0079
3081.00,0.0079
3080.75,0.0080
3080.50,0.0080
3080.25,0.0081
3080.00,0.0081
3079.75,0.0081
3079.50,0.0081
3079.25,0.0081
3079.00,0.0081
3078.75,0.0080
3078.50,0.0080
3078.25,0.0079
3078.00,0.0078
3077.75,0.0078
3077.50,0.0078
3077.25,0.0079
3077.00,0.0080
3076.75,0.0080
3076.50,0.0079
3076.25,0.0078
3076.00,0.0077
3075.75,0.0078
3075.50,0.0078
3075.25,0.0079
3075.00,0.0079
3074.75,0.0079
3074.50,0.0079
3074.25,0.0079
3074.00,0.0078
3073.75,0.0078
3073.50,0.0079
3073.25,0.0079
3073.00,0.0079
3072.75,0.0080
3072.50,0.0079
3072.25,0.0079
3072.00,0.0079
3071.75,0.0079
3071.50,0.0078
3071.25,0.0078
3071.00,0.0078
3070.75,0.0078
3070.50,0.0079
3070.25,0.0079
3070.00,0.0080
3069.75,0.0080
3069.50,0.0079
3069.25,0.0078
3069.00,0.0077
3068.75,0.0076
3068.50,0.0075
3068.25,0.0075
3068.00,0.0074
3067.75,0.0075
3067.50,0.0075
3067.25,0.0076
3067.00,0.0077
3066.75,0.0077
3066.50,0.0078
3066.25,0.0078
3066.00,0.0078
3065.75,0.0078
3065.50,0.0077
3065.25,0.0077
3065.00,0.0076
3064.75,0.0076
3064.50,0.0076
3064.25,0.0076
3064.00,0.0076
3063.75,0.0077
3063.50,0.0078
3063.25,0.0078
3063.00,0.0078
3062.75,0.0078
3062.50,0.0077
3062.25,0.0077
3062.00,0.0077
3061.75,0.0077
3061.50,0.0078
3061.25,0.0078
3061.00,0.0079
3060.75,0.0079
3060.50,0.0079
3060.25,0.0079
3060.00,0.0079
3059.75,0.0080
3059.50,0.0080
3059.25,0.0081
3059.00,0.0081
3058.75,0.0081
3058.50,0.0081
3058.25,0.0081
3058.00,0.0081
3057.75,0.0081
3057.50,0.0082
3057.25,0.0082
3057.00,0.0081
3056.75,0.0080
3056.50,0.0078
3056.25,0.0077
3056.00,0.0075
3055.75,0.0075
3055.50,0.0076
3055.25,0.0078
3055.00,0.0080
3054.75,0.0082
3054.50,0.0082
3054.25,0.0081
3054.00,0.0080
3053.75,0.0080
3053.50,0.0080
3053.25,0.0080
3053.00,0.0080
3052.75,0.0080
3052.50,0.0079
3052.25,0.0079
3052.00,0.0079
3051.75,0.0079
3051.50,0.0080
3051.25,0.0080
3051.00,0.0081
3050.75,0.0082
3050.50,0.0082
3050.25,0.0081
3050.00,0.0081
3049.75,0.0080
3049.50,0.0080
3049.25,0.0079
3049.00,0.0079
3048.75,0.0078
3048.50,0.0078
3048.25,0.0079
3048.00,0.0080
3047.75,0.0081
3047.50,0.0082
3047.25,0.0082
3047.00,0.0082
3046.75,0.0081
3046.50,0.0081
3046.25,0.0080
3046.00,0.0080
3045.75,0.0080
3045.50,0.0080
3045.25,0.0080
3045.00,0.0080
3044.75,0.0080
3044.50,0.0081
3044.25,0.0081
3044.00,0.0079
3043.75,0.0077
3043.50,0.0075
3043.25,0.0075
3043.00,0.0075
3042.75,0.0075
3042.50,0.0076
3042.25,0.0076
3042.00,0.0077
3041.75,0.0078
3041.50,0.0078
3041.25,0.0079
3041.00,0.0079
3040.75,0.0079
3040.50,0.0079
3040.25,0.0079
3040.00,0.0079
3039.75,0.0078
3039.50,0.0076
3039.25,0.0075
3039.00,0.0075
3038.75,0.0075
3038.50,0.0076
3038.25,0.0077
3038.00,0.0077
3037.75,0.0078
3037.50,0.0078
3037.25,0.0078
3037.00,0.0079
3036.75,0.0079
3036.50,0.0080
3036.25,0.0080
3036.00,0.0080
3035.75,0.0080
3035.50,0.0079
3035.25,0.0079
3035.00,0.0079
3034.75,0.0078
3034.50,0.0078
3034.25,0.0077
3034.00,0.0077
3033.75,0.0077
3033.50,0.0077
3033.25,0.0077
3033.00,0.0077
3032.75,0.0076
3032.50,0.0076
3032.25,0.0076
3032.00,0.0077
3031.75,0.0077
3031.50,0.0078
3031.25,0.0079
3031.00,0.0079
3030.75,0.0079
3030.50,0.0080
3030.25,0.0080
3030.00,0.0080
3029.75,0.0080
3029.50,0.0078
3029.25,0.0077
3029.00,0.0076
3028.75,0.0075
3028.50,0.0076
3028.25,0.0077
3028.00,0.0078
3027.75,0.0079
3027.50,0.0079
3027.25,0.0080
3027.00,0.0080
3026.75,0.0080
3026.50,0.0080
3026.25,0.0078
3026.00,0.0077
3025.75,0.0076
3025.50,0.0075
3025.25,0.0074
3025.00,0.0075
3024.75,0.0076
3024.50,0.0077
3024.25,0.0079
3024.00,0.0080
3023.75,0.0080
3023.50,0.0080
3023.25,0.0080
3023.00,0.0080
3022.75,0.0081
3022.50,0.0081
3022.25,0.0081
3022.00,0.0080
3021.75,0.0078
3021.50,0.0077
3021.25,0.0075
3021.00,0.0075
3020.75,0.0076
3020.50,0.0077
3020.25,0.0079
3020.00,0.0080
3019.75,0.0080
3019.50,0.0079
3019.25,0.0077
3019.00,0.0077
3018.75,0.0077
3018.50,0.0077
3018.25,0.0079
3018.00,0.0080
3017.75,0.0081
3017.50,0.0082
3017.25,0.0082
3017.00,0.0082
3016.75,0.0081
3016.50,0.0079
3016.25,0.0078
3016.00,0.0078
3015.75,0.0078
3015.50,0.0079
3015.25,0.0079
3015.00,0.0079
3014.75,0.0079
3014.50,0.0080
3014.25,0.0080
3014.00,0.0081
3013.75,0.0081
3013.50,0.0081
3013.25,0.0080
3013.00,0.0079
3012.75,0.0078
3012.50,0.0078
3012.25,0.0079
3012.00,0.0079
3011.75,0.0080
3011.50,0.0081
3011.25,0.0081
3011.00,0.0082
3010.75,0.0082
3010.50,0.0082
3010.25,0.0082
3010.00,0.0081
3009.75,0.0081
3009.50,0.0080
3009.25,0.0080
3009.00,0.0080
3008.75,0.0080
3008.50,0.0081
3008.25,0.0081
3008.00,0.0082
3007.75,0.0083
3007.50,0.0084
3007.25,0.0083
3007.00,0.0082
3006.75,0.0081
3006.50,0.0080
3006.25,0.0081
3006.00,0.0082
3005.75,0.0083
3005.50,0.0084
3005.25,0.0084
3005.00,0.0083
3004.75,0.0082
3004.50,0.0080
3004.25,0.0079
3004.00,0.0079
3003.75,0.0080
3003.50,0.0082
3003.25,0.0083
3003.00,0.0084
3002.75,0.0084
3002.50,0.0084
3002.25,0.0083
3002.00,0.0084
3001.75,0.0084
3001.50,0.0085
3001.25,0.0085
3001.00,0.0084
3000.75,0.0083
3000.50,0.0082
3000.25,0.0080
3000.00,0.0080
2999.75,0.0079
2999.50,0.0079
2999.25,0.0079
2999.00,0.0080
2998.75,0.0081
2998.50,0.0082
2998.25,0.0084
2998.00,0.0085
2997.75,0.0085
2997.50,0.0086
2997.25,0.0086
2997.00,0.0086
2996.75,0.0085
2996.50,0.0085
2996.25,0.0085
2996.00,0.0085
2995.75,0.0086
2995.50,0.0087
2995.25,0.0088
2995.00,0.0088
2994.75,0.0088
2994.50,0.0087
2994.25,0.0086
2994.00,0.0086
2993.75,0.0086
2993.50,0.0087
2993.25,0.0088
2993.00,0.0090
2992.75,0.0091
2992.50,0.0092
2992.25,0.0092
2992.00,0.0091
2991.75,0.0090
2991.50,0.0090
2991.25,0.0090
2991.00,0.0090
2990.75,0.0090
2990.50,0.0089
2990.25,0.0089
2990.00,0.0089
2989.75,0.0090
2989.50,0.0091
2989.25,0.0093
2989.00,0.0094
2988.75,0.0094
2988.50,0.0094
2988.25,0.0093
2988.00,0.0093
2987.75,0.0093
2987.50,0.0094
2987.25,0.0095
2987.00,0.0096
2986.75,0.0096
2986.50,0.0096
2986.25,0.0096
2986.00,0.0097
2985.75,0.0098
2985.50,0.0099
2985.25,0.0101
2985.00,0.0103
2984.75,0.0105
2984.50,0.0106
2984.25,0.0107
2984.00,0.0107
2983.75,0.0106
2983.50,0.0107
2983.25,0.0107
2983.00,0.0108
2982.75,0.0109
2982.50,0.0111
2982.25,0.0112
2982.00,0.0114
2981.75,0.0116
2981.50,0.0117
2981.25,0.0118
2981.00,0.0118
2980.75,0.0118
2980.50,0.0119
2980.25,0.0120
2980.00,0.0122
2979.75,0.0124
2979.50,0.0126
2979.25,0.0129
2979.00,0.0131
2978.75,0.0133
2978.50,0.0134
2978.25,0.0136
2978.00,0.0137
2977.75,0.0139
2977.50,0.0140
2977.25,0.0142
2977.00,0.0144
2976.75,0.0146
2976.50,0.0148
2976.25,0.0150
2976.00,0.0151
2975.75,0.0152
2975.50,0.0154
2975.25,0.0156
2975.00,0.0160
2974.75,0.0165
2974.50,0.0170
2974.25,0.0175
2974.00,0.0179
2973.75,0.0182
2973.50,0.0185
2973.25,0.0188
2973.00,0.0190
2972.75,0.0192
2972.50,0.0195
2972.25,0.0199
2972.00,0.0204
2971.75,0.0209
2971.50,0.0214
2971.25,0.0217
2971.00,0.0221
2970.75,0.0225
2970.50,0.0231
2970.25,0.0237
2970.00,0.0244
2969.75,0.0249
2969.50,0.0254
2969.25,0.0259
2969.00,0.0263
2968.75,0.0268
2968.50,0.0273
2968.25,0.0279
2968.00,0.0285
2967.75,0.0291
2967.50,0.0297
2967.25,0.0303
2967.00,0.0309
2966.75,0.0314
2966.50,0.0319
2966.25,0.0323
2966.00,0.0327
2965.75,0.0331
2965.50,0.0335
2965.25,0.0340
2965.00,0.0346
2964.75,0.0352
2964.50,0.0358
2964.25,0.0363
2964.00,0.0366
2963.75,0.0368
2963.50,0.0369
2963.25,0.0370
2963.00,0.0371
2962.75,0.0373
2962.50,0.0374
2962.25,0.0375
2962.00,0.0376
2961.75,0.0378
2961.50,0.0379
2961.25,0.0378
2961.00,0.0376
2960.75,0.0373
2960.50,0.0368
2960.25,0.0364
2960.00,0.0359
2959.75,0.0355
2959.50,0.0351
2959.25,0.0346
2959.00,0.0341
2958.75,0.0336
2958.50,0.0331
2958.25,0.0325
2958.00,0.0320
2957.75,0.0314
2957.50,0.0308
2957.25,0.0302
2957.00,0.0295
2956.75,0.0289
2956.50,0.0284
2956.25,0.0279
2956.00,0.0274
2955.75,0.0269
2955.50,0.0263
2955.25,0.0257
2955.00,0.0251
2954.75,0.0245
2954.50,0.0239
2954.25,0.0234
2954.00,0.0228
2953.75,0.0224
2953.50,0.0220
2953.25,0.0216
2953.00,0.0212
2952.75,0.0208
2952.50,0.0202
2952.25,0.0197
2952.00,0.0193
2951.75,0.0189
2951.50,0.0185
2951.25,0.0181
2951.00,0.0178
2950.75,0.0177
2950.50,0.0175
2950.25,0.0174
2950.00,0.0171
2949.75,0.0167
2949.50,0.0163
2949.25,0.0159
2949.00,0.0156
2948.75,0.0154
2948.50,0.0151
2948.25,0.0148
2948.00,0.0145
2947.75,0.0143
2947.50,0.0142
2947.25,0.0142
2947.00,0.0142
2946.75,0.0142
2946.50,0.0141
2946.25,0.0139
2946.00,0.0138
2945.75,0.0136
2945.50,0.0134
2945.25,0.0132
2945.00,0.0130
2944.75,0.0128
2944.50,0.0127
2944.25,0.0126
2944.00,0.0126
2943.75,0.0126
2943.50,0.0125
2943.25,0.0125
2943.00,0.0125
2942.75,0.0126
2942.50,0.0126
2942.25,0.0127
2942.00,0.0126
2941.75,0.0124
2941.50,0.0121
2941.25,0.0118
2941.00,0.0115
2940.75,0.0113
2940.50,0.0112
2940.25,0.0112
2940.00,0.0113
2939.75,0.0113
2939.50,0.0113
2939.25,0.0113
2939.00,0.0112
2938.75,0.0111
2938.50,0.0110
2938.25,0.0110
2938.00,0.0109
2937.75,0.0109
2937.50,0.0109
2937.25,0.0110
2937.00,0.0111
2936.75,0.0112
2936.50,0.0113
2936.25,0.0113
2936.00,0.0112
2935.75,0.0110
2935.50,0.0108
2935.25,0.0107
2935.00,0.0106
2934.75,0.0105
2934.50,0.0105
2934.25,0.0105
2934.00,0.0105
2933.75,0.0106
2933.50,0.0107
2933.25,0.0107
2933.00,0.0106
2932.75,0.0105
2932.50,0.0104
2932.25,0.0104
2932.00,0.0104
2931.75,0.0104
2931.50,0.0103
2931.25,0.0103
2931.00,0.0102
2930.75,0.0102
2930.50,0.0102
2930.25,0.0102
2930.00,0.0103
2929.75,0.0104
2929.50,0.0104
2929.25,0.0104
2929.00,0.0104
2928.75,0.0103
2928.50,0.0103
2928.25,0.0103
2928.00,0.0104
2927.75,0.0105
2927.50,0.0105
2927.25,0.0105
2927.00,0.0104
2926.75,0.0103
2926.50,0.0102
2926.25,0.0102
2926.00,0.0102
2925.75,0.0102
2925.50,0.0103
2925.25,0.0104
2925.00,0.0104
2924.75,0.0104
2924.50,0.0103
2924.25,0.0103
2924.00,0.0103
2923.75,0.0104
2923.50,0.0104
2923.25,0.0105
2923.00,0.0106
2922.75,0.0107
2922.50,0.0107
2922.25,0.0108
2922.00,0.0108
2921.75,0.0107
2921.50,0.0107
2921.25,0.0107
2921.00,0.0107
2920.75,0.0107
2920.50,0.0107
2920.25,0.0106
2920.00,0.0106
2919.75,0.0106
2919.50,0.0107
2919.25,0.0109
2919.00,0.0109
2918.75,0.0109
2918.50,0.0109
2918.25,0.0108
2918.00,0.0109
2917.75,0.0111
2917.50,0.0113
2917.25,0.0114
2917.00,0.0116
2916.75,0.0116
2916.50,0.0115
2916.25,0.0114
2916.00,0.0113
2915.75,0.0112
2915.50,0.0112
2915.25,0.0112
2915.00,0.0112
2914.75,0.0113
2914.50,0.0113
2914.25,0.0113
2914.00,0.0114
2913.75,0.0114
2913.50,0.0115
2913.25,0.0115
2913.00,0.0114
2912.75,0.0113
2912.50,0.0112
2912.25,0.0111
2912.00,0.0111
2911.75,0.0111
2911.50,0.0112
2911.25,0.0112
2911.00,0.0112
2910.75,0.0111
2910.50,0.0111
2910.25,0.0112
2910.00,0.0113
2909.75,0.0114
2909.50,0.0115
2909.25,0.0115
2909.00,0.0114
2908.75,0.0114
2908.50,0.0113
2908.25,0.0113
2908.00,0.0114
2907.75,0.0115
2907.50,0.0116
2907.25,0.0118
2907.00,0.0119
2906.75,0.0120
2906.50,0.0121
2906.25,0.0121
2906.00,0.0121
2905.75,0.0121
2905.50,0.0121
2905.25,0.0121
2905.00,0.0120
2904.75,0.0119
2904.50,0.0118
2904.25,0.0117
2904.00,0.0117
2903.75,0.0116
2903.50,0.0116
2903.25,0.0117
2903.00,0.0117
2902.75,0.0117
2902.50,0.0118
2902.25,0.0119
2902.00,0.0119
2901.75,0.0119
2901.50,0.0118
2901.25,0.0117
2901.00,0.0116
2900.75,0.0115
2900.50,0.0115
2900.25,0.0115
2900.00,0.0115
2899.75,0.0114
2899.50,0.0113
2899.25,0.0112
2899.00,0.0110
2898.75,0.0109
2898.50,0.0108
2898.25,0.0107
2898.00,0.0107
2897.75,0.0107
2897.50,0.0107
2897.25,0.0107
2897.00,0.0106
2896.75,0.0105
2896.50,0.0104
2896.25,0.0104
2896.00,0.0104
2895.75,0.0104
2895.50,0.0104
2895.25,0.0103
2895.00,0.0103
2894.75,0.0102
2894.50,0.0102
2894.25,0.0102
2894.00,0.0101
2893.75,0.0100
2893.50,0.0099
2893.25,0.0098
2893.00,0.0097
2892.75,0.0097
2892.50,0.0096
2892.25,0.0095
2892.00,0.0095
2891.75,0.0095
2891.50,0.0097
2891.25,0.0098
2891.00,0.0099
2890.75,0.0099
2890.50,0.0097
2890.25,0.0094
2890.00,0.0091
2889.75,0.0088
2889.50,0.0087
2889.25,0.0086
2889.00,0.0087
2888.75,0.0089
2888.50,0.0091
2888.25,0.0092
2888.00,0.0092
2887.75,0.0091
2887.50,0.0090
2887.25,0.0089
2887.00,0.0088
2886.75,0.0088
2886.50,0.0088
2886.25,0.0089
2886.00,0.0090
2885.75,0.0090
2885.50,0.0089
2885.25,0.0088
2885.00,0.0087
2884.75,0.0087
2884.50,0.0088
2884.25,0.0089
2884.00,0.0090
2883.75,0.0089
2883.50,0.0088
2883.25,0.0086
2883.00,0.0084
2882.75,0.0084
2882.50,0.0084
2882.25,0.0086
2882.00,0.0088
2881.75,0.0090
2881.50,0.0091
2881.25,0.0091
2881.00,0.0090
2880.75,0.0089
2880.50,0.0088
2880.25,0.0087
2880.00,0.0086
2879.75,0.0085
2879.50,0.0085
2879.25,0.0085
2879.00,0.0085
2878.75,0.0084
2878.50,0.0084
2878.25,0.0084
2878.00,0.0085
2877.75,0.0085
2877.50,0.0085
2877.25,0.0085
2877.00,0.0084
2876.75,0.0083
2876.50,0.0083
2876.25,0.0083
2876.00,0.0084
2875.75,0.0085
2875.50,0.0086
2875.25,0.0086
2875.00,0.0087
2874.75,0.0086
2874.50,0.0085
2874.25,0.0083
2874.00,0.0082
2873.75,0.0081
2873.50,0.0081
2873.25,0.0081
2873.00,0.0081
2872.75,0.0082
2872.50,0.0082
2872.25,0.0083
2872.00,0.0083
2871.75,0.0083
2871.50,0.0082
2871.25,0.0082
2871.00,0.0081
2870.75,0.0081
2870.50,0.0081
2870.25,0.0081
2870.00,0.0082
2869.75,0.0083
2869.50,0.0083
2869.25,0.0083
2869.00,0.0083
2868.75,0.0082
2868.50,0.0081
2868.25,0.0080
2868.00,0.0080
2867.75,0.0081
2867.50,0.0081
2867.25,0.0082
2867.00,0.0082
2866.75,0.0083
2866.50,0.0083
2866.25,0.0082
2866.00,0.0082
2865.75,0.0083
2865.50,0.0084
2865.25,0.0084
2865.00,0.0084
2864.75,0.0083
2864.50,0.0081
2864.25,0.0081
2864.00,0.0080
2863.75,0.0081
2863.50,0.0082
2863.25,0.0083
2863.00,0.0083
2862.75,0.0083
2862.50,0.0081
2862.25,0.0079
2862.00,0.0078
2861.75,0.0078
2861.50,0.0079
2861.25,0.0081
2861.00,0.0082
2860.75,0.0083
2860.50,0.0082
2860.25,0.0081
2860.00,0.0079
2859.75,0.0079
2859.50,0.0079
2859.25,0.0079
2859.00,0.0080
2858.75,0.0080
2858.50,0.0080
2858.25,0.0080
2858.00,0.0080
2857.75,0.0081
2857.50,0.0082
2857.25,0.0084
2857.00,0.0084
2856.75,0.0084
2856.50,0.0083
2856.25,0.0082
2856.00,0.0082
2855.75,0.0081
2855.50,0.0081
2855.25,0.0082
2855.00,0.0082
2854.75,0.0082
2854.50,0.0083
2854.25,0.0083
2854.00,0.0083
2853.75,0.0083
2853.50,0.0083
2853.25,0.0083
2853.00,0.0084
2852.75,0.0084
2852.50,0.0084
2852.25,0.0083
2852.00,0.0083
2851.75,0.0083
2851.50,0.0083
2851.25,0.0085
2851.00,0.0086
2850.75,0.0087
2850.50,0.0087
2850.25,0.0087
2850.00,0.0088
2849.75,0.0088
2849.50,0.0089
2849.25,0.0090
2849.00,0.0090
2848.75,0.0089
2848.50,0.0088
2848.25,0.0086
2848.00,0.0084
2847.75,0.0083
2847.50,0.0083
2847.25,0.0083
2847.00,0.0083
2846.75,0.0084
2846.50,0.0084
2846.25,0.0084
2846.00,0.0084
2845.75,0.0084
2845.50,0.0083
2845.25,0.0081
2845.00,0.0080
2844.75,0.0079
2844.50,0.0078
2844.25,0.0078
2844.00,0.0078
2843.75,0.0078
2843.50,0.0078
2843.25,0.0077
2843.00,0.0078
2842.75,0.0078
2842.50,0.0079
2842.25,0.0079
2842.00,0.0079
2841.75,0.0078
2841.50,0.0077
2841.25,0.0076
2841.00,0.0075
2840.75,0.0075
2840.50,0.0076
2840.25,0.0076
2840.00,0.0077
2839.75,0.0077
2839.50,0.0076
2839.25,0.0075
2839.00,0.0074
2838.75,0.0074
2838.50,0.0075
2838.25,0.0076
2838.00,0.0078
2837.75,0.0079
2837.50,0.0080
2837.25,0.0081
2837.00,0.0080
2836.75,0.0079
2836.50,0.0077
2836.25,0.0076
2836.00,0.0075
2835.75,0.0075
2835.50,0.0075
2835.25,0.0075
2835.00,0.0075
2834.75,0.0076
2834.50,0.0076
2834.25,0.0076
2834.00,0.0077
2833.75,0.0077
2833.50,0.0078
2833.25,0.0078
2833.00,0.0077
2832.75,0.0077
2832.50,0.0076
2832.25,0.0076
2832.00,0.0076
2831.75,0.0076
2831.50,0.0076
2831.25,0.0076
2831.00,0.0076
2830.75,0.0076
2830.50,0.0075
2830.25,0.0075
2830.00,0.0075
2829.75,0.0075
2829.50,0.0076
2829.25,0.0077
2829.00,0.0077
2828.75,0.0076
2828.50,0.0075
2828.25,0.0073
2828.00,0.0072
2827.75,0.0072
2827.50,0.0072
2827.25,0.0072
2827.00,0.0072
2826.75,0.0073
2826.50,0.0073
2826.25,0.0074
2826.00,0.0075
2825.75,0.0076
2825.50,0.0077
2825.25,0.0077
2825.00,0.0077
2824.75,0.0077
2824.50,0.0076
2824.25,0.0076
2824.00,0.0075
2823.75,0.0075
2823.50,0.0075
2823.25,0.0075
2823.00,0.0075
2822.75,0.0075
2822.50,0.0075
2822.25,0.0075
2822.00,0.0075
2821.75,0.0076
2821.50,0.0076
2821.25,0.0076
2821.00,0.0075
2820.75,0.0075
2820.50,0.0075
2820.25,0.0075
2820.00,0.0075
2819.75,0.0075
2819.50,0.0076
2819.25,0.0076
2819.00,0.0077
2818.75,0.0076
2818.50,0.0075
2818.25,0.0075
2818.00,0.0074
2817.75,0.0073
2817.50,0.0073
2817.25,0.0072
2817.00,0.0072
2816.75,0.0072
2816.50,0.0073
2816.25,0.0074
2816.00,0.0075
2815.75,0.0075
2815.50,0.0075
2815.25,0.0076
2815.00,0.0076
2814.75,0.0076
2814.50,0.0076
2814.25,0.0076
2814.00,0.0076
2813.75,0.0076
2813.50,0.0076
2813.25,0.0075
2813.00,0.0075
2812.75,0.0074
2812.50,0.0074
2812.25,0.0074
2812.00,0.0074
2811.75,0.0074
2811.50,0.0074
2811.25,0.0074
2811.00,0.0074
2810.75,0.0074
2810.50,0.0074
2810.25,0.0074
2810.00,0.0074
2809.75,0.0074
2809.50,0.0075
2809.25,0.0075
2809.00,0.0075
2808.75,0.0075
2808.50,0.0075
2808.25,0.0075
2808.00,0.0075
2807.75,0.0074
2807.50,0.0074
2807.25,0.0073
2807.00,0.0073
2806.75,0.0073
2806.50,0.0074
2806.25,0.0074
2806.00,0.0075
2805.75,0.0076
2805.50,0.0076
2805.25,0.0076
2805.00,0.0075
2804.75,0.0075
2804.50,0.0074
2804.25,0.0073
2804.00,0.0073
2803.75,0.0073
2803.50,0.0073
2803.25,0.0073
2803.00,0.0074
2802.75,0.0075
2802.50,0.0076
2802.25,0.0077
2802.00,0.0077
2801.75,0.0077
2801.50,0.0077
2801.25,0.0076
2801.00,0.0075
2800.75,0.0075
2800.50,0.0075
2800.25,0.0075
2800.00,0.0075
2799.75,0.0075
2799.50,0.0075
2799.25,0.0075
2799.00,0.0075
2798.75,0.0074
2798.50,0.0073
2798.25,0.0073
2798.00,0.0073
2797.75,0.0074
2797.50,0.0075
2797.25,0.0076
2797.00,0.0076
2796.75,0.0076
2796.50,0.0075
2796.25,0.0075
2796.00,0.0074
2795.75,0.0074
2795.50,0.0074
2795.25,0.0074
2795.00,0.0074
2794.75,0.0074
2794.50,0.0074
2794.25,0.0075
2794.00,0.0075
2793.75,0.0074
2793.50,0.0073
2793.25,0.0073
2793.00,0.0073
2792.75,0.0073
2792.50,0.0074
2792.25,0.0075
2792.00,0.0075
2791.75,0.0075
2791.50,0.0074
2791.25,0.0073
2791.00,0.0072
2790.75,0.0072
2790.50,0.0072
2790.25,0.0072
2790.00,0.0072
2789.75,0.0072
2789.50,0.0072
2789.25,0.0073
2789.00,0.0074
2788.75,0.0074
2788.50,0.0074
2788.25,0.0074
2788.00,0.0074
2787.75,0.0074
2787.50,0.0074
2787.25,0.0075
2787.00,0.0075
2786.75,0.0075
2786.50,0.0075
2786.25,0.0074
2786.00,0.0074
2785.75,0.0072
2785.50,0.0071
2785.25,0.0070
2785.00,0.0069
2784.75,0.0069
2784.50,0.0069
2784.25,0.0070
2784.00,0.0070
2783.75,0.0071
2783.50,0.0071
2783.25,0.0072
2783.00,0.0072
2782.75,0.0072
2782.50,0.0071
2782.25,0.0071
2782.00,0.0071
2781.75,0.0071
2781.50,0.0071
2781.25,0.0071
2781.00,0.0072
2780.75,0.0072
2780.50,0.0073
2780.25,0.0073
2780.00,0.0073
2779.75,0.0073
2779.50,0.0072
2779.25,0.0071
2779.00,0.0071
2778.75,0.0071
2778.50,0.0072
2778.25,0.0073
2778.00,0.0074
2777.75,0.0074
2777.50,0.0073
2777.25,0.0072
2777.00,0.0071
2776.75,0.0069
2776.50,0.0068
2776.25,0.0068
2776.00,0.0068
2775.75,0.0068
2775.50,0.0068
2775.25,0.0070
2775.00,0.0071
2774.75,0.0073
2774.50,0.0074
2774.25,0.0073
2774.00,0.0072
2773.75,0.0070
2773.50,0.0069
2773.25,0.0068
2773.00,0.0067
2772.75,0.0067
2772.50,0.0068
2772.25,0.0069
2772.00,0.0070
2771.75,0.0070
2771.50,0.0070
2771.25,0.0069
2771.00,0.0069
2770.75,0.0068
2770.50,0.0068
2770.25,0.0068
2770.00,0.0069
2769.75,0.0069
2769.50,0.0068
2769.25,0.0068
2769.00,0.0067
2768.75,0.0067
2768.50,0.0067
2768.25,0.0068
2768.00,0.0068
2767.75,0.0068
2767.50,0.0068
2767.25,0.0067
2767.00,0.0067
2766.75,0.0066
2766.50,0.0066
2766.25,0.0067
2766.00,0.0068
2765.75,0.0070
2765.50,0.0070
2765.25,0.0070
2765.00,0.0070
2764.75,0.0070
2764.50,0.0070
2764.25,0.0070
2764.00,0.0071
2763.75,0.0071
2763.50,0.0071
2763.25,0.0071
2763.00,0.0071
2762.75,0.0069
2762.50,0.0068
2762.25,0.0067
2762.00,0.0066
2761.75,0.0066
2761.50,0.0066
2761.25,0.0067
2761.00,0.0067
2760.75,0.0067
2760.50,0.0067
2760.25,0.0067
2760.00,0.0068
2759.75,0.0067
2759.50,0.0067
2759.25,0.0066
2759.00,0.0065
2758.75,0.0065
2758.50,0.0065
2758.25,0.0065
2758.00,0.0065
2757.75,0.0066
2757.50,0.0067
2757.25,0.0068
2757.00,0.0069
2756.75,0.0069
2756.50,0.0069
2756.25,0.0068
2756.00,0.0067
2755.75,0.0067
2755.50,0.0067
2755.25,0.0068
2755.00,0.0069
2754.75,0.0070
2754.50,0.0070
2754.25,0.0069
2754.00,0.0068
2753.75,0.0068
2753.50,0.0067
2753.25,0.0067
2753.00,0.0067
2752.75,0.0066
2752.50,0.0066
2752.25,0.0066
2752.00,0.0067
2751.75,0.0067
2751.50,0.0067
2751.25,0.0067
2751.00,0.0066
2750.75,0.0066
2750.50,0.0066
2750.25,0.0066
2750.00,0.0066
2749.75,0.0066
2749.50,0.0066
2749.25,0.0066
2749.00,0.0065
2748.75,0.0065
2748.50,0.0066
2748.25,0.0068
2748.00,0.0070
2747.75,0.0070
2747.50,0.0070
2747.25,0.0070
2747.00,0.0069
2746.75,0.0069
2746.50,0.0069
2746.25,0.0069
2746.00,0.0069
2745.75,0.0069
2745.50,0.0069
2745.25,0.0069
2745.00,0.0069
2744.75,0.0068
2744.50,0.0068
2744.25,0.0067
2744.00,0.0067
2743.75,0.0066
2743.50,0.0066
2743.25,0.0066
2743.00,0.0067
2742.75,0.0067
2742.50,0.0068
2742.25,0.0068
2742.00,0.0068
2741.75,0.0068
2741.50,0.0068
2741.25,0.0068
2741.00,0.0068
2740.75,0.0068
2740.50,0.0067
2740.25,0.0067
2740.00,0.0067
2739.75,0.0067
2739.50,0.0068
2739.25,0.0068
2739.00,0.0068
2738.75,0.0067
2738.50,0.0066
2738.25,0.0066
2738.00,0.0066
2737.75,0.0066
2737.50,0.0067
2737.25,0.0067
2737.00,0.0067
2736.75,0.0068
2736.50,0.0068
2736.25,0.0068
2736.00,0.0069
2735.75,0.0069
2735.50,0.0069
2735.25,0.0069
2735.00,0.0069
2734.75,0.0069
2734.50,0.0069
2734.25,0.0069
2734.00,0.0070
2733.75,0.0069
2733.50,0.0069
2733.25,0.0067
2733.00,0.0066
2732.75,0.0065
2732.50,0.0065
2732.25,0.0066
2732.00,0.0067
2731.75,0.0068
2731.50,0.0068
2731.25,0.0068
2731.00,0.0067
2730.75,0.0066
2730.50,0.0065
2730.25,0.0066
2730.00,0.0067
2729.75,0.0069
2729.50,0.0070
2729.25,0.0070
2729.00,0.0069
2728.75,0.0068
2728.50,0.0067
2728.25,0.0066
2728.00,0.0065
2727.75,0.0064
2727.50,0.0063
2727.25,0.0064
2727.00,0.0065
2726.75,0.0066
2726.50,0.0068
2726.25,0.0069
2726.00,0.0070
2725.75,0.0070
2725.50,0.0070
2725.25,0.0069
2725.00,0.0068
2724.75,0.0067
2724.50,0.0066
2724.25,0.0066
2724.00,0.0065
2723.75,0.0064
2723.50,0.0064
2723.25,0.0065
2723.00,0.0066
2722.75,0.0068
2722.50,0.0068
2722.25,0.0069
2722.00,0.0068
2721.75,0.0068
2721.50,0.0067
2721.25,0.0066
2721.00,0.0066
2720.75,0.0066
2720.50,0.0067
2720.25,0.0067
2720.00,0.0068
2719.75,0.0068
2719.50,0.0069
2719.25,0.0069
2719.00,0.0069
2718.75,0.0069
2718.50,0.0068
2718.25,0.0068
2718.00,0.0067
2717.75,0.0067
2717.50,0.0066
2717.25,0.0066
2717.00,0.0065
2716.75,0.0065
2716.50,0.0065
2716.25,0.0066
2716.00,0.0067
2715.75,0.0068
2715.50,0.0069
2715.25,0.0070
2715.00,0.0070
2714.75,0.0069
2714.50,0.0069
2714.25,0.0068
2714.00,0.0067
2713.75,0.0066
2713.50,0.0065
2713.25,0.0066
2713.00,0.0067
2712.75,0.0068
2712.50,0.0068
2712.25,0.0068
2712.00,0.0067
2711.75,0.0067
2711.50,0.0066
2711.25,0.0066
2711.00,0.0067
2710.75,0.0068
2710.50,0.0068
2710.25,0.0068
2710.00,0.0068
2709.75,0.0067
2709.50,0.0066
2709.25,0.0065
2709.00,0.0065
2708.75,0.0066
2708.50,0.0066
2708.25,0.0066
2708.00,0.0066
2707.75,0.0065
2707.50,0.0065
2707.25,0.0065
2707.00,0.0065
2706.75,0.0065
2706.50,0.0066
2706.25,0.0067
2706.00,0.0067
2705.75,0.0067
2705.50,0.0068
2705.25,0.0067
2705.00,0.0067
2704.75,0.0066
2704.50,0.0066
2704.25,0.0066
2704.00,0.0066
2703.75,0.0066
2703.50,0.0065
2703.25,0.0065
2703.00,0.0065
2702.75,0.0065
2702.50,0.0066
2702.25,0.0066
2702.00,0.0066
2701.75,0.0066
2701.50,0.0066
2701.25,0.0066
2701.00,0.0066
2700.75,0.0066
2700.50,0.0065
2700.25,0.0064
2700.00,0.0063
2699.75,0.0063
2699.50,0.0063
2699.25,0.0063
2699.00,0.0063
2698.75,0.0064
2698.50,0.0065
2698.25,0.0066
2698.00,0.0067
2697.75,0.0068
2697.50,0.0067
2697.25,0.0067
2697.00,0.0066
2696.75,0.0066
2696.50,0.0065
2696.25,0.0065
2696.00,0.0064
2695.75,0.0064
2695.50,0.0063
2695.25,0.0064
2695.00,0.0066
2694.75,0.0068
2694.50,0.0069
2694.25,0.0070
2694.00,0.0070
2693.75,0.0069
2693.50,0.0068
2693.25,0.0067
2693.00,0.0065
2692.75,0.0065
2692.50,0.0065
2692.25,0.0065
2692.00,0.0066
2691.75,0.0067
2691.50,0.0067
2691.25,0.0067
2691.00,0.0067
2690.75,0.0067
2690.50,0.0067
2690.25,0.0067
2690.00,0.0068
2689.75,0.0068
2689.50,0.0068
2689.25,0.0069
2689.00,0.0070
2688.75,0.0070
2688.50,0.0071
2688.25,0.0071
2688.00,0.0070
2687.75,0.0069
2687.50,0.0068
2687.25,0.0067
2687.00,0.0066
2686.75,0.0066
2686.50,0.0067
2686.25,0.0068
2686.00,0.0070
2685.75,0.0070
2685.50,0.0069
2685.25,0.0068
2685.00,0.0066
2684.75,0.0065
2684.50,0.0065
2684.25,0.0065
2684.00,0.0066
2683.75,0.0066
2683.50,0.0067
2683.25,0.0067
2683.00,0.0067
2682.75,0.0067
2682.50,0.0068
2682.25,0.0068
2682.00,0.0068
2681.75,0.0068
2681.50,0.0069
2681.25,0.0069
2681.00,0.0069
2680.75,0.0069
2680.50,0.0068
2680.25,0.0067
2680.00,0.0066
2679.75,0.0066
2679.50,0.0066
2679.25,0.0066
2679.00,0.0066
2678.75,0.0066
2678.50,0.0066
2678.25,0.0066
2678.00,0.0066
2677.75,0.0067
2677.50,0.0067
2677.25,0.0068
2677.00,0.0068
2676.75,0.0069
2676.50,0.0070
2676.25,0.0070
2676.00,0.0070
2675.75,0.0069
2675.50,0.0068
2675.25,0.0068
2675.00,0.0067
2674.75,0.0066
2674.50,0.0066
2674.25,0.0066
2674.00,0.0066
2673.75,0.0066
2673.50,0.0067
2673.25,0.0067
2673.00,0.0067
2672.75,0.0067
2672.50,0.0067
2672.25,0.0066
2672.00,0.0065
2671.75,0.0064
2671.50,0.0064
2671.25,0.0064
2671.00,0.0065
2670.75,0.0067
2670.50,0.0068
2670.25,0.0068
2670.00,0.0067
2669.75,0.0067
2669.50,0.0065
2669.25,0.0065
2669.00,0.0064
2668.75,0.0064
2668.50,0.0064
2668.25,0.0064
2668.00,0.0065
2667.75,0.0065
2667.50,0.0065
2667.25,0.0064
2667.00,0.0064
2666.75,0.0064
2666.50,0.0064
2666.25,0.0065
2666.00,0.0066
2665.75,0.0068
2665.50,0.0069
2665.25,0.0069
2665.00,0.0069
2664.75,0.0068
2664.50,0.0067
2664.25,0.0066
2664.00,0.0065
2663.75,0.0065
2663.50,0.0065
2663.25,0.0065
2663.00,0.0065
2662.75,0.0065
2662.50,0.0065
2662.25,0.0066
2662.00,0.0066
2661.75,0.0067
2661.50,0.0067
2661.25,0.0067
2661.00,0.0067
2660.75,0.0067
2660.50,0.0067
2660.25,0.0068
2660.00,0.0068
2659.75,0.0068
2659.50,0.0067
2659.25,0.0066
2659.00,0.0065
2658.75,0.0064
2658.50,0.0065
2658.25,0.0066
2658.00,0.0068
2657.75,0.0069
2657.50,0.0070
2657.25,0.0070
2657.00,0.0070
2656.75,0.0068
2656.50,0.0067
2656.25,0.0067
2656.00,0.0067
2655.75,0.0068
2655.50,0.0067
2655.25,0.0067
2655.00,0.0065
2654.75,0.0064
2654.50,0.0064
2654.25,0.0065
2654.00,0.0066
2653.75,0.0067
2653.50,0.0068
2653.25,0.0068
2653.00,0.0069
2652.75,0.0070
2652.50,0.0070
2652.25,0.0070
2652.00,0.0068
2651.75,0.0066
2651.50,0.0064
2651.25,0.0063
2651.00,0.0063
2650.75,0.0063
2650.50,0.0064
2650.25,0.0064
2650.00,0.0064
2649.75,0.0064
2649.50,0.0064
2649.25,0.0064
2649.00,0.0065
2648.75,0.0065
2648.50,0.0065
2648.25,0.0065
2648.00,0.0065
2647.75,0.0066
2647.50,0.0067
2647.25,0.0068
2647.00,0.0068
2646.75,0.0069
2646.50,0.0069
2646.25,0.0068
2646.00,0.0068
2645.75,0.0067
2645.50,0.0067
2645.25,0.0067
2645.00,0.0067
2644.75,0.0067
2644.50,0.0067
2644.25,0.0067
2644.00,0.0066
2643.75,0.0065
2643.50,0.0065
2643.25,0.0065
2643.00,0.0065
2642.75,0.0065
2642.50,0.0065
2642.25,0.0065
2642.00,0.0065
2641.75,0.0065
2641.50,0.0065
2641.25,0.0065
2641.00,0.0064
2640.75,0.0064
2640.50,0.0063
2640.25,0.0063
2640.00,0.0063
2639.75,0.0064
2639.50,0.0065
2639.25,0.0066
2639.00,0.0066
2638.75,0.0066
2638.50,0.0065
2638.25,0.0066
2638.00,0.0066
2637.75,0.0067
2637.50,0.0067
2637.25,0.0067
2637.00,0.0066
2636.75,0.0066
2636.50,0.0064
2636.25,0.0063
2636.00,0.0062
2635.75,0.0061
2635.50,0.0061
2635.25,0.0062
2635.00,0.0063
2634.75,0.0064
2634.50,0.0065
2634.25,0.0065
2634.00,0.0065
2633.75,0.0065
2633.50,0.0065
2633.25,0.0065
2633.00,0.0065
2632.75,0.0064
2632.50,0.0064
2632.25,0.0064
2632.00,0.0064
2631.75,0.0064
2631.50,0.0064
2631.25,0.0064
2631.00,0.0064
2630.75,0.0065
2630.50,0.0064
2630.25,0.0063
2630.00,0.0062
2629.75,0.0061
2629.50,0.0061
2629.25,0.0061
2629.00,0.0062
2628.75,0.0063
2628.50,0.0064
2628.25,0.0064
2628.00,0.0065
2627.75,0.0065
2627.50,0.0065
2627.25,0.0065
2627.00,0.0065
2626.75,0.0066
2626.50,0.0067
2626.25,0.0068
2626.00,0.0069
2625.75,0.0069
2625.50,0.0068
2625.25,0.0067
2625.00,0.0066
2624.75,0.0065
2624.50,0.0064
2624.25,0.0063
2624.00,0.0063
2623.75,0.0063
2623.50,0.0062
2623.25,0.0061
2623.00,0.0060
2622.75,0.0061
2622.50,0.0062
2622.25,0.0063
2622.00,0.0063
2621.75,0.0064
2621.50,0.0064
2621.25,0.0064
2621.00,0.0065
2620.75,0.0065
2620.50,0.0065
2620.25,0.0065
2620.00,0.0065
2619.75,0.0066
2619.50,0.0066
2619.25,0.0066
2619.00,0.0065
2618.75,0.0064
2618.50,0.0064
2618.25,0.0064
2618.00,0.0064
2617.75,0.0065
2617.50,0.0065
2617.25,0.0065
2617.00,0.0065
2616.75,0.0064
2616.50,0.0064
2616.25,0.0063
2616.00,0.0063
2615.75,0.0064
2615.50,0.0065
2615.25,0.0067
2615.00,0.0068
2614.75,0.0069
2614.50,0.0069
2614.25,0.0068
2614.00,0.0067
2613.75,0.0065
2613.50,0.0064
2613.25,0.0063
2613.00,0.0062
2612.75,0.0061
2612.50,0.0061
2612.25,0.0061
2612.00,0.0061
2611.75,0.0061
2611.50,0.0062
2611.25,0.0062
2611.00,0.0063
2610.75,0.0064
2610.50,0.0065
2610.25,0.0067
2610.00,0.0068
2609.75,0.0069
2609.50,0.0068
2609.25,0.0067
2609.00,0.0066
2608.75,0.0065
2608.50,0.0063
2608.25,0.0062
2608.00,0.0061
2607.75,0.0061
2607.50,0.0061
2607.25,0.0062
2607.00,0.0063
2606.75,0.0063
2606.50,0.0063
2606.25,0.0062
2606.00,0.0063
2605.75,0.0064
2605.50,0.0066
2605.25,0.0067
2605.00,0.0067
2604.75,0.0067
2604.50,0.0066
2604.25,0.0065
2604.00,0.0063
2603.75,0.0061
2603.50,0.0060
2603.25,0.0060
2603.00,0.0061
2602.75,0.0063
2602.50,0.0065
2602.25,0.0065
2602.00,0.0065
2601.75,0.0065
2601.50,0.0064
2601.25,0.0063
2601.00,0.0063
2600.75,0.0062
2600.50,0.0060
2600.25,0.0059
2600.00,0.0059
2599.75,0.0059
2599.50,0.0059
2599.25,0.0058
2599.00,0.0057
2598.75,0.0057
2598.50,0.0057
2598.25,0.0060
2598.00,0.0062
2597.75,0.0065
2597.50,0.0067
2597.25,0.0067
2597.00,0.0067
2596.75,0.0066
2596.50,0.0065
2596.25,0.0063
2596.00,0.0061
2595.75,0.0059
2595.50,0.0057
2595.25,0.0056
2595.00,0.0057
2594.75,0.0059
2594.50,0.0060
2594.25,0.0062
2594.00,0.0062
2593.75,0.0061
2593.50,0.0060
2593.25,0.0060
2593.00,0.0060
2592.75,0.0061
2592.50,0.0062
2592.25,0.0062
2592.00,0.0062
2591.75,0.0061
2591.50,0.0060
2591.25,0.0060
2591.00,0.0061
2590.75,0.0062
2590.50,0.0063
2590.25,0.0064
2590.00,0.0064
2589.75,0.0064
2589.50,0.0063
2589.25,0.0062
2589.00,0.0061
2588.75,0.0061
2588.50,0.0062
2588.25,0.0063
2588.00,0.0065
2587.75,0.0066
2587.50,0.0067
2587.25,0.0068
2587.00,0.0066
2586.75,0.0064
2586.50,0.0062
2586.25,0.0061
2586.00,0.0061
2585.75,0.0061
2585.50,0.0061
2585.25,0.0061
2585.00,0.0060
2584.75,0.0059
2584.50,0.0059
2584.25,0.0060
2584.00,0.0061
2583.75,0.0062
2583.50,0.0064
2583.25,0.0066
2583.00,0.0068
2582.75,0.0069
2582.50,0.0069
2582.25,0.0068
2582.00,0.0065
2581.75,0.0061
2581.50,0.0058
2581.25,0.0056
2581.00,0.0056
2580.75,0.0058
2580.50,0.0061
2580.25,0.0064
2580.00,0.0065
2579.75,0.0064
2579.50,0.0063
2579.25,0.0062
2579.00,0.0062
2578.75,0.0063
2578.50,0.0064
2578.25,0.0064
2578.00,0.0064
2577.75,0.0062
2577.50,0.0059
2577.25,0.0057
2577.00,0.0056
2576.75,0.0057
2576.50,0.0059
2576.25,0.0061
2576.00,0.0064
2575.75,0.0065
2575.50,0.0066
2575.25,0.0066
2575.00,0.0065
2574.75,0.0064
2574.50,0.0063
2574.25,0.0062
2574.00,0.0062
2573.75,0.0063
2573.50,0.0064
2573.25,0.0064
2573.00,0.0063
2572.75,0.0061
2572.50,0.0059
2572.25,0.0058
2572.00,0.0059
2571.75,0.0061
2571.50,0.0061
2571.25,0.0061
2571.00,0.0059
2570.75,0.0057
2570.50,0.0055
2570.25,0.0055
2570.00,0.0055
2569.75,0.0056
2569.50,0.0058
2569.25,0.0059
2569.00,0.0061
2568.75,0.0062
2568.50,0.0061
2568.25,0.0060
2568.00,0.0058
2567.75,0.0057
2567.50,0.0057
2567.25,0.0058
2567.00,0.0059
2566.75,0.0060
2566.50,0.0062
2566.25,0.0065
2566.00,0.0067
2565.75,0.0067
2565.50,0.0067
2565.25,0.0065
2565.00,0.0064
2564.75,0.0064
2564.50,0.0064
2564.25,0.0065
2564.00,0.0066
2563.75,0.0066
2563.50,0.0066
2563.25,0.0066
2563.00,0.0064
2562.75,0.0062
2562.50,0.0059
2562.25,0.0057
2562.00,0.0056
2561.75,0.0057
2561.50,0.0059
2561.25,0.0061
2561.00,0.0062
2560.75,0.0062
2560.50,0.0062
2560.25,0.0061
2560.00,0.0060
2559.75,0.0060
2559.50,0.0061
2559.25,0.0063
2559.00,0.0064
2558.75,0.0064
2558.50,0.0064
2558.25,0.0063
2558.00,0.0063
2557.75,0.0064
2557.50,0.0064
2557.25,0.0064
2557.00,0.0064
2556.75,0.0064
2556.50,0.0063
2556.25,0.0063
2556.00,0.0063
2555.75,0.0063
2555.50,0.0064
2555.25,0.0066
2555.00,0.0067
2554.75,0.0066
2554.50,0.0064
2554.25,0.0062
2554.00,0.0059
2553.75,0.0058
2553.50,0.0058
2553.25,0.0058
2553.00,0.0059
2552.75,0.0059
2552.50,0.0059
2552.25,0.0059
2552.00,0.0060
2551.75,0.0060
2551.50,0.0061
2551.25,0.0062
2551.00,0.0063
2550.75,0.0064
2550.50,0.0064
2550.25,0.0064
2550.00,0.0064
2549.75,0.0064
2549.50,0.0063
2549.25,0.0061
2549.00,0.0059
2548.75,0.0057
2548.50,0.0056
2548.25,0.0058
2548.00,0.0060
2547.75,0.0062
2547.50,0.0062
2547.25,0.0060
2547.00,0.0058
2546.75,0.0056
2546.50,0.0056
2546.25,0.0058
2546.00,0.0060
2545.75,0.0062
2545.50,0.0063
2545.25,0.0063
2545.00,0.0062
2544.75,0.0060
2544.50,0.0058
2544.25,0.0056
2544.00,0.0055
2543.75,0.0055
2543.50,0.0054
2543.25,0.0054
2543.00,0.0054
2542.75,0.0055
2542.50,0.0056
2542.25,0.0058
2542.00,0.0060
2541.75,0.0062
2541.50,0.0063
2541.25,0.0063
2541.00,0.0063
2540.75,0.0063
2540.50,0.0061
2540.25,0.0060
2540.00,0.0059
2539.75,0.0059
2539.50,0.0059
2539.25,0.0058
2539.00,0.0055
2538.75,0.0053
2538.50,0.0051
2538.25,0.0051
2538.00,0.0052
2537.75,0.0054
2537.50,0.0057
2537.25,0.0060
2537.00,0.0062
2536.75,0.0063
2536.50,0.0063
2536.25,0.0063
2536.00,0.0062
2535.75,0.0062
2535.50,0.0062
2535.25,0.0062
2535.00,0.0063
2534.75,0.0064
2534.50,0.0065
2534.25,0.0066
2534.00,0.0065
2533.75,0.0063
2533.50,0.0060
2533.25,0.0058
2533.00,0.0055
2532.75,0.0054
2532.50,0.0053
2532.25,0.0052
2532.00,0.0053
2531.75,0.0055
2531.50,0.0057
2531.25,0.0058
2531.00,0.0057
2530.75,0.0055
2530.50,0.0053
2530.25,0.0051
2530.00,0.0051
2529.75,0.0053
2529.50,0.0055
2529.25,0.0056
2529.00,0.0056
2528.75,0.0055
2528.50,0.0053
2528.25,0.0052
2528.00,0.0052
2527.75,0.0053
2527.50,0.0053
2527.25,0.0053
2527.00,0.0052
2526.75,0.0051
2526.50,0.0051
2526.25,0.0052
2526.00,0.0053
2525.75,0.0053
2525.50,0.0052
2525.25,0.0051
2525.00,0.0050
2524.75,0.0050
2524.50,0.0051
2524.25,0.0052
2524.00,0.0052
2523.75,0.0052
2523.50,0.0051
2523.25,0.0049
2523.00,0.0049
2522.75,0.0049
2522.50,0.0049
2522.25,0.0049
2522.00,0.0049
2521.75,0.0049
2521.50,0.0048
2521.25,0.0049
2521.00,0.0049
2520.75,0.0049
2520.50,0.0047
2520.25,0.0046
2520.00,0.0045
2519.75,0.0045
2519.50,0.0047
2519.25,0.0049
2519.00,0.0050
2518.75,0.0052
2518.50,0.0052
2518.25,0.0052
2518.00,0.0051
2517.75,0.0049
2517.50,0.0047
2517.25,0.0046
2517.00,0.0046
2516.75,0.0046
2516.50,0.0046
2516.25,0.0046
2516.00,0.0046
2515.75,0.0047
2515.50,0.0049
2515.25,0.0050
2515.00,0.0051
2514.75,0.0051
2514.50,0.0051
2514.25,0.0051
2514.00,0.0051
2513.75,0.0050
2513.50,0.0050
2513.25,0.0049
2513.00,0.0048
2512.75,0.0047
2512.50,0.0046
2512.25,0.0046
2512.00,0.0047
2511.75,0.0048
2511.50,0.0050
2511.25,0.0052
2511.00,0.0052
2510.75,0.0052
2510.50,0.0052
2510.25,0.0053
2510.00,0.0053
2509.75,0.0053
2509.50,0.0052
2509.25,0.0051
2509.00,0.0050
2508.75,0.0049
2508.50,0.0050
2508.25,0.0050
2508.00,0.0050
2507.75,0.0050
2507.50,0.0049
2507.25,0.0048
2507.00,0.0047
2506.75,0.0046
2506.50,0.0045
2506.25,0.0046
2506.00,0.0047
2505.75,0.0049
2505.50,0.0051
2505.25,0.0052
2505.00,0.0052
2504.75,0.0052
2504.50,0.0052
2504.25,0.0051
2504.00,0.0050
2503.75,0.0049
2503.50,0.0049
2503.25,0.0049
2503.00,0.0051
2502.75,0.0052
2502.50,0.0054
2502.25,0.0054
2502.00,0.0055
2501.75,0.0057
2501.50,0.0058
2501.25,0.0058
2501.00,0.0058
2500.75,0.0056
2500.50,0.0054
2500.25,0.0053
2500.00,0.0052
2499.75,0.0052
2499.50,0.0052
2499.25,0.0054
2499.00,0.0055
2498.75,0.0056
2498.50,0.0056
2498.25,0.0056
2498.00,0.0056
2497.75,0.0056
2497.50,0.0057
2497.25,0.0057
2497.00,0.0056
2496.75,0.0054
2496.50,0.0053
2496.25,0.0052
2496.00,0.0053
2495.75,0.0055
2495.50,0.0057
2495.25,0.0059
2495.00,0.0059
2494.75,0.0059
2494.50,0.0058
2494.25,0.0058
2494.00,0.0058
2493.75,0.0058
2493.50,0.0058
2493.25,0.0058
2493.00,0.0058
2492.75,0.0057
2492.50,0.0057
2492.25,0.0057
2492.00,0.0057
2491.75,0.0058
2491.50,0.0060
2491.25,0.0060
2491.00,0.0060
2490.75,0.0059
2490.50,0.0059
2490.25,0.0059
2490.00,0.0061
2489.75,0.0062
2489.50,0.0062
2489.25,0.0060
2489.00,0.0058
2488.75,0.0056
2488.50,0.0054
2488.25,0.0052
2488.00,0.0052
2487.75,0.0052
2487.50,0.0054
2487.25,0.0056
2487.00,0.0059
2486.75,0.0061
2486.50,0.0061
2486.25,0.0060
2486.00,0.0058
2485.75,0.0056
2485.50,0.0055
2485.25,0.0056
2485.00,0.0058
2484.75,0.0061
2484.50,0.0063
2484.25,0.0064
2484.00,0.0063
2483.75,0.0061
2483.50,0.0060
2483.25,0.0059
2483.00,0.0060
2482.75,0.0061
2482.50,0.0063
2482.25,0.0064
2482.00,0.0063
2481.75,0.0062
2481.50,0.0061
2481.25,0.0060
2481.00,0.0059
2480.75,0.0060
2480.50,0.0061
2480.25,0.0063
2480.00,0.0064
2479.75,0.0066
2479.50,0.0066
2479.25,0.0065
2479.00,0.0063
2478.75,0.0060
2478.50,0.0058
2478.25,0.0057
2478.00,0.0056
2477.75,0.0056
2477.50,0.0057
2477.25,0.0058
2477.00,0.0059
2476.75,0.0060
2476.50,0.0060
2476.25,0.0061
2476.00,0.0062
2475.75,0.0063
2475.50,0.0065
2475.25,0.0066
2475.00,0.0066
2474.75,0.0065
2474.50,0.0062
2474.25,0.0059
2474.00,0.0056
2473.75,0.0055
2473.50,0.0056
2473.25,0.0058
2473.00,0.0061
2472.75,0.0063
2472.50,0.0064
2472.25,0.0064
2472.00,0.0062
2471.75,0.0060
2471.50,0.0058
2471.25,0.0057
2471.00,0.0056
2470.75,0.0057
2470.50,0.0057
2470.25,0.0058
2470.00,0.0059
2469.75,0.0060
2469.50,0.0061
2469.25,0.0061
2469.00,0.0061
2468.75,0.0060
2468.50,0.0059
2468.25,0.0060
2468.00,0.0061
2467.75,0.0062
2467.50,0.0062
2467.25,0.0061
2467.00,0.0060
2466.75,0.0058
2466.50,0.0057
2466.25,0.0058
2466.00,0.0059
2465.75,0.0060
2465.50,0.0061
2465.25,0.0060
2465.00,0.0059
2464.75,0.0059
2464.50,0.0060
2464.25,0.0060
2464.00,0.0060
2463.75,0.0059
2463.50,0.0057
2463.25,0.0055
2463.00,0.0054
2462.75,0.0054
2462.50,0.0055
2462.25,0.0057
2462.00,0.0060
2461.75,0.0063
2461.50,0.0066
2461.25,0.0068
2461.00,0.0068
2460.75,0.0066
2460.50,0.0063
2460.25,0.0060
2460.00,0.0058
2459.75,0.0058
2459.50,0.0060
2459.25,0.0061
2459.00,0.0061
2458.75,0.0061
2458.50,0.0059
2458.25,0.0057
2458.00,0.0056
2457.75,0.0057
2457.50,0.0058
2457.25,0.0059
2457.00,0.0058
2456.75,0.0057
2456.50,0.0055
2456.25,0.0054
2456.00,0.0055
2455.75,0.0057
2455.50,0.0059
2455.25,0.0061
2455.00,0.0062
2454.75,0.0062
2454.50,0.0061
2454.25,0.0060
2454.00,0.0060
2453.75,0.0061
2453.50,0.0061
2453.25,0.0061
2453.00,0.0060
2452.75,0.0060
2452.50,0.0061
2452.25,0.0062
2452.00,0.0063
2451.75,0.0064
2451.50,0.0064
2451.25,0.0064
2451.00,0.0063
2450.75,0.0064
2450.50,0.0064
2450.25,0.0065
2450.00,0.0065
2449.75,0.0063
2449.50,0.0061
2449.25,0.0058
2449.00,0.0055
2448.75,0.0055
2448.50,0.0056
2448.25,0.0058
2448.00,0.0059
2447.75,0.0058
2447.50,0.0056
2447.25,0.0055
2447.00,0.0056
2446.75,0.0059
2446.50,0.0063
2446.25,0.0065
2446.00,0.0066
2445.75,0.0065
2445.50,0.0063
2445.25,0.0060
2445.00,0.0058
2444.75,0.0056
2444.50,0.0054
2444.25,0.0053
2444.00,0.0054
2443.75,0.0056
2443.50,0.0058
2443.25,0.0059
2443.00,0.0058
2442.75,0.0058
2442.50,0.0057
2442.25,0.0057
2442.00,0.0059
2441.75,0.0063
2441.50,0.0066
2441.25,0.0069
2441.00,0.0070
2440.75,0.0069
2440.50,0.0067
2440.25,0.0065
2440.00,0.0064
2439.75,0.0064
2439.50,0.0064
2439.25,0.0064
2439.00,0.0063
2438.75,0.0062
2438.50,0.0060
2438.25,0.0059
2438.00,0.0060
2437.75,0.0060
2437.50,0.0059
2437.25,0.0058
2437.00,0.0057
2436.75,0.0056
2436.50,0.0056
2436.25,0.0057
2436.00,0.0058
2435.75,0.0059
2435.50,0.0059
2435.25,0.0058
2435.00,0.0056
2434.75,0.0055
2434.50,0.0054
2434.25,0.0055
2434.00,0.0056
2433.75,0.0057
2433.50,0.0058
2433.25,0.0059
2433.00,0.0058
2432.75,0.0057
2432.50,0.0057
2432.25,0.0059
2432.00,0.0061
2431.75,0.0062
2431.50,0.0063
2431.25,0.0062
2431.00,0.0061
2430.75,0.0061
2430.50,0.0061
2430.25,0.0062
2430.00,0.0062
2429.75,0.0062
2429.50,0.0062
2429.25,0.0062
2429.00,0.0062
2428.75,0.0063
2428.50,0.0064
2428.25,0.0064
2428.00,0.0063
2427.75,0.0061
2427.50,0.0060
2427.25,0.0059
2427.00,0.0058
2426.75,0.0057
2426.50,0.0057
2426.25,0.0057
2426.00,0.0058
2425.75,0.0058
2425.50,0.0059
2425.25,0.0059
2425.00,0.0060
2424.75,0.0061
2424.50,0.0062
2424.25,0.0063
2424.00,0.0061
2423.75,0.0059
2423.50,0.0056
2423.25,0.0054
2423.00,0.0054
2422.75,0.0055
2422.50,0.0056
2422.25,0.0057
2422.00,0.0057
2421.75,0.0057
2421.50,0.0056
2421.25,0.0056
2421.00,0.0055
2420.75,0.0056
2420.50,0.0057
2420.25,0.0059
2420.00,0.0061
2419.75,0.0062
2419.50,0.0062
2419.25,0.0061
2419.00,0.0059
2418.75,0.0056
2418.50,0.0054
2418.25,0.0053
2418.00,0.0054
2417.75,0.0056
2417.50,0.0058
2417.25,0.0060
2417.00,0.0061
2416.75,0.0061
2416.50,0.0061
2416.25,0.0061
2416.00,0.0061
2415.75,0.0061
2415.50,0.0061
2415.25,0.0061
2415.00,0.0061
2414.75,0.0061
2414.50,0.0060
2414.25,0.0059
2414.00,0.0058
2413.75,0.0058
2413.50,0.0059
2413.25,0.0061
2413.00,0.0063
2412.75,0.0064
2412.50,0.0064
2412.25,0.0064
2412.00,0.0065
2411.75,0.0066
2411.50,0.0066
2411.25,0.0066
2411.00,0.0064
2410.75,0.0062
2410.50,0.0060
2410.25,0.0059
2410.00,0.0059
2409.75,0.0059
2409.50,0.0060
2409.25,0.0061
2409.00,0.0061
2408.75,0.0059
2408.50,0.0057
2408.25,0.0055
2408.00,0.0054
2407.75,0.0055
2407.50,0.0056
2407.25,0.0057
2407.00,0.0059
2406.75,0.0060
2406.50,0.0061
2406.25,0.0062
2406.00,0.0062
2405.75,0.0061
2405.50,0.0060
2405.25,0.0058
2405.00,0.0057
2404.75,0.0057
2404.50,0.0057
2404.25,0.0059
2404.00,0.0060
2403.75,0.0061
2403.50,0.0061
2403.25,0.0060
2403.00,0.0058
2402.75,0.0056
2402.50,0.0055
2402.25,0.0056
2402.00,0.0056
2401.75,0.0057
2401.50,0.0058
2401.25,0.0059
2401.00,0.0060
2400.75,0.0061
2400.50,0.0061
2400.25,0.0060
2400.00,0.0059
2399.75,0.0058
2399.50,0.0058
2399.25,0.0059
2399.00,0.0060
2398.75,0.0061
2398.50,0.0062
2398.25,0.0062
2398.00,0.0061
2397.75,0.0059
2397.50,0.0057
2397.25,0.0055
2397.00,0.0054
2396.75,0.0054
2396.50,0.0057
2396.25,0.0060
2396.00,0.0063
2395.75,0.0064
2395.50,0.0062
2395.25,0.0060
2395.00,0.0057
2394.75,0.0056
2394.50,0.0057
2394.25,0.0058
2394.00,0.0058
2393.75,0.0058
2393.50,0.0058
2393.25,0.0057
2393.00,0.0057
2392.75,0.0057
2392.50,0.0057
2392.25,0.0058
2392.00,0.0060
2391.75,0.0060
2391.50,0.0060
2391.25,0.0059
2391.00,0.0057
2390.75,0.0056
2390.50,0.0057
2390.25,0.0060
2390.00,0.0064
2389.75,0.0067
2389.50,0.0067
2389.25,0.0066
2389.00,0.0064
2388.75,0.0063
2388.50,0.0063
2388.25,0.0063
2388.00,0.0062
2387.75,0.0061
2387.50,0.0058
2387.25,0.0056
2387.00,0.0055
2386.75,0.0054
2386.50,0.0054
2386.25,0.0055
2386.00,0.0058
2385.75,0.0061
2385.50,0.0063
2385.25,0.0064
2385.00,0.0063
2384.75,0.0062
2384.50,0.0062
2384.25,0.0062
2384.00,0.0061
2383.75,0.0061
2383.50,0.0061
2383.25,0.0061
2383.00,0.0062
2382.75,0.0063
2382.50,0.0063
2382.25,0.0063
2382.00,0.0063
2381.75,0.0063
2381.50,0.0063
2381.25,0.0063
2381.00,0.0062
2380.75,0.0062
2380.50,0.0061
2380.25,0.0060
2380.00,0.0060
2379.75,0.0059
2379.50,0.0058
2379.25,0.0057
2379.00,0.0058
2378.75,0.0058
2378.50,0.0059
2378.25,0.0059
2378.00,0.0060
2377.75,0.0061
2377.50,0.0061
2377.25,0.0062
2377.00,0.0062
2376.75,0.0064
2376.50,0.0065
2376.25,0.0067
2376.00,0.0067
2375.75,0.0068
2375.50,0.0068
2375.25,0.0066
2375.00,0.0063
2374.75,0.0057
2374.50,0.0053
2374.25,0.0051
2374.00,0.0053
2373.75,0.0055
2373.50,0.0057
2373.25,0.0058
2373.00,0.0056
2372.75,0.0053
2372.50,0.0050
2372.25,0.0049
2372.00,0.0051
2371.75,0.0055
2371.50,0.0058
2371.25,0.0058
2371.00,0.0056
2370.75,0.0053
2370.50,0.0050
2370.25,0.0049
2370.00,0.0051
2369.75,0.0055
2369.50,0.0060
2369.25,0.0061
2369.00,0.0059
2368.75,0.0055
2368.50,0.0054
2368.25,0.0055
2368.00,0.0057
2367.75,0.0058
2367.50,0.0057
2367.25,0.0055
2367.00,0.0052
2366.75,0.0047
2366.50,0.0043
2366.25,0.0044
2366.00,0.0049
2365.75,0.0053
2365.50,0.0054
2365.25,0.0052
2365.00,0.0053
2364.75,0.0056
2364.50,0.0060
2364.25,0.0061
2364.00,0.0058
2363.75,0.0055
2363.50,0.0054
2363.25,0.0056
2363.00,0.0058
2362.75,0.0061
2362.50,0.0065
2362.25,0.0068
2362.00,0.0069
2361.75,0.0066
2361.50,0.0061
2361.25,0.0059
2361.00,0.0062
2360.75,0.0069
2360.50,0.0074
2360.25,0.0072
2360.00,0.0063
2359.75,0.0053
2359.50,0.0049
2359.25,0.0050
2359.00,0.0052
2358.75,0.0054
2358.50,0.0057
2358.25,0.0062
2358.00,0.0066
2357.75,0.0066
2357.50,0.0062
2357.25,0.0055
2357.00,0.0052
2356.75,0.0054
2356.50,0.0059
2356.25,0.0063
2356.00,0.0066
2355.75,0.0068
2355.50,0.0071
2355.25,0.0074
2355.00,0.0075
2354.75,0.0073
2354.50,0.0068
2354.25,0.0063
2354.00,0.0062
2353.75,0.0066
2353.50,0.0070
2353.25,0.0071
2353.00,0.0068
2352.75,0.0064
2352.50,0.0063
2352.25,0.0066
2352.00,0.0069
2351.75,0.0069
2351.50,0.0065
2351.25,0.0059
2351.00,0.0056
2350.75,0.0058
2350.50,0.0063
2350.25,0.0067
2350.00,0.0069
2349.75,0.0068
2349.50,0.0065
2349.25,0.0063
2349.00,0.0062
2348.75,0.0062
2348.50,0.0063
2348.25,0.0065
2348.00,0.0065
2347.75,0.0065
2347.50,0.0064
2347.25,0.0061
2347.00,0.0060
2346.75,0.0060
2346.50,0.0061
2346.25,0.0061
2346.00,0.0060
2345.75,0.0058
2345.50,0.0059
2345.25,0.0062
2345.00,0.0066
2344.75,0.0068
2344.50,0.0066
2344.25,0.0061
2344.00,0.0058
2343.75,0.0060
2343.50,0.0064
2343.25,0.0069
2343.00,0.0071
2342.75,0.0068
2342.50,0.0061
2342.25,0.0058
2342.00,0.0060
2341.75,0.0064
2341.50,0.0068
2341.25,0.0068
2341.00,0.0063
2340.75,0.0057
2340.50,0.0055
2340.25,0.0058
2340.00,0.0063
2339.75,0.0066
2339.50,0.0065
2339.25,0.0058
2339.00,0.0052
2338.75,0.0052
2338.50,0.0056
2338.25,0.0061
2338.00,0.0064
2337.75,0.0064
2337.50,0.0064
2337.25,0.0064
2337.00,0.0065
2336.75,0.0067
2336.50,0.0066
2336.25,0.0063
2336.00,0.0056
2335.75,0.0051
2335.50,0.0052
2335.25,0.0058
2335.00,0.0065
2334.75,0.0069
2334.50,0.0068
2334.25,0.0060
2334.00,0.0046
2333.75,0.0037
2333.50,0.0038
2333.25,0.0046
2333.00,0.0054
2332.75,0.0062
2332.50,0.0067
2332.25,0.0065
2332.00,0.0059
2331.75,0.0057
2331.50,0.0058
2331.25,0.0060
2331.00,0.0062
2330.75,0.0060
2330.50,0.0055
2330.25,0.0052
2330.00,0.0054
2329.75,0.0059
2329.50,0.0063
2329.25,0.0065
2329.00,0.0064
2328.75,0.0062
2328.50,0.0058
2328.25,0.0058
2328.00,0.0061
2327.75,0.0064
2327.50,0.0067
2327.25,0.0067
2327.00,0.0064
2326.75,0.0057
2326.50,0.0051
2326.25,0.0051
2326.00,0.0056
2325.75,0.0062
2325.50,0.0068
2325.25,0.0072
2325.00,0.0072
2324.75,0.0065
2324.50,0.0056
2324.25,0.0052
2324.00,0.0052
2323.75,0.0054
2323.50,0.0056
2323.25,0.0057
2323.00,0.0054
2322.75,0.0052
2322.50,0.0055
2322.25,0.0061
2322.00,0.0067
2321.75,0.0071
2321.50,0.0072
2321.25,0.0067
2321.00,0.0058
2320.75,0.0053
2320.50,0.0054
2320.25,0.0059
2320.00,0.0065
2319.75,0.0068
2319.50,0.0069
2319.25,0.0064
2319.00,0.0056
2318.75,0.0051
2318.50,0.0051
2318.25,0.0053
2318.00,0.0057
2317.75,0.0061
2317.50,0.0065
2317.25,0.0066
2317.00,0.0066
2316.75,0.0064
2316.50,0.0064
2316.25,0.0064
2316.00,0.0064
2315.75,0.0064
2315.50,0.0063
2315.25,0.0060
2315.00,0.0056
2314.75,0.0053
2314.50,0.0053
2314.25,0.0054
2314.00,0.0056
2313.75,0.0057
2313.50,0.0056
2313.25,0.0053
2313.00,0.0050
2312.75,0.0049
2312.50,0.0051
2312.25,0.0054
2312.00,0.0057
2311.75,0.0060
2311.50,0.0060
2311.25,0.0057
2311.00,0.0054
2310.75,0.0051
2310.50,0.0049
2310.25,0.0050
2310.00,0.0051
2309.75,0.0052
2309.50,0.0054
2309.25,0.0056
2309.00,0.0057
2308.75,0.0056
2308.50,0.0056
2308.25,0.0057
2308.00,0.0059
2307.75,0.0061
2307.50,0.0062
2307.25,0.0061
2307.00,0.0059
2306.75,0.0055
2306.50,0.0053
2306.25,0.0053
2306.00,0.0055
2305.75,0.0057
2305.50,0.0059
2305.25,0.0059
2305.00,0.0059
2304.75,0.0057
2304.50,0.0055
2304.25,0.0055
2304.00,0.0055
2303.75,0.0057
2303.50,0.0059
2303.25,0.0060
2303.00,0.0061
2302.75,0.0062
2302.50,0.0062
2302.25,0.0061
2302.00,0.0060
2301.75,0.0059
2301.50,0.0059
2301.25,0.0061
2301.00,0.0062
2300.75,0.0062
2300.50,0.0062
2300.25,0.0060
2300.00,0.0059
2299.75,0.0057
2299.50,0.0057
2299.25,0.0057
2299.00,0.0057
2298.75,0.0058
2298.50,0.0059
2298.25,0.0060
2298.00,0.0060
2297.75,0.0060
2297.50,0.0059
2297.25,0.0058
2297.00,0.0057
2296.75,0.0056
2296.50,0.0055
2296.25,0.0055
2296.00,0.0055
2295.75,0.0056
2295.50,0.0057
2295.25,0.0058
2295.00,0.0059
2294.75,0.0060
2294.50,0.0061
2294.25,0.0062
2294.00,0.0063
2293.75,0.0063
2293.50,0.0063
2293.25,0.0063
2293.00,0.0062
2292.75,0.0061
2292.50,0.0059
2292.25,0.0058
2292.00,0.0058
2291.75,0.0059
2291.50,0.0060
2291.25,0.0062
2291.00,0.0063
2290.75,0.0063
2290.50,0.0063
2290.25,0.0063
2290.00,0.0063
2289.75,0.0064
2289.50,0.0065
2289.25,0.0065
2289.00,0.0063
2288.75,0.0061
2288.50,0.0058
2288.25,0.0056
2288.00,0.0054
2287.75,0.0054
2287.50,0.0054
2287.25,0.0055
2287.00,0.0056
2286.75,0.0056
2286.50,0.0056
2286.25,0.0055
2286.00,0.0055
2285.75,0.0056
2285.50,0.0057
2285.25,0.0058
2285.00,0.0057
2284.75,0.0056
2284.50,0.0053
2284.25,0.0052
2284.00,0.0052
2283.75,0.0054
2283.50,0.0056
2283.25,0.0058
2283.00,0.0059
2282.75,0.0059
2282.50,0.0060
2282.25,0.0061
2282.00,0.0063
2281.75,0.0063
2281.50,0.0060
2281.25,0.0057
2281.00,0.0056
2280.75,0.0056
2280.50,0.0057
2280.25,0.0058
2280.00,0.0058
2279.75,0.0056
2279.50,0.0054
2279.25,0.0054
2279.00,0.0054
2278.75,0.0056
2278.50,0.0057
2278.25,0.0058
2278.00,0.0058
2277.75,0.0057
2277.50,0.0055
2277.25,0.0055
2277.00,0.0056
2276.75,0.0058
2276.50,0.0059
2276.25,0.0058
2276.00,0.0056
2275.75,0.0053
2275.50,0.0052
2275.25,0.0052
2275.00,0.0052
2274.75,0.0054
2274.50,0.0056
2274.25,0.0058
2274.00,0.0059
2273.75,0.0059
2273.50,0.0058
2273.25,0.0056
2273.00,0.0055
2272.75,0.0054
2272.50,0.0053
2272.25,0.0054
2272.00,0.0056
2271.75,0.0059
2271.50,0.0062
2271.25,0.0064
2271.00,0.0063
2270.75,0.0061
2270.50,0.0058
2270.25,0.0054
2270.00,0.0050
2269.75,0.0047
2269.50,0.0045
2269.25,0.0046
2269.00,0.0047
2268.75,0.0050
2268.50,0.0054
2268.25,0.0056
2268.00,0.0056
2267.75,0.0055
2267.50,0.0053
2267.25,0.0052
2267.00,0.0052
2266.75,0.0053
2266.50,0.0054
2266.25,0.0056
2266.00,0.0056
2265.75,0.0054
2265.50,0.0052
2265.25,0.0050
2265.00,0.0050
2264.75,0.0050
2264.50,0.0050
2264.25,0.0049
2264.00,0.0048
2263.75,0.0047
2263.50,0.0045
2263.25,0.0044
2263.00,0.0044
2262.75,0.0044
2262.50,0.0045
2262.25,0.0048
2262.00,0.0051
2261.75,0.0054
2261.50,0.0055
2261.25,0.0055
2261.00,0.0054
2260.75,0.0054
2260.50,0.0053
2260.25,0.0052
2260.00,0.0050
2259.75,0.0048
2259.50,0.0047
2259.25,0.0046
2259.00,0.0046
2258.75,0.0046
2258.50,0.0046
2258.25,0.0047
2258.00,0.0048
2257.75,0.0050
2257.50,0.0050
2257.25,0.0051
2257.00,0.0050
2256.75,0.0050
2256.50,0.0049
2256.25,0.0048
2256.00,0.0047
2255.75,0.0047
2255.50,0.0048
2255.25,0.0051
2255.00,0.0054
2254.75,0.0056
2254.50,0.0058
2254.25,0.0058
2254.00,0.0056
2253.75,0.0053
2253.50,0.0050
2253.25,0.0049
2253.00,0.0048
2252.75,0.0048
2252.50,0.0048
2252.25,0.0049
2252.00,0.0049
2251.75,0.0049
2251.50,0.0048
2251.25,0.0048
2251.00,0.0048
2250.75,0.0048
2250.50,0.0049
2250.25,0.0051
2250.00,0.0052
2249.75,0.0052
2249.50,0.0052
2249.25,0.0051
2249.00,0.0049
2248.75,0.0047
2248.50,0.0044
2248.25,0.0042
2248.00,0.0043
2247.75,0.0045
2247.50,0.0046
2247.25,0.0046
2247.00,0.0043
2246.75,0.0040
2246.50,0.0038
2246.25,0.0037
2246.00,0.0038
2245.75,0.0040
2245.50,0.0043
2245.25,0.0047
2245.00,0.0050
2244.75,0.0052
2244.50,0.0053
2244.25,0.0055
2244.00,0.0056
2243.75,0.0057
2243.50,0.0056
2243.25,0.0055
2243.00,0.0055
2242.75,0.0053
2242.50,0.0051
2242.25,0.0047
2242.00,0.0044
2241.75,0.0043
2241.50,0.0043
2241.25,0.0043
2241.00,0.0045
2240.75,0.0046
2240.50,0.0048
2240.25,0.0048
2240.00,0.0046
2239.75,0.0043
2239.50,0.0041
2239.25,0.0040
2239.00,0.0040
2238.75,0.0042
2238.50,0.0044
2238.25,0.0045
2238.00,0.0045
2237.75,0.0045
2237.50,0.0045
2237.25,0.0044
2237.00,0.0043
2236.75,0.0042
2236.50,0.0040
2236.25,0.0038
2236.00,0.0036
2235.75,0.0034
2235.50,0.0033
2235.25,0.0034
2235.00,0.0037
2234.75,0.0041
2234.50,0.0044
2234.25,0.0045
2234.00,0.0044
2233.75,0.0044
2233.50,0.0045
2233.25,0.0046
2233.00,0.0046
2232.75,0.0044
2232.50,0.0041
2232.25,0.0039
2232.00,0.0041
2231.75,0.0045
2231.50,0.0051
2231.25,0.0055
2231.00,0.0056
2230.75,0.0054
2230.50,0.0051
2230.25,0.0049
2230.00,0.0047
2229.75,0.0046
2229.50,0.0044
2229.25,0.0042
2229.00,0.0042
2228.75,0.0042
2228.50,0.0043
2228.25,0.0044
2228.00,0.0043
2227.75,0.0041
2227.50,0.0041
2227.25,0.0041
2227.00,0.0044
2226.75,0.0046
2226.50,0.0046
2226.25,0.0043
2226.00,0.0037
2225.75,0.0032
2225.50,0.0029
2225.25,0.0030
2225.00,0.0034
2224.75,0.0040
2224.50,0.0044
2224.25,0.0046
2224.00,0.0046
2223.75,0.0046
2223.50,0.0046
2223.25,0.0048
2223.00,0.0050
2222.75,0.0051
2222.50,0.0050
2222.25,0.0048
2222.00,0.0046
2221.75,0.0045
2221.50,0.0044
2221.25,0.0043
2221.00,0.0042
2220.75,0.0041
2220.50,0.0041
2220.25,0.0040
2220.00,0.0040
2219.75,0.0041
2219.50,0.0044
2219.25,0.0047
2219.00,0.0049
2218.75,0.0048
2218.50,0.0045
2218.25,0.0041
2218.00,0.0038
2217.75,0.0037
2217.50,0.0038
2217.25,0.0039
2217.00,0.0041
2216.75,0.0043
2216.50,0.0044
2216.25,0.0046
2216.00,0.0046
2215.75,0.0045
2215.50,0.0043
2215.25,0.0042
2215.00,0.0041
2214.75,0.0040
2214.50,0.0040
2214.25,0.0040
2214.00,0.0039
2213.75,0.0039
2213.50,0.0039
2213.25,0.0037
2213.00,0.0036
2212.75,0.0035
2212.50,0.0035
2212.25,0.0038
2212.00,0.0040
2211.75,0.0042
2211.50,0.0042
2211.25,0.0041
2211.00,0.0039
2210.75,0.0037
2210.50,0.0036
2210.25,0.0035
2210.00,0.0035
2209.75,0.0036
2209.50,0.0037
2209.25,0.0036
2209.00,0.0034
2208.75,0.0032
2208.50,0.0031
2208.25,0.0030
2208.00,0.0030
2207.75,0.0030
2207.50,0.0032
2207.25,0.0035
2207.00,0.0038
2206.75,0.0039
2206.50,0.0038
2206.25,0.0034
2206.00,0.0029
2205.75,0.0024
2205.50,0.0021
2205.25,0.0021
2205.00,0.0024
2204.75,0.0030
2204.50,0.0036
2204.25,0.0039
2204.00,0.0039
2203.75,0.0036
2203.50,0.0033
2203.25,0.0031
2203.00,0.0032
2202.75,0.0034
2202.50,0.0036
2202.25,0.0037
2202.00,0.0038
2201.75,0.0038
2201.50,0.0039
2201.25,0.0040
2201.00,0.0039
2200.75,0.0038
2200.50,0.0036
2200.25,0.0035
2200.00,0.0034
2199.75,0.0034
2199.50,0.0034
2199.25,0.0033
2199.00,0.0032
2198.75,0.0033
2198.50,0.0034
2198.25,0.0035
2198.00,0.0035
2197.75,0.0036
2197.50,0.0038
2197.25,0.0041
2197.00,0.0043
2196.75,0.0043
2196.50,0.0041
2196.25,0.0038
2196.00,0.0036
2195.75,0.0035
2195.50,0.0035
2195.25,0.0037
2195.00,0.0038
2194.75,0.0038
2194.50,0.0038
2194.25,0.0037
2194.00,0.0034
2193.75,0.0031
2193.50,0.0027
2193.25,0.0025
2193.00,0.0026
2192.75,0.0027
2192.50,0.0029
2192.25,0.0031
2192.00,0.0034
2191.75,0.0038
2191.50,0.0042
2191.25,0.0044
2191.00,0.0043
2190.75,0.0042
2190.50,0.0041
2190.25,0.0041
2190.00,0.0043
2189.75,0.0044
2189.50,0.0044
2189.25,0.0043
2189.00,0.0042
2188.75,0.0040
2188.50,0.0040
2188.25,0.0040
2188.00,0.0041
2187.75,0.0041
2187.50,0.0041
2187.25,0.0040
2187.00,0.0039
2186.75,0.0036
2186.50,0.0033
2186.25,0.0031
2186.00,0.0030
2185.75,0.0030
2185.50,0.0031
2185.25,0.0029
2185.00,0.0025
2184.75,0.0020
2184.50,0.0017
2184.25,0.0018
2184.00,0.0021
2183.75,0.0025
2183.50,0.0027
2183.25,0.0026
2183.00,0.0024
2182.75,0.0024
2182.50,0.0026
2182.25,0.0029
2182.00,0.0030
2181.75,0.0029
2181.50,0.0026
2181.25,0.0025
2181.00,0.0026
2180.75,0.0029
2180.50,0.0032
2180.25,0.0033
2180.00,0.0031
2179.75,0.0030
2179.50,0.0030
2179.25,0.0034
2179.00,0.0037
2178.75,0.0039
2178.50,0.0037
2178.25,0.0033
2178.00,0.0029
2177.75,0.0027
2177.50,0.0028
2177.25,0.0030
2177.00,0.0033
2176.75,0.0037
2176.50,0.0040
2176.25,0.0042
2176.00,0.0041
2175.75,0.0037
2175.50,0.0033
2175.25,0.0031
2175.00,0.0030
2174.75,0.0032
2174.50,0.0033
2174.25,0.0034
2174.00,0.0034
2173.75,0.0033
2173.50,0.0031
2173.25,0.0030
2173.00,0.0030
2172.75,0.0032
2172.50,0.0036
2172.25,0.0042
2172.00,0.0047
2171.75,0.0050
2171.50,0.0048
2171.25,0.0043
2171.00,0.0036
2170.75,0.0031
2170.50,0.0028
2170.25,0.0027
2170.00,0.0026
2169.75,0.0025
2169.50,0.0025
2169.25,0.0027
2169.00,0.0030
2168.75,0.0034
2168.50,0.0036
2168.25,0.0035
2168.00,0.0034
2167.75,0.0033
2167.50,0.0033
2167.25,0.0034
2167.00,0.0034
2166.75,0.0032
2166.50,0.0028
2166.25,0.0024
2166.00,0.0022
2165.75,0.0025
2165.50,0.0028
2165.25,0.0032
2165.00,0.0035
2164.75,0.0037
2164.50,0.0040
2164.25,0.0042
2164.00,0.0043
2163.75,0.0042
2163.50,0.0037
2163.25,0.0031
2163.00,0.0025
2162.75,0.0023
2162.50,0.0024
2162.25,0.0028
2162.00,0.0031
2161.75,0.0032
2161.50,0.0029
2161.25,0.0024
2161.00,0.0020
2160.75,0.0018
2160.50,0.0018
2160.25,0.0019
2160.00,0.0019
2159.75,0.0019
2159.50,0.0019
2159.25,0.0020
2159.00,0.0022
2158.75,0.0027
2158.50,0.0032
2158.25,0.0034
2158.00,0.0032
2157.75,0.0027
2157.50,0.0019
2157.25,0.0014
2157.00,0.0012
2156.75,0.0014
2156.50,0.0019
2156.25,0.0024
2156.00,0.0028
2155.75,0.0031
2155.50,0.0032
2155.25,0.0031
2155.00,0.0029
2154.75,0.0027
2154.50,0.0026
2154.25,0.0028
2154.00,0.0032
2153.75,0.0036
2153.50,0.0038
2153.25,0.0037
2153.00,0.0034
2152.75,0.0030
2152.50,0.0026
2152.25,0.0025
2152.00,0.0026
2151.75,0.0028
2151.50,0.0031
2151.25,0.0032
2151.00,0.0032
2150.75,0.0031
2150.50,0.0031
2150.25,0.0031
2150.00,0.0031
2149.75,0.0033
2149.50,0.0035
2149.25,0.0037
2149.00,0.0038
2148.75,0.0039
2148.50,0.0040
2148.25,0.0041
2148.00,0.0042
2147.75,0.0043
2147.50,0.0041
2147.25,0.0038
2147.00,0.0034
2146.75,0.0031
2146.50,0.0030
2146.25,0.0030
2146.00,0.0032
2145.75,0.0034
2145.50,0.0035
2145.25,0.0036
2145.00,0.0034
2144.75,0.0032
2144.50,0.0030
2144.25,0.0029
2144.00,0.0029
2143.75,0.0031
2143.50,0.0031
2143.25,0.0030
2143.00,0.0030
2142.75,0.0031
2142.50,0.0033
2142.25,0.0035
2142.00,0.0038
2141.75,0.0039
2141.50,0.0039
2141.25,0.0037
2141.00,0.0034
2140.75,0.0032
2140.50,0.0031
2140.25,0.0033
2140.00,0.0036
2139.75,0.0037
2139.50,0.0037
2139.25,0.0036
2139.00,0.0035
2138.75,0.0035
2138.50,0.0036
2138.25,0.0037
2138.00,0.0038
2137.75,0.0038
2137.50,0.0037
2137.25,0.0036
2137.00,0.0036
2136.75,0.0036
2136.50,0.0038
2136.25,0.0039
2136.00,0.0038
2135.75,0.0035
2135.50,0.0029
2135.25,0.0025
2135.00,0.0023
2134.75,0.0026
2134.50,0.0033
2134.25,0.0040
2134.00,0.0046
2133.75,0.0050
2133.50,0.0051
2133.25,0.0050
2133.00,0.0049
2132.75,0.0048
2132.50,0.0047
2132.25,0.0044
2132.00,0.0041
2131.75,0.0039
2131.50,0.0037
2131.25,0.0036
2131.00,0.0037
2130.75,0.0037
2130.50,0.0035
2130.25,0.0032
2130.00,0.0028
2129.75,0.0025
2129.50,0.0025
2129.25,0.0028
2129.00,0.0034
2128.75,0.0039
2128.50,0.0043
2128.25,0.0044
2128.00,0.0043
2127.75,0.0041
2127.50,0.0040
2127.25,0.0040
2127.00,0.0041
2126.75,0.0042
2126.50,0.0042
2126.25,0.0041
2126.00,0.0040
2125.75,0.0039
2125.50,0.0038
2125.25,0.0038
2125.00,0.0039
2124.75,0.0042
2124.50,0.0045
2124.25,0.0047
2124.00,0.0047
2123.75,0.0044
2123.50,0.0041
2123.25,0.0038
2123.00,0.0038
2122.75,0.0038
2122.50,0.0039
2122.25,0.0040
2122.00,0.0041
2121.75,0.0043
2121.50,0.0046
2121.25,0.0049
2121.00,0.0052
2120.75,0.0053
2120.50,0.0052
2120.25,0.0050
2120.00,0.0048
2119.75,0.0048
2119.50,0.0050
2119.25,0.0052
2119.00,0.0052
2118.75,0.0051
2118.50,0.0047
2118.25,0.0043
2118.00,0.0039
2117.75,0.0036
2117.50,0.0035
2117.25,0.0034
2117.00,0.0035
2116.75,0.0037
2116.50,0.0039
2116.25,0.0041
2116.00,0.0042
2115.75,0.0043
2115.50,0.0043
2115.25,0.0043
2115.00,0.0043
2114.75,0.0044
2114.50,0.0046
2114.25,0.0049
2114.00,0.0051
2113.75,0.0052
2113.50,0.0051
2113.25,0.0050
2113.00,0.0048
2112.75,0.0045
2112.50,0.0042
2112.25,0.0038
2112.00,0.0035
2111.75,0.0034
2111.50,0.0036
2111.25,0.0038
2111.00,0.0041
2110.75,0.0041
2110.50,0.0039
2110.25,0.0037
2110.00,0.0035
2109.75,0.0035
2109.50,0.0036
2109.25,0.0035
2109.00,0.0034
2108.75,0.0035
2108.50,0.0037
2108.25,0.0042
2108.00,0.0047
2107.75,0.0052
2107.50,0.0055
2107.25,0.0055
2107.00,0.0053
2106.75,0.0049
2106.50,0.0047
2106.25,0.0047
2106.00,0.0047
2105.75,0.0048
2105.50,0.0049
2105.25,0.0048
2105.00,0.0048
2104.75,0.0049
2104.50,0.0049
2104.25,0.0048
2104.00,0.0047
2103.75,0.0044
2103.50,0.0042
2103.25,0.0041
2103.00,0.0040
2102.75,0.0041
2102.50,0.0043
2102.25,0.0046
2102.00,0.0049
2101.75,0.0051
2101.50,0.0051
2101.25,0.0051
2101.00,0.0050
2100.75,0.0048
2100.50,0.0046
2100.25,0.0045
2100.00,0.0045
2099.75,0.0046
2099.50,0.0046
2099.25,0.0046
2099.00,0.0045
2098.75,0.0044
2098.50,0.0043
2098.25,0.0043
2098.00,0.0043
2097.75,0.0042
2097.50,0.0041
2097.25,0.0041
2097.00,0.0041
2096.75,0.0042
2096.50,0.0043
2096.25,0.0045
2096.00,0.0047
2095.75,0.0050
2095.50,0.0052
2095.25,0.0053
2095.00,0.0051
2094.75,0.0047
2094.50,0.0045
2094.25,0.0044
2094.00,0.0045
2093.75,0.0046
2093.50,0.0047
2093.25,0.0046
2093.00,0.0045
2092.75,0.0045
2092.50,0.0046
2092.25,0.0047
2092.00,0.0048
2091.75,0.0049
2091.50,0.0048
2091.25,0.0047
2091.00,0.0046
2090.75,0.0046
2090.50,0.0048
2090.25,0.0050
2090.00,0.0051
2089.75,0.0050
2089.50,0.0048
2089.25,0.0046
2089.00,0.0045
2088.75,0.0046
2088.50,0.0049
2088.25,0.0051
2088.00,0.0051
2087.75,0.0049
2087.50,0.0047
2087.25,0.0044
2087.00,0.0043
2086.75,0.0043
2086.50,0.0045
2086.25,0.0046
2086.00,0.0046
2085.75,0.0046
2085.50,0.0045
2085.25,0.0044
2085.00,0.0043
2084.75,0.0042
2084.50,0.0040
2084.25,0.0038
2084.00,0.0037
2083.75,0.0036
2083.50,0.0035
2083.25,0.0035
2083.00,0.0036
2082.75,0.0036
2082.50,0.0036
2082.25,0.0035
2082.00,0.0036
2081.75,0.0038
2081.50,0.0042
2081.25,0.0045
2081.00,0.0047
2080.75,0.0047
2080.50,0.0047
2080.25,0.0047
2080.00,0.0047
2079.75,0.0048
2079.50,0.0047
2079.25,0.0043
2079.00,0.0039
2078.75,0.0036
2078.50,0.0037
2078.25,0.0040
2078.00,0.0044
2077.75,0.0048
2077.50,0.0050
2077.25,0.0051
2077.00,0.0052
2076.75,0.0050
2076.50,0.0048
2076.25,0.0044
2076.00,0.0040
2075.75,0.0038
2075.50,0.0037
2075.25,0.0037
2075.00,0.0036
2074.75,0.0034
2074.50,0.0032
2074.25,0.0031
2074.00,0.0033
2073.75,0.0037
2073.50,0.0040
2073.25,0.0041
2073.00,0.0039
2072.75,0.0036
2072.50,0.0034
2072.25,0.0033
2072.00,0.0034
2071.75,0.0035
2071.50,0.0037
2071.25,0.0040
2071.00,0.0043
2070.75,0.0045
2070.50,0.0045
2070.25,0.0043
2070.00,0.0041
2069.75,0.0039
2069.50,0.0039
2069.25,0.0040
2069.00,0.0041
2068.75,0.0040
2068.50,0.0039
2068.25,0.0038
2068.00,0.0038
2067.75,0.0039
2067.50,0.0041
2067.25,0.0042
2067.00,0.0042
2066.75,0.0041
2066.50,0.0041
2066.25,0.0041
2066.00,0.0043
2065.75,0.0045
2065.50,0.0048
2065.25,0.0049
2065.00,0.0048
2064.75,0.0045
2064.50,0.0043
2064.25,0.0043
2064.00,0.0043
2063.75,0.0044
2063.50,0.0043
2063.25,0.0040
2063.00,0.0038
2062.75,0.0036
2062.50,0.0035
2062.25,0.0034
2062.00,0.0034
2061.75,0.0034
2061.50,0.0036
2061.25,0.0038
2061.00,0.0040
2060.75,0.0041
2060.50,0.0042
2060.25,0.0043
2060.00,0.0044
2059.75,0.0044
2059.50,0.0043
2059.25,0.0043
2059.00,0.0044
2058.75,0.0044
2058.50,0.0045
2058.25,0.0044
2058.00,0.0042
2057.75,0.0041
2057.50,0.0040
2057.25,0.0039
2057.00,0.0036
2056.75,0.0034
2056.50,0.0033
2056.25,0.0034
2056.00,0.0036
2055.75,0.0038
2055.50,0.0037
2055.25,0.0034
2055.00,0.0031
2054.75,0.0031
2054.50,0.0034
2054.25,0.0039
2054.00,0.0042
2053.75,0.0043
2053.50,0.0044
2053.25,0.0045
2053.00,0.0047
2052.75,0.0047
2052.50,0.0044
2052.25,0.0040
2052.00,0.0035
2051.75,0.0033
2051.50,0.0034
2051.25,0.0037
2051.00,0.0039
2050.75,0.0040
2050.50,0.0040
2050.25,0.0039
2050.00,0.0037
2049.75,0.0033
2049.50,0.0028
2049.25,0.0024
2049.00,0.0021
2048.75,0.0022
2048.50,0.0026
2048.25,0.0031
2048.00,0.0036
2047.75,0.0039
2047.50,0.0039
2047.25,0.0036
2047.00,0.0032
2046.75,0.0029
2046.50,0.0030
2046.25,0.0034
2046.00,0.0039
2045.75,0.0044
2045.50,0.0046
2045.25,0.0046
2045.00,0.0042
2044.75,0.0035
2044.50,0.0029
2044.25,0.0025
2044.00,0.0024
2043.75,0.0026
2043.50,0.0027
2043.25,0.0028
2043.00,0.0027
2042.75,0.0027
2042.50,0.0027
2042.25,0.0029
2042.00,0.0032
2041.75,0.0035
2041.50,0.0037
2041.25,0.0038
2041.00,0.0037
2040.75,0.0035
2040.50,0.0031
2040.25,0.0028
2040.00,0.0027
2039.75,0.0027
2039.50,0.0029
2039.25,0.0031
2039.00,0.0033
2038.75,0.0034
2038.50,0.0033
2038.25,0.0032
2038.00,0.0030
2037.75,0.0030
2037.50,0.0033
2037.25,0.0039
2037.00,0.0044
2036.75,0.0047
2036.50,0.0045
2036.25,0.0039
2036.00,0.0032
2035.75,0.0025
2035.50,0.0021
2035.25,0.0020
2035.00,0.0022
2034.75,0.0023
2034.50,0.0024
2034.25,0.0023
2034.00,0.0022
2033.75,0.0023
2033.50,0.0025
2033.25,0.0028
2033.00,0.0031
2032.75,0.0033
2032.50,0.0034
2032.25,0.0034
2032.00,0.0034
2031.75,0.0034
2031.50,0.0035
2031.25,0.0035
2031.00,0.0033
2030.75,0.0030
2030.50,0.0027
2030.25,0.0024
2030.00,0.0023
2029.75,0.0022
2029.50,0.0020
2029.25,0.0017
2029.00,0.0014
2028.75,0.0013
2028.50,0.0014
2028.25,0.0016
2028.00,0.0018
2027.75,0.0019
2027.50,0.0023
2027.25,0.0030
2027.00,0.0038
2026.75,0.0045
2026.50,0.0049
2026.25,0.0048
2026.00,0.0044
2025.75,0.0037
2025.50,0.0029
2025.25,0.0021
2025.00,0.0015
2024.75,0.0011
2024.50,0.0011
2024.25,0.0013
2024.00,0.0018
2023.75,0.0023
2023.50,0.0026
2023.25,0.0026
2023.00,0.0024
2022.75,0.0020
2022.50,0.0016
2022.25,0.0014
2022.00,0.0013
2021.75,0.0013
2021.50,0.0014
2021.25,0.0016
2021.00,0.0019
2020.75,0.0024
2020.50,0.0028
2020.25,0.0030
2020.00,0.0030
2019.75,0.0030
2019.50,0.0031
2019.25,0.0034
2019.00,0.0038
2018.75,0.0040
2018.50,0.0040
2018.25,0.0039
2018.00,0.0039
2017.75,0.0040
2017.50,0.0042
2017.25,0.0042
2017.00,0.0037
2016.75,0.0030
2016.50,0.0024
2016.25,0.0023
2016.00,0.0025
2015.75,0.0026
2015.50,0.0026
2015.25,0.0022
2015.00,0.0018
2014.75,0.0017
2014.50,0.0021
2014.25,0.0028
2014.00,0.0036
2013.75,0.0041
2013.50,0.0043
2013.25,0.0042
2013.00,0.0040
2012.75,0.0038
2012.50,0.0037
2012.25,0.0037
2012.00,0.0036
2011.75,0.0036
2011.50,0.0034
2011.25,0.0032
2011.00,0.0031
2010.75,0.0030
2010.50,0.0031
2010.25,0.0034
2010.00,0.0036
2009.75,0.0038
2009.50,0.0038
2009.25,0.0036
2009.00,0.0033
2008.75,0.0030
2008.50,0.0027
2008.25,0.0027
2008.00,0.0031
2007.75,0.0037
2007.50,0.0044
2007.25,0.0048
2007.00,0.0046
2006.75,0.0039
2006.50,0.0030
2006.25,0.0023
2006.00,0.0020
2005.75,0.0020
2005.50,0.0024
2005.25,0.0029
2005.00,0.0036
2004.75,0.0041
2004.50,0.0045
2004.25,0.0047
2004.00,0.0047
2003.75,0.0046
2003.50,0.0046
2003.25,0.0048
2003.00,0.0050
2002.75,0.0051
2002.50,0.0049
2002.25,0.0043
2002.00,0.0036
2001.75,0.0029
2001.50,0.0026
2001.25,0.0027
2001.00,0.0031
2000.75,0.0036
2000.50,0.0039
2000.25,0.0041
2000.00,0.0041
1999.75,0.0043
1999.50,0.0046
1999.25,0.0049
1999.00,0.0052
1998.75,0.0052
1998.50,0.0050
1998.25,0.0046
1998.00,0.0044
1997.75,0.0043
1997.50,0.0044
1997.25,0.0045
1997.00,0.0045
1996.75,0.0045
1996.50,0.0046
1996.25,0.0047
1996.00,0.0048
1995.75,0.0048
1995.50,0.0047
1995.25,0.0046
1995.00,0.0045
1994.75,0.0045
1994.50,0.0046
1994.25,0.0046
1994.00,0.0044
1993.75,0.0042
1993.50,0.0038
1993.25,0.0035
1993.00,0.0034
1992.75,0.0036
1992.50,0.0038
1992.25,0.0041
1992.00,0.0044
1991.75,0.0045
1991.50,0.0045
1991.25,0.0046
1991.00,0.0046
1990.75,0.0047
1990.50,0.0047
1990.25,0.0046
1990.00,0.0045
1989.75,0.0045
1989.50,0.0047
1989.25,0.0050
1989.00,0.0053
1988.75,0.0055
1988.50,0.0054
1988.25,0.0050
1988.00,0.0045
1987.75,0.0041
1987.50,0.0038
1987.25,0.0039
1987.00,0.0042
1986.75,0.0046
1986.50,0.0050
1986.25,0.0055
1986.00,0.0059
1985.75,0.0063
1985.50,0.0065
1985.25,0.0065
1985.00,0.0061
1984.75,0.0056
1984.50,0.0049
1984.25,0.0043
1984.00,0.0039
1983.75,0.0040
1983.50,0.0043
1983.25,0.0048
1983.00,0.0051
1982.75,0.0051
1982.50,0.0049
1982.25,0.0046
1982.00,0.0045
1981.75,0.0044
1981.50,0.0043
1981.25,0.0041
1981.00,0.0040
1980.75,0.0039
1980.50,0.0040
1980.25,0.0042
1980.00,0.0045
1979.75,0.0048
1979.50,0.0053
1979.25,0.0059
1979.00,0.0062
1978.75,0.0061
1978.50,0.0057
1978.25,0.0050
1978.00,0.0045
1977.75,0.0043
1977.50,0.0043
1977.25,0.0045
1977.00,0.0047
1976.75,0.0048
1976.50,0.0049
1976.25,0.0049
1976.00,0.0049
1975.75,0.0046
1975.50,0.0043
1975.25,0.0041
1975.00,0.0042
1974.75,0.0045
1974.50,0.0048
1974.25,0.0049
1974.00,0.0048
1973.75,0.0046
1973.50,0.0045
1973.25,0.0046
1973.00,0.0048
1972.75,0.0049
1972.50,0.0049
1972.25,0.0050
1972.00,0.0051
1971.75,0.0053
1971.50,0.0054
1971.25,0.0053
1971.00,0.0051
1970.75,0.0050
1970.50,0.0052
1970.25,0.0057
1970.00,0.0063
1969.75,0.0069
1969.50,0.0071
1969.25,0.0066
1969.00,0.0058
1968.75,0.0050
1968.50,0.0044
1968.25,0.0041
1968.00,0.0040
1967.75,0.0040
1967.50,0.0042
1967.25,0.0045
1967.00,0.0049
1966.75,0.0054
1966.50,0.0058
1966.25,0.0060
1966.00,0.0059
1965.75,0.0056
1965.50,0.0052
1965.25,0.0049
1965.00,0.0046
1964.75,0.0044
1964.50,0.0042
1964.25,0.0041
1964.00,0.0043
1963.75,0.0047
1963.50,0.0051
1963.25,0.0055
1963.00,0.0056
1962.75,0.0057
1962.50,0.0059
1962.25,0.0062
1962.00,0.0064
1961.75,0.0062
1961.50,0.0056
1961.25,0.0049
1961.00,0.0045
1960.75,0.0047
1960.50,0.0053
1960.25,0.0062
1960.00,0.0068
1959.75,0.0070
1959.50,0.0067
1959.25,0.0060
1959.00,0.0053
1958.75,0.0047
1958.50,0.0045
1958.25,0.0044
1958.00,0.0044
1957.75,0.0043
1957.50,0.0043
1957.25,0.0046
1957.00,0.0050
1956.75,0.0056
1956.50,0.0060
1956.25,0.0062
1956.00,0.0064
1955.75,0.0064
1955.50,0.0063
1955.25,0.0059
1955.00,0.0056
1954.75,0.0053
1954.50,0.0053
1954.25,0.0054
1954.00,0.0055
1953.75,0.0057
1953.50,0.0058
1953.25,0.0061
1953.00,0.0063
1952.75,0.0065
1952.50,0.0066
1952.25,0.0063
1952.00,0.0059
1951.75,0.0054
1951.50,0.0050
1951.25,0.0049
1951.00,0.0049
1950.75,0.0050
1950.50,0.0050
1950.25,0.0050
1950.00,0.0048
1949.75,0.0048
1949.50,0.0048
1949.25,0.0049
1949.00,0.0051
1948.75,0.0052
1948.50,0.0054
1948.25,0.0056
1948.00,0.0059
1947.75,0.0063
1947.50,0.0067
1947.25,0.0068
1947.00,0.0067
1946.75,0.0064
1946.50,0.0061
1946.25,0.0060
1946.00,0.0061
1945.75,0.0063
1945.50,0.0064
1945.25,0.0065
1945.00,0.0065
1944.75,0.0063
1944.50,0.0061
1944.25,0.0058
1944.00,0.0056
1943.75,0.0055
1943.50,0.0054
1943.25,0.0054
1943.00,0.0054
1942.75,0.0055
1942.50,0.0056
1942.25,0.0058
1942.00,0.0059
1941.75,0.0059
1941.50,0.0059
1941.25,0.0059
1941.00,0.0059
1940.75,0.0060
1940.50,0.0062
1940.25,0.0063
1940.00,0.0064
1939.75,0.0064
1939.50,0.0062
1939.25,0.0058
1939.00,0.0055
1938.75,0.0054
1938.50,0.0055
1938.25,0.0057
1938.00,0.0060
1937.75,0.0061
1937.50,0.0060
1937.25,0.0057
1937.00,0.0054
1936.75,0.0052
1936.50,0.0052
1936.25,0.0054
1936.00,0.0057
1935.75,0.0059
1935.50,0.0058
1935.25,0.0056
1935.00,0.0054
1934.75,0.0055
1934.50,0.0058
1934.25,0.0062
1934.00,0.0064
1933.75,0.0064
1933.50,0.0062
1933.25,0.0059
1933.00,0.0058
1932.75,0.0057
1932.50,0.0057
1932.25,0.0057
1932.00,0.0057
1931.75,0.0057
1931.50,0.0057
1931.25,0.0056
1931.00,0.0055
1930.75,0.0053
1930.50,0.0052
1930.25,0.0052
1930.00,0.0053
1929.75,0.0057
1929.50,0.0062
1929.25,0.0066
1929.00,0.0069
1928.75,0.0068
1928.50,0.0066
1928.25,0.0063
1928.00,0.0062
1927.75,0.0063
1927.50,0.0065
1927.25,0.0067
1927.00,0.0068
1926.75,0.0067
1926.50,0.0065
1926.25,0.0061
1926.00,0.0058
1925.75,0.0055
1925.50,0.0053
1925.25,0.0053
1925.00,0.0055
1924.75,0.0059
1924.50,0.0062
1924.25,0.0064
1924.00,0.0066
1923.75,0.0065
1923.50,0.0064
1923.25,0.0062
1923.00,0.0059
1922.75,0.0057
1922.50,0.0055
1922.25,0.0055
1922.00,0.0056
1921.75,0.0057
1921.50,0.0058
1921.25,0.0059
1921.00,0.0059
1920.75,0.0059
1920.50,0.0060
1920.25,0.0060
1920.00,0.0061
1919.75,0.0061
1919.50,0.0061
1919.25,0.0061
1919.00,0.0061
1918.75,0.0060
1918.50,0.0061
1918.25,0.0062
1918.00,0.0063
1917.75,0.0064
1917.50,0.0065
1917.25,0.0065
1917.00,0.0063
1916.75,0.0061
1916.50,0.0058
1916.25,0.0055
1916.00,0.0054
1915.75,0.0055
1915.50,0.0057
1915.25,0.0059
1915.00,0.0061
1914.75,0.0063
1914.50,0.0065
1914.25,0.0065
1914.00,0.0064
1913.75,0.0063
1913.50,0.0061
1913.25,0.0061
1913.00,0.0062
1912.75,0.0063
1912.50,0.0063
1912.25,0.0062
1912.00,0.0061
1911.75,0.0059
1911.50,0.0059
1911.25,0.0060
1911.00,0.0061
1910.75,0.0062
1910.50,0.0062
1910.25,0.0061
1910.00,0.0058
1909.75,0.0055
1909.50,0.0053
1909.25,0.0053
1909.00,0.0054
1908.75,0.0056
1908.50,0.0058
1908.25,0.0060
1908.00,0.0061
1907.75,0.0061
1907.50,0.0062
1907.25,0.0062
1907.00,0.0064
1906.75,0.0064
1906.50,0.0063
1906.25,0.0062
1906.00,0.0062
1905.75,0.0062
1905.50,0.0063
1905.25,0.0064
1905.00,0.0063
1904.75,0.0061
1904.50,0.0060
1904.25,0.0059
1904.00,0.0060
1903.75,0.0059
1903.50,0.0058
1903.25,0.0057
1903.00,0.0056
1902.75,0.0056
1902.50,0.0057
1902.25,0.0058
1902.00,0.0058
1901.75,0.0058
1901.50,0.0057
1901.25,0.0058
1901.00,0.0059
1900.75,0.0061
1900.50,0.0062
1900.25,0.0064
1900.00,0.0065
1899.75,0.0065
1899.50,0.0064
1899.25,0.0061
1899.00,0.0058
1898.75,0.0056
1898.50,0.0056
1898.25,0.0058
1898.00,0.0060
1897.75,0.0062
1897.50,0.0062
1897.25,0.0062
1897.00,0.0061
1896.75,0.0060
1896.50,0.0060
1896.25,0.0060
1896.00,0.0060
1895.75,0.0061
1895.50,0.0061
1895.25,0.0062
1895.00,0.0062
1894.75,0.0062
1894.50,0.0062
1894.25,0.0062
1894.00,0.0062
1893.75,0.0064
1893.50,0.0066
1893.25,0.0066
1893.00,0.0066
1892.75,0.0065
1892.50,0.0065
1892.25,0.0065
1892.00,0.0067
1891.75,0.0069
1891.50,0.0069
1891.25,0.0068
1891.00,0.0066
1890.75,0.0064
1890.50,0.0062
1890.25,0.0061
1890.00,0.0060
1889.75,0.0059
1889.50,0.0058
1889.25,0.0058
1889.00,0.0059
1888.75,0.0060
1888.50,0.0062
1888.25,0.0063
1888.00,0.0063
1887.75,0.0061
1887.50,0.0059
1887.25,0.0056
1887.00,0.0055
1886.75,0.0056
1886.50,0.0058
1886.25,0.0060
1886.00,0.0062
1885.75,0.0062
1885.50,0.0061
1885.25,0.0059
1885.00,0.0058
1884.75,0.0059
1884.50,0.0059
1884.25,0.0060
1884.00,0.0060
1883.75,0.0060
1883.50,0.0060
1883.25,0.0059
1883.00,0.0059
1882.75,0.0059
1882.50,0.0061
1882.25,0.0063
1882.00,0.0065
1881.75,0.0066
1881.50,0.0066
1881.25,0.0066
1881.00,0.0065
1880.75,0.0063
1880.50,0.0061
1880.25,0.0060
1880.00,0.0059
1879.75,0.0059
1879.50,0.0061
1879.25,0.0063
1879.00,0.0064
1878.75,0.0064
1878.50,0.0062
1878.25,0.0061
1878.00,0.0061
1877.75,0.0062
1877.50,0.0063
1877.25,0.0063
1877.00,0.0061
1876.75,0.0058
1876.50,0.0056
1876.25,0.0055
1876.00,0.0055
1875.75,0.0055
1875.50,0.0056
1875.25,0.0057
1875.00,0.0059
1874.75,0.0062
1874.50,0.0064
1874.25,0.0065
1874.00,0.0065
1873.75,0.0063
1873.50,0.0061
1873.25,0.0060
1873.00,0.0060
1872.75,0.0061
1872.50,0.0062
1872.25,0.0062
1872.00,0.0060
1871.75,0.0059
1871.50,0.0058
1871.25,0.0059
1871.00,0.0060
1870.75,0.0062
1870.50,0.0063
1870.25,0.0063
1870.00,0.0062
1869.75,0.0060
1869.50,0.0059
1869.25,0.0059
1869.00,0.0061
1868.75,0.0062
1868.50,0.0061
1868.25,0.0059
1868.00,0.0057
1867.75,0.0058
1867.50,0.0061
1867.25,0.0065
1867.00,0.0068
1866.75,0.0070
1866.50,0.0070
1866.25,0.0069
1866.00,0.0068
1865.75,0.0067
1865.50,0.0067
1865.25,0.0068
1865.00,0.0068
1864.75,0.0068
1864.50,0.0068
1864.25,0.0067
1864.00,0.0066
1863.75,0.0065
1863.50,0.0066
1863.25,0.0067
1863.00,0.0068
1862.75,0.0069
1862.50,0.0068
1862.25,0.0067
1862.00,0.0065
1861.75,0.0064
1861.50,0.0064
1861.25,0.0065
1861.00,0.0068
1860.75,0.0070
1860.50,0.0071
1860.25,0.0071
1860.00,0.0068
1859.75,0.0066
1859.50,0.0064
1859.25,0.0063
1859.00,0.0064
1858.75,0.0065
1858.50,0.0064
1858.25,0.0062
1858.00,0.0059
1857.75,0.0056
1857.50,0.0054
1857.25,0.0054
1857.00,0.0055
1856.75,0.0058
1856.50,0.0061
1856.25,0.0064
1856.00,0.0066
1855.75,0.0068
1855.50,0.0070
1855.25,0.0071
1855.00,0.0071
1854.75,0.0070
1854.50,0.0068
1854.25,0.0065
1854.00,0.0063
1853.75,0.0062
1853.50,0.0061
1853.25,0.0062
1853.00,0.0062
1852.75,0.0061
1852.50,0.0060
1852.25,0.0059
1852.00,0.0058
1851.75,0.0059
1851.50,0.0060
1851.25,0.0063
1851.00,0.0065
1850.75,0.0067
1850.50,0.0067
1850.25,0.0067
1850.00,0.0067
1849.75,0.0067
1849.50,0.0066
1849.25,0.0065
1849.00,0.0064
1848.75,0.0063
1848.50,0.0063
1848.25,0.0064
1848.00,0.0065
1847.75,0.0066
1847.50,0.0065
1847.25,0.0062
1847.00,0.0060
1846.75,0.0059
1846.50,0.0060
1846.25,0.0062
1846.00,0.0064
1845.75,0.0066
1845.50,0.0066
1845.25,0.0066
1845.00,0.0066
1844.75,0.0066
1844.50,0.0067
1844.25,0.0070
1844.00,0.0073
1843.75,0.0074
1843.50,0.0073
1843.25,0.0072
1843.00,0.0070
1842.75,0.0069
1842.50,0.0068
1842.25,0.0067
1842.00,0.0066
1841.75,0.0065
1841.50,0.0066
1841.25,0.0067
1841.00,0.0068
1840.75,0.0068
1840.50,0.0068
1840.25,0.0067
1840.00,0.0068
1839.75,0.0068
1839.50,0.0069
1839.25,0.0069
1839.00,0.0068
1838.75,0.0066
1838.50,0.0065
1838.25,0.0065
1838.00,0.0065
1837.75,0.0064
1837.50,0.0063
1837.25,0.0063
1837.00,0.0063
1836.75,0.0064
1836.50,0.0064
1836.25,0.0063
1836.00,0.0063
1835.75,0.0063
1835.50,0.0063
1835.25,0.0065
1835.00,0.0066
1834.75,0.0066
1834.50,0.0065
1834.25,0.0064
1834.00,0.0063
1833.75,0.0062
1833.50,0.0063
1833.25,0.0064
1833.00,0.0064
1832.75,0.0065
1832.50,0.0065
1832.25,0.0066
1832.00,0.0067
1831.75,0.0067
1831.50,0.0067
1831.25,0.0067
1831.00,0.0067
1830.75,0.0066
1830.50,0.0066
1830.25,0.0066
1830.00,0.0067
1829.75,0.0069
1829.50,0.0071
1829.25,0.0071
1829.00,0.0070
1828.75,0.0069
1828.50,0.0068
1828.25,0.0068
1828.00,0.0068
1827.75,0.0068
1827.50,0.0069
1827.25,0.0068
1827.00,0.0068
1826.75,0.0066
1826.50,0.0065
1826.25,0.0064
1826.00,0.0062
1825.75,0.0061
1825.50,0.0059
1825.25,0.0058
1825.00,0.0058
1824.75,0.0059
1824.50,0.0061
1824.25,0.0063
1824.00,0.0064
1823.75,0.0065
1823.50,0.0065
1823.25,0.0065
1823.00,0.0066
1822.75,0.0067
1822.50,0.0068
1822.25,0.0069
1822.00,0.0069
1821.75,0.0070
1821.50,0.0070
1821.25,0.0071
1821.00,0.0072
1820.75,0.0073
1820.50,0.0073
1820.25,0.0071
1820.00,0.0068
1819.75,0.0065
1819.50,0.0062
1819.25,0.0062
1819.00,0.0063
1818.75,0.0065
1818.50,0.0067
1818.25,0.0068
1818.00,0.0067
1817.75,0.0066
1817.50,0.0065
1817.25,0.0064
1817.00,0.0064
1816.75,0.0065
1816.50,0.0067
1816.25,0.0068
1816.00,0.0069
1815.75,0.0070
1815.50,0.0071
1815.25,0.0070
1815.00,0.0070
1814.75,0.0069
1814.50,0.0068
1814.25,0.0067
1814.00,0.0067
1813.75,0.0067
1813.50,0.0068
1813.25,0.0069
1813.00,0.0069
1812.75,0.0068
1812.50,0.0068
1812.25,0.0068
1812.00,0.0070
1811.75,0.0071
1811.50,0.0072
1811.25,0.0073
1811.00,0.0073
1810.75,0.0074
1810.50,0.0075
1810.25,0.0074
1810.00,0.0072
1809.75,0.0070
1809.50,0.0069
1809.25,0.0069
1809.00,0.0070
1808.75,0.0071
1808.50,0.0070
1808.25,0.0069
1808.00,0.0067
1807.75,0.0067
1807.50,0.0067
1807.25,0.0067
1807.00,0.0067
1806.75,0.0066
1806.50,0.0066
1806.25,0.0066
1806.00,0.0068
1805.75,0.0070
1805.50,0.0071
1805.25,0.0072
1805.00,0.0071
1804.75,0.0069
1804.50,0.0067
1804.25,0.0067
1804.00,0.0067
1803.75,0.0068
1803.50,0.0069
1803.25,0.0069
1803.00,0.0068
1802.75,0.0067
1802.50,0.0066
1802.25,0.0067
1802.00,0.0068
1801.75,0.0070
1801.50,0.0072
1801.25,0.0072
1801.00,0.0073
1800.75,0.0073
1800.50,0.0073
1800.25,0.0073
1800.00,0.0072
1799.75,0.0071
1799.50,0.0070
1799.25,0.0070
1799.00,0.0070
1798.75,0.0070
1798.50,0.0070
1798.25,0.0070
1798.00,0.0069
1797.75,0.0069
1797.50,0.0069
1797.25,0.0068
1797.00,0.0068
1796.75,0.0068
1796.50,0.0068
1796.25,0.0068
1796.00,0.0068
1795.75,0.0068
1795.50,0.0068
1795.25,0.0069
1795.00,0.0070
1794.75,0.0070
1794.50,0.0069
1794.25,0.0068
1794.00,0.0067
1793.75,0.0066
1793.50,0.0064
1793.25,0.0062
1793.00,0.0061
1792.75,0.0062
1792.50,0.0066
1792.25,0.0072
1792.00,0.0076
1791.75,0.0077
1791.50,0.0076
1791.25,0.0074
1791.00,0.0071
1790.75,0.0069
1790.50,0.0070
1790.25,0.0071
1790.00,0.0073
1789.75,0.0074
1789.50,0.0075
1789.25,0.0075
1789.00,0.0074
1788.75,0.0073
1788.50,0.0072
1788.25,0.0072
1788.00,0.0071
1787.75,0.0071
1787.50,0.0070
1787.25,0.0069
1787.00,0.0068
1786.75,0.0068
1786.50,0.0070
1786.25,0.0072
1786.00,0.0074
1785.75,0.0076
1785.50,0.0076
1785.25,0.0075
1785.00,0.0073
1784.75,0.0071
1784.50,0.0070
1784.25,0.0071
1784.00,0.0073
1783.75,0.0074
1783.50,0.0075
1783.25,0.0075
1783.00,0.0074
1782.75,0.0073
1782.50,0.0073
1782.25,0.0073
1782.00,0.0074
1781.75,0.0073
1781.50,0.0072
1781.25,0.0071
1781.00,0.0071
1780.75,0.0072
1780.50,0.0073
1780.25,0.0073
1780.00,0.0072
1779.75,0.0071
1779.50,0.0071
1779.25,0.0072
1779.00,0.0073
1778.75,0.0073
1778.50,0.0074
1778.25,0.0074
1778.00,0.0073
1777.75,0.0073
1777.50,0.0072
1777.25,0.0071
1777.00,0.0072
1776.75,0.0072
1776.50,0.0073
1776.25,0.0074
1776.00,0.0075
1775.75,0.0074
1775.50,0.0073
1775.25,0.0071
1775.00,0.0069
1774.75,0.0068
1774.50,0.0067
1774.25,0.0067
1774.00,0.0068
1773.75,0.0069
1773.50,0.0069
1773.25,0.0068
1773.00,0.0068
1772.75,0.0069
1772.50,0.0071
1772.25,0.0071
1772.00,0.0070
1771.75,0.0069
1771.50,0.0069
1771.25,0.0070
1771.00,0.0072
1770.75,0.0075
1770.50,0.0075
1770.25,0.0075
1770.00,0.0074
1769.75,0.0073
1769.50,0.0073
1769.25,0.0073
1769.00,0.0072
1768.75,0.0071
1768.50,0.0069
1768.25,0.0067
1768.00,0.0066
1767.75,0.0067
1767.50,0.0068
1767.25,0.0070
1767.00,0.0070
1766.75,0.0071
1766.50,0.0072
1766.25,0.0072
1766.00,0.0073
1765.75,0.0074
1765.50,0.0074
1765.25,0.0073
1765.00,0.0073
1764.75,0.0074
1764.50,0.0074
1764.25,0.0074
1764.00,0.0073
1763.75,0.0072
1763.50,0.0071
1763.25,0.0072
1763.00,0.0073
1762.75,0.0074
1762.50,0.0073
1762.25,0.0071
1762.00,0.0068
1761.75,0.0066
1761.50,0.0067
1761.25,0.0070
1761.00,0.0072
1760.75,0.0072
1760.50,0.0072
1760.25,0.0072
1760.00,0.0072
1759.75,0.0073
1759.50,0.0073
1759.25,0.0073
1759.00,0.0073
1758.75,0.0074
1758.50,0.0076
1758.25,0.0077
1758.00,0.0078
1757.75,0.0078
1757.50,0.0078
1757.25,0.0078
1757.00,0.0078
1756.75,0.0077
1756.50,0.0077
1756.25,0.0076
1756.00,0.0074
1755.75,0.0073
1755.50,0.0071
1755.25,0.0071
1755.00,0.0072
1754.75,0.0073
1754.50,0.0074
1754.25,0.0075
1754.00,0.0074
1753.75,0.0074
1753.50,0.0074
1753.25,0.0074
1753.00,0.0074
1752.75,0.0074
1752.50,0.0073
1752.25,0.0074
1752.00,0.0074
1751.75,0.0075
1751.50,0.0078
1751.25,0.0079
1751.00,0.0077
1750.75,0.0075
1750.50,0.0074
1750.25,0.0074
1750.00,0.0074
1749.75,0.0074
1749.50,0.0073
1749.25,0.0072
1749.00,0.0072
1748.75,0.0072
1748.50,0.0074
1748.25,0.0077
1748.00,0.0079
1747.75,0.0080
1747.50,0.0081
1747.25,0.0081
1747.00,0.0080
1746.75,0.0079
1746.50,0.0078
1746.25,0.0079
1746.00,0.0079
1745.75,0.0080
1745.50,0.0080
1745.25,0.0079
1745.00,0.0077
1744.75,0.0077
1744.50,0.0076
1744.25,0.0077
1744.00,0.0077
1743.75,0.0078
1743.50,0.0078
1743.25,0.0078
1743.00,0.0077
1742.75,0.0075
1742.50,0.0075
1742.25,0.0075
1742.00,0.0076
1741.75,0.0076
1741.50,0.0076
1741.25,0.0076
1741.00,0.0076
1740.75,0.0077
1740.50,0.0078
1740.25,0.0079
1740.00,0.0079
1739.75,0.0078
1739.50,0.0077
1739.25,0.0078
1739.00,0.0079
1738.75,0.0079
1738.50,0.0078
1738.25,0.0077
1738.00,0.0076
1737.75,0.0075
1737.50,0.0076
1737.25,0.0076
1737.00,0.0077
1736.75,0.0077
1736.50,0.0078
1736.25,0.0079
1736.00,0.0079
1735.75,0.0080
1735.50,0.0080
1735.25,0.0080
1735.00,0.0078
1734.75,0.0076
1734.50,0.0075
1734.25,0.0077
1734.00,0.0079
1733.75,0.0080
1733.50,0.0079
1733.25,0.0077
1733.00,0.0076
1732.75,0.0077
1732.50,0.0077
1732.25,0.0078
1732.00,0.0078
1731.75,0.0079
1731.50,0.0079
1731.25,0.0080
1731.00,0.0080
1730.75,0.0080
1730.50,0.0080
1730.25,0.0080
1730.00,0.0081
1729.75,0.0079
1729.50,0.0077
1729.25,0.0075
1729.00,0.0075
1728.75,0.0076
1728.50,0.0077
1728.25,0.0079
1728.00,0.0080
1727.75,0.0080
1727.50,0.0081
1727.25,0.0081
1727.00,0.0080
1726.75,0.0079
1726.50,0.0078
1726.25,0.0078
1726.00,0.0078
1725.75,0.0078
1725.50,0.0079
1725.25,0.0079
1725.00,0.0078
1724.75,0.0077
1724.50,0.0077
1724.25,0.0077
1724.00,0.0078
1723.75,0.0078
1723.50,0.0078
1723.25,0.0077
1723.00,0.0077
1722.75,0.0077
1722.50,0.0077
1722.25,0.0078
1722.00,0.0080
1721.75,0.0081
1721.50,0.0082
1721.25,0.0082
1721.00,0.0082
1720.75,0.0082
1720.50,0.0081
1720.25,0.0081
1720.00,0.0080
1719.75,0.0079
1719.50,0.0079
1719.25,0.0079
1719.00,0.0079
1718.75,0.0079
1718.50,0.0080
1718.25,0.0080
1718.00,0.0076
1717.75,0.0070
1717.50,0.0063
1717.25,0.0059
1717.00,0.0062
1716.75,0.0069
1716.50,0.0076
1716.25,0.0080
1716.00,0.0082
1715.75,0.0084
1715.50,0.0086
1715.25,0.0086
1715.00,0.0083
1714.75,0.0080
1714.50,0.0077
1714.25,0.0076
1714.00,0.0077
1713.75,0.0078
1713.50,0.0079
1713.25,0.0079
1713.00,0.0080
1712.75,0.0080
1712.50,0.0079
1712.25,0.0079
1712.00,0.0079
1711.75,0.0079
1711.50,0.0080
1711.25,0.0081
1711.00,0.0082
1710.75,0.0082
1710.50,0.0081
1710.25,0.0080
1710.00,0.0080
1709.75,0.0079
1709.50,0.0080
1709.25,0.0080
1709.00,0.0080
1708.75,0.0080
1708.50,0.0079
1708.25,0.0079
1708.00,0.0079
1707.75,0.0080
1707.50,0.0081
1707.25,0.0083
1707.00,0.0085
1706.75,0.0086
1706.50,0.0085
1706.25,0.0084
1706.00,0.0083
1705.75,0.0082
1705.50,0.0081
1705.25,0.0080
1705.00,0.0078
1704.75,0.0076
1704.50,0.0076
1704.25,0.0077
1704.00,0.0080
1703.75,0.0083
1703.50,0.0085
1703.25,0.0085
1703.00,0.0085
1702.75,0.0084
1702.50,0.0083
1702.25,0.0082
1702.00,0.0081
1701.75,0.0079
1701.50,0.0079
1701.25,0.0080
1701.00,0.0081
1700.75,0.0080
1700.50,0.0076
1700.25,0.0076
1700.00,0.0074
1699.75,0.0079
1699.50,0.0082
1699.25,0.0083
1699.00,0.0084
1698.75,0.0084
1698.50,0.0084
1698.25,0.0084
1698.00,0.0084
1697.75,0.0084
1697.50,0.0084
1697.25,0.0086
1697.00,0.0086
1696.75,0.0086
1696.50,0.0084
1696.25,0.0084
1696.00,0.0086
1695.75,0.0091
1695.50,0.0090
1695.25,0.0089
1695.00,0.0089
1694.75,0.0088
1694.50,0.0088
1694.25,0.0088
1694.00,0.0089
1693.75,0.0090
1693.50,0.0090
1693.25,0.0090
1693.00,0.0090
1692.75,0.0090
1692.50,0.0091
1692.25,0.0092
1692.00,0.0093
1691.75,0.0094
1691.50,0.0093
1691.25,0.0093
1691.00,0.0092
1690.75,0.0091
1690.50,0.0090
1690.25,0.0090
1690.00,0.0090
1689.75,0.0090
1689.50,0.0091
1689.25,0.0092
1689.00,0.0092
1688.75,0.0093
1688.50,0.0093
1688.25,0.0094
1688.00,0.0096
1687.75,0.0096
1687.50,0.0096
1687.25,0.0096
1687.00,0.0095
1686.75,0.0093
1686.50,0.0092
1686.25,0.0092
1686.00,0.0091
1685.75,0.0091
1685.50,0.0090
1685.25,0.0091
1685.00,0.0094
1684.75,0.0101
1684.50,0.0106
1684.25,0.0106
1684.00,0.0103
1683.75,0.0102
1683.50,0.0101
1683.25,0.0099
1683.00,0.0097
1682.75,0.0097
1682.50,0.0096
1682.25,0.0095
1682.00,0.0096
1681.75,0.0097
1681.50,0.0098
1681.25,0.0099
1681.00,0.0099
1680.75,0.0098
1680.50,0.0098
1680.25,0.0099
1680.00,0.0100
1679.75,0.0101
1679.50,0.0101
1679.25,0.0100
1679.00,0.0099
1678.75,0.0099
1678.50,0.0099
1678.25,0.0100
1678.00,0.0102
1677.75,0.0103
1677.50,0.0104
1677.25,0.0104
1677.00,0.0103
1676.75,0.0102
1676.50,0.0101
1676.25,0.0100
1676.00,0.0100
1675.75,0.0099
1675.50,0.0097
1675.25,0.0097
1675.00,0.0098
1674.75,0.0100
1674.50,0.0101
1674.25,0.0101
1674.00,0.0102
1673.75,0.0102
1673.50,0.0102
1673.25,0.0103
1673.00,0.0103
1672.75,0.0104
1672.50,0.0105
1672.25,0.0106
1672.00,0.0107
1671.75,0.0108
1671.50,0.0108
1671.25,0.0109
1671.00,0.0109
1670.75,0.0109
1670.50,0.0109
1670.25,0.0109
1670.00,0.0110
1669.75,0.0111
1669.50,0.0113
1669.25,0.0115
1669.00,0.0117
1668.75,0.0116
1668.50,0.0115
1668.25,0.0114
1668.00,0.0113
1667.75,0.0113
1667.50,0.0113
1667.25,0.0113
1667.00,0.0113
1666.75,0.0113
1666.50,0.0112
1666.25,0.0112
1666.00,0.0112
1665.75,0.0112
1665.50,0.0112
1665.25,0.0112
1665.00,0.0112
1664.75,0.0112
1664.50,0.0112
1664.25,0.0112
1664.00,0.0113
1663.75,0.0115
1663.50,0.0117
1663.25,0.0118
1663.00,0.0119
1662.75,0.0120
1662.50,0.0120
1662.25,0.0120
1662.00,0.0120
1661.75,0.0120
1661.50,0.0120
1661.25,0.0120
1661.00,0.0119
1660.75,0.0118
1660.50,0.0117
1660.25,0.0117
1660.00,0.0117
1659.75,0.0118
1659.50,0.0119
1659.25,0.0120
1659.00,0.0121
1658.75,0.0122
1658.50,0.0123
1658.25,0.0124
1658.00,0.0124
1657.75,0.0124
1657.50,0.0124
1657.25,0.0123
1657.00,0.0122
1656.75,0.0122
1656.50,0.0122
1656.25,0.0122
1656.00,0.0123
1655.75,0.0124
1655.50,0.0124
1655.25,0.0124
1655.00,0.0124
1654.75,0.0123
1654.50,0.0123
1654.25,0.0125
1654.00,0.0126
1653.75,0.0126
1653.50,0.0124
1653.25,0.0120
1653.00,0.0114
1652.75,0.0111
1652.50,0.0109
1652.25,0.0116
1652.00,0.0121
1651.75,0.0123
1651.50,0.0125
1651.25,0.0126
1651.00,0.0126
1650.75,0.0127
1650.50,0.0129
1650.25,0.0130
1650.00,0.0131
1649.75,0.0131
1649.50,0.0132
1649.25,0.0132
1649.00,0.0132
1648.75,0.0131
1648.50,0.0131
1648.25,0.0132
1648.00,0.0133
1647.75,0.0134
1647.50,0.0133
1647.25,0.0131
1647.00,0.0129
1646.75,0.0127
1646.50,0.0127
1646.25,0.0129
1646.00,0.0132
1645.75,0.0132
1645.50,0.0130
1645.25,0.0127
1645.00,0.0125
1644.75,0.0124
1644.50,0.0123
1644.25,0.0123
1644.00,0.0123
1643.75,0.0124
1643.50,0.0125
1643.25,0.0127
1643.00,0.0128
1642.75,0.0129
1642.50,0.0129
1642.25,0.0129
1642.00,0.0128
1641.75,0.0126
1641.50,0.0125
1641.25,0.0125
1641.00,0.0125
1640.75,0.0126
1640.50,0.0126
1640.25,0.0126
1640.00,0.0125
1639.75,0.0124
1639.50,0.0124
1639.25,0.0124
1639.00,0.0124
1638.75,0.0124
1638.50,0.0124
1638.25,0.0123
1638.00,0.0122
1637.75,0.0122
1637.50,0.0123
1637.25,0.0123
1637.00,0.0124
1636.75,0.0123
1636.50,0.0123
1636.25,0.0124
1636.00,0.0128
1635.75,0.0133
1635.50,0.0137
1635.25,0.0132
1635.00,0.0120
1634.75,0.0115
1634.50,0.0115
1634.25,0.0116
1634.00,0.0117
1633.75,0.0118
1633.50,0.0120
1633.25,0.0120
1633.00,0.0121
1632.75,0.0121
1632.50,0.0121
1632.25,0.0120
1632.00,0.0120
1631.75,0.0119
1631.50,0.0119
1631.25,0.0118
1631.00,0.0117
1630.75,0.0117
1630.50,0.0116
1630.25,0.0115
1630.00,0.0115
1629.75,0.0115
1629.50,0.0116
1629.25,0.0118
1629.00,0.0119
1628.75,0.0120
1628.50,0.0121
1628.25,0.0121
1628.00,0.0119
1627.75,0.0116
1627.50,0.0113
1627.25,0.0112
1627.00,0.0113
1626.75,0.0115
1626.50,0.0116
1626.25,0.0117
1626.00,0.0117
1625.75,0.0116
1625.50,0.0116
1625.25,0.0115
1625.00,0.0115
1624.75,0.0115
1624.50,0.0114
1624.25,0.0114
1624.00,0.0114
1623.75,0.0114
1623.50,0.0113
1623.25,0.0112
1623.00,0.0112
1622.75,0.0111
1622.50,0.0112
1622.25,0.0112
1622.00,0.0112
1621.75,0.0112
1621.50,0.0111
1621.25,0.0111
1621.00,0.0111
1620.75,0.0112
1620.50,0.0112
1620.25,0.0112
1620.00,0.0112
1619.75,0.0112
1619.50,0.0111
1619.25,0.0111
1619.00,0.0111
1618.75,0.0111
1618.50,0.0111
1618.25,0.0111
1618.00,0.0110
1617.75,0.0109
1617.50,0.0107
1617.25,0.0106
1617.00,0.0107
1616.75,0.0109
1616.50,0.0109
1616.25,0.0107
1616.00,0.0106
1615.75,0.0106
1615.50,0.0107
1615.25,0.0108
1615.00,0.0110
1614.75,0.0111
1614.50,0.0112
1614.25,0.0112
1614.00,0.0111
1613.75,0.0110
1613.50,0.0110
1613.25,0.0110
1613.00,0.0110
1612.75,0.0110
1612.50,0.0109
1612.25,0.0109
1612.00,0.0109
1611.75,0.0109
1611.50,0.0109
1611.25,0.0109
1611.00,0.0108
1610.75,0.0108
1610.50,0.0108
1610.25,0.0109
1610.00,0.0111
1609.75,0.0112
1609.50,0.0114
1609.25,0.0114
1609.00,0.0113
1608.75,0.0112
1608.50,0.0111
1608.25,0.0110
1608.00,0.0109
1607.75,0.0109
1607.50,0.0110
1607.25,0.0112
1607.00,0.0113
1606.75,0.0114
1606.50,0.0113
1606.25,0.0113
1606.00,0.0111
1605.75,0.0110
1605.50,0.0109
1605.25,0.0108
1605.00,0.0108
1604.75,0.0108
1604.50,0.0108
1604.25,0.0108
1604.00,0.0107
1603.75,0.0106
1603.50,0.0106
1603.25,0.0106
1603.00,0.0107
1602.75,0.0108
1602.50,0.0109
1602.25,0.0109
1602.00,0.0109
1601.75,0.0108
1601.50,0.0107
1601.25,0.0107
1601.00,0.0107
1600.75,0.0108
1600.50,0.0108
1600.25,0.0108
1600.00,0.0108
1599.75,0.0108
1599.50,0.0108
1599.25,0.0108
1599.00,0.0108
1598.75,0.0107
1598.50,0.0107
1598.25,0.0107
1598.00,0.0108
1597.75,0.0109
1597.50,0.0111
1597.25,0.0113
1597.00,0.0114
1596.75,0.0116
1596.50,0.0116
1596.25,0.0116
1596.00,0.0116
1595.75,0.0115
1595.50,0.0113
1595.25,0.0112
1595.00,0.0111
1594.75,0.0110
1594.50,0.0110
1594.25,0.0109
1594.00,0.0109
1593.75,0.0109
1593.50,0.0108
1593.25,0.0108
1593.00,0.0108
1592.75,0.0108
1592.50,0.0107
1592.25,0.0107
1592.00,0.0107
1591.75,0.0107
1591.50,0.0107
1591.25,0.0107
1591.00,0.0108
1590.75,0.0109
1590.50,0.0109
1590.25,0.0109
1590.00,0.0109
1589.75,0.0108
1589.50,0.0107
1589.25,0.0107
1589.00,0.0107
1588.75,0.0108
1588.50,0.0108
1588.25,0.0108
1588.00,0.0108
1587.75,0.0108
1587.50,0.0108
1587.25,0.0108
1587.00,0.0107
1586.75,0.0106
1586.50,0.0106
1586.25,0.0106
1586.00,0.0107
1585.75,0.0108
1585.50,0.0108
1585.25,0.0108
1585.00,0.0108
1584.75,0.0109
1584.50,0.0109
1584.25,0.0110
1584.00,0.0110
1583.75,0.0109
1583.50,0.0108
1583.25,0.0108
1583.00,0.0108
1582.75,0.0109
1582.50,0.0110
1582.25,0.0111
1582.00,0.0111
1581.75,0.0112
1581.50,0.0112
1581.25,0.0112
1581.00,0.0112
1580.75,0.0112
1580.50,0.0111
1580.25,0.0110
1580.00,0.0110
1579.75,0.0110
1579.50,0.0111
1579.25,0.0111
1579.00,0.0111
1578.75,0.0111
1578.50,0.0110
1578.25,0.0109
1578.00,0.0109
1577.75,0.0110
1577.50,0.0110
1577.25,0.0110
1577.00,0.0109
1576.75,0.0106
1576.50,0.0102
1576.25,0.0098
1576.00,0.0095
1575.75,0.0095
1575.50,0.0099
1575.25,0.0102
1575.00,0.0105
1574.75,0.0107
1574.50,0.0108
1574.25,0.0108
1574.00,0.0108
1573.75,0.0109
1573.50,0.0109
1573.25,0.0109
1573.00,0.0110
1572.75,0.0110
1572.50,0.0110
1572.25,0.0110
1572.00,0.0110
1571.75,0.0110
1571.50,0.0110
1571.25,0.0110
1571.00,0.0111
1570.75,0.0111
1570.50,0.0112
1570.25,0.0113
1570.00,0.0113
1569.75,0.0113
1569.50,0.0112
1569.25,0.0110
1569.00,0.0107
1568.75,0.0105
1568.50,0.0104
1568.25,0.0105
1568.00,0.0106
1567.75,0.0107
1567.50,0.0108
1567.25,0.0109
1567.00,0.0109
1566.75,0.0109
1566.50,0.0110
1566.25,0.0111
1566.00,0.0112
1565.75,0.0112
1565.50,0.0112
1565.25,0.0113
1565.00,0.0113
1564.75,0.0113
1564.50,0.0112
1564.25,0.0110
1564.00,0.0108
1563.75,0.0107
1563.50,0.0107
1563.25,0.0107
1563.00,0.0107
1562.75,0.0107
1562.50,0.0107
1562.25,0.0108
1562.00,0.0109
1561.75,0.0109
1561.50,0.0109
1561.25,0.0107
1561.00,0.0104
1560.75,0.0100
1560.50,0.0096
1560.25,0.0090
1560.00,0.0089
1559.75,0.0097
1559.50,0.0104
1559.25,0.0107
1559.00,0.0108
1558.75,0.0109
1558.50,0.0112
1558.25,0.0117
1558.00,0.0120
1557.75,0.0118
1557.50,0.0116
1557.25,0.0114
1557.00,0.0112
1556.75,0.0110
1556.50,0.0109
1556.25,0.0110
1556.00,0.0112
1555.75,0.0114
1555.50,0.0116
1555.25,0.0117
1555.00,0.0116
1554.75,0.0114
1554.50,0.0111
1554.25,0.0110
1554.00,0.0110
1553.75,0.0112
1553.50,0.0114
1553.25,0.0114
1553.00,0.0115
1552.75,0.0115
1552.50,0.0115
1552.25,0.0116
1552.00,0.0117
1551.75,0.0119
1551.50,0.0119
1551.25,0.0119
1551.00,0.0119
1550.75,0.0118
1550.50,0.0116
1550.25,0.0116
1550.00,0.0116
1549.75,0.0117
1549.50,0.0119
1549.25,0.0120
1549.00,0.0121
1548.75,0.0122
1548.50,0.0121
1548.25,0.0120
1548.00,0.0119
1547.75,0.0119
1547.50,0.0118
1547.25,0.0118
1547.00,0.0118
1546.75,0.0118
1546.50,0.0118
1546.25,0.0118
1546.00,0.0118
1545.75,0.0120
1545.50,0.0122
1545.25,0.0123
1545.00,0.0123
1544.75,0.0122
1544.50,0.0121
1544.25,0.0120
1544.00,0.0119
1543.75,0.0118
1543.50,0.0117
1543.25,0.0117
1543.00,0.0117
1542.75,0.0120
1542.50,0.0125
1542.25,0.0132
1542.00,0.0136
1541.75,0.0134
1541.50,0.0129
1541.25,0.0125
1541.00,0.0124
1540.75,0.0124
1540.50,0.0127
1540.25,0.0132
1540.00,0.0135
1539.75,0.0135
1539.50,0.0132
1539.25,0.0128
1539.00,0.0123
1538.75,0.0117
1538.50,0.0113
1538.25,0.0112
1538.00,0.0113
1537.75,0.0114
1537.50,0.0116
1537.25,0.0117
1537.00,0.0118
1536.75,0.0117
1536.50,0.0117
1536.25,0.0116
1536.00,0.0117
1535.75,0.0118
1535.50,0.0119
1535.25,0.0118
1535.00,0.0117
1534.75,0.0115
1534.50,0.0114
1534.25,0.0112
1534.00,0.0111
1533.75,0.0112
1533.50,0.0113
1533.25,0.0113
1533.00,0.0113
1532.75,0.0113
1532.50,0.0112
1532.25,0.0112
1532.00,0.0112
1531.75,0.0111
1531.50,0.0110
1531.25,0.0110
1531.00,0.0110
1530.75,0.0111
1530.50,0.0112
1530.25,0.0112
1530.00,0.0113
1529.75,0.0113
1529.50,0.0112
1529.25,0.0111
1529.00,0.0110
1528.75,0.0109
1528.50,0.0108
1528.25,0.0107
1528.00,0.0107
1527.75,0.0106
1527.50,0.0106
1527.25,0.0105
1527.00,0.0104
1526.75,0.0104
1526.50,0.0105
1526.25,0.0107
1526.00,0.0109
1525.75,0.0111
1525.50,0.0113
1525.25,0.0115
1525.00,0.0115
1524.75,0.0114
1524.50,0.0113
1524.25,0.0111
1524.00,0.0110
1523.75,0.0108
1523.50,0.0107
1523.25,0.0107
1523.00,0.0108
1522.75,0.0109
1522.50,0.0111
1522.25,0.0112
1522.00,0.0113
1521.75,0.0113
1521.50,0.0114
1521.25,0.0115
1521.00,0.0115
1520.75,0.0114
1520.50,0.0113
1520.25,0.0112
1520.00,0.0110
1519.75,0.0108
1519.50,0.0106
1519.25,0.0105
1519.00,0.0104
1518.75,0.0103
1518.50,0.0102
1518.25,0.0101
1518.00,0.0101
1517.75,0.0101
1517.50,0.0103
1517.25,0.0106
1517.00,0.0108
1516.75,0.0108
1516.50,0.0108
1516.25,0.0108
1516.00,0.0108
1515.75,0.0108
1515.50,0.0108
1515.25,0.0108
1515.00,0.0108
1514.75,0.0108
1514.50,0.0108
1514.25,0.0107
1514.00,0.0107
1513.75,0.0107
1513.50,0.0106
1513.25,0.0105
1513.00,0.0104
1512.75,0.0103
1512.50,0.0102
1512.25,0.0102
1512.00,0.0101
1511.75,0.0100
1511.50,0.0099
1511.25,0.0099
1511.00,0.0100
1510.75,0.0101
1510.50,0.0102
1510.25,0.0102
1510.00,0.0102
1509.75,0.0102
1509.50,0.0102
1509.25,0.0101
1509.00,0.0099
1508.75,0.0097
1508.50,0.0094
1508.25,0.0094
1508.00,0.0094
1507.75,0.0094
1507.50,0.0095
1507.25,0.0098
1507.00,0.0105
1506.75,0.0108
1506.50,0.0104
1506.25,0.0098
1506.00,0.0092
1505.75,0.0088
1505.50,0.0087
1505.25,0.0088
1505.00,0.0091
1504.75,0.0093
1504.50,0.0094
1504.25,0.0095
1504.00,0.0095
1503.75,0.0096
1503.50,0.0097
1503.25,0.0098
1503.00,0.0100
1502.75,0.0101
1502.50,0.0100
1502.25,0.0099
1502.00,0.0098
1501.75,0.0097
1501.50,0.0097
1501.25,0.0098
1501.00,0.0099
1500.75,0.0100
1500.50,0.0101
1500.25,0.0101
1500.00,0.0101
1499.75,0.0101
1499.50,0.0102
1499.25,0.0103
1499.00,0.0104
1498.75,0.0103
1498.50,0.0100
1498.25,0.0096
1498.00,0.0093
1497.75,0.0092
1497.50,0.0092
1497.25,0.0092
1497.00,0.0093
1496.75,0.0094
1496.50,0.0096
1496.25,0.0099
1496.00,0.0100
1495.75,0.0099
1495.50,0.0098
1495.25,0.0097
1495.00,0.0097
1494.75,0.0096
1494.50,0.0095
1494.25,0.0094
1494.00,0.0094
1493.75,0.0095
1493.50,0.0097
1493.25,0.0100
1493.00,0.0102
1492.75,0.0102
1492.50,0.0101
1492.25,0.0099
1492.00,0.0097
1491.75,0.0096
1491.50,0.0096
1491.25,0.0096
1491.00,0.0097
1490.75,0.0097
1490.50,0.0095
1490.25,0.0092
1490.00,0.0090
1489.75,0.0090
1489.50,0.0091
1489.25,0.0092
1489.00,0.0093
1488.75,0.0094
1488.50,0.0095
1488.25,0.0096
1488.00,0.0098
1487.75,0.0099
1487.50,0.0100
1487.25,0.0100
1487.00,0.0099
1486.75,0.0098
1486.50,0.0097
1486.25,0.0096
1486.00,0.0095
1485.75,0.0095
1485.50,0.0095
1485.25,0.0095
1485.00,0.0094
1484.75,0.0094
1484.50,0.0094
1484.25,0.0096
1484.00,0.0097
1483.75,0.0098
1483.50,0.0099
1483.25,0.0100
1483.00,0.0100
1482.75,0.0101
1482.50,0.0100
1482.25,0.0099
1482.00,0.0098
1481.75,0.0098
1481.50,0.0098
1481.25,0.0099
1481.00,0.0100
1480.75,0.0100
1480.50,0.0100
1480.25,0.0100
1480.00,0.0100
1479.75,0.0099
1479.50,0.0099
1479.25,0.0099
1479.00,0.0100
1478.75,0.0100
1478.50,0.0101
1478.25,0.0101
1478.00,0.0101
1477.75,0.0101
1477.50,0.0100
1477.25,0.0100
1477.00,0.0100
1476.75,0.0099
1476.50,0.0098
1476.25,0.0097
1476.00,0.0096
1475.75,0.0097
1475.50,0.0098
1475.25,0.0100
1475.00,0.0101
1474.75,0.0102
1474.50,0.0103
1474.25,0.0104
1474.00,0.0104
1473.75,0.0105
1473.50,0.0104
1473.25,0.0102
1473.00,0.0100
1472.75,0.0098
1472.50,0.0097
1472.25,0.0098
1472.00,0.0101
1471.75,0.0104
1471.50,0.0105
1471.25,0.0104
1471.00,0.0103
1470.75,0.0102
1470.50,0.0101
1470.25,0.0102
1470.00,0.0103
1469.75,0.0105
1469.50,0.0106
1469.25,0.0107
1469.00,0.0106
1468.75,0.0105
1468.50,0.0104
1468.25,0.0104
1468.00,0.0104
1467.75,0.0104
1467.50,0.0104
1467.25,0.0104
1467.00,0.0104
1466.75,0.0105
1466.50,0.0105
1466.25,0.0105
1466.00,0.0105
1465.75,0.0106
1465.50,0.0107
1465.25,0.0109
1465.00,0.0111
1464.75,0.0112
1464.50,0.0112
1464.25,0.0111
1464.00,0.0111
1463.75,0.0111
1463.50,0.0111
1463.25,0.0111
1463.00,0.0112
1462.75,0.0111
1462.50,0.0110
1462.25,0.0109
1462.00,0.0109
1461.75,0.0108
1461.50,0.0108
1461.25,0.0108
1461.00,0.0109
1460.75,0.0109
1460.50,0.0109
1460.25,0.0110
1460.00,0.0110
1459.75,0.0109
1459.50,0.0109
1459.25,0.0110
1459.00,0.0111
1458.75,0.0112
1458.50,0.0112
1458.25,0.0112
1458.00,0.0113
1457.75,0.0114
1457.50,0.0115
1457.25,0.0118
1457.00,0.0122
1456.75,0.0124
1456.50,0.0121
1456.25,0.0118
1456.00,0.0117
1455.75,0.0117
1455.50,0.0119
1455.25,0.0121
1455.00,0.0122
1454.75,0.0123
1454.50,0.0122
1454.25,0.0121
1454.00,0.0120
1453.75,0.0119
1453.50,0.0119
1453.25,0.0119
1453.00,0.0120
1452.75,0.0121
1452.50,0.0121
1452.25,0.0121
1452.00,0.0122
1451.75,0.0122
1451.50,0.0122
1451.25,0.0122
1451.00,0.0122
1450.75,0.0122
1450.50,0.0123
1450.25,0.0122
1450.00,0.0122
1449.75,0.0122
1449.50,0.0122
1449.25,0.0123
1449.00,0.0124
1448.75,0.0124
1448.50,0.0124
1448.25,0.0123
1448.00,0.0122
1447.75,0.0121
1447.50,0.0122
1447.25,0.0123
1447.00,0.0124
1446.75,0.0125
1446.50,0.0127
1446.25,0.0129
1446.00,0.0131
1445.75,0.0133
1445.50,0.0134
1445.25,0.0134
1445.00,0.0133
1444.75,0.0132
1444.50,0.0130
1444.25,0.0129
1444.00,0.0129
1443.75,0.0128
1443.50,0.0128
1443.25,0.0128
1443.00,0.0128
1442.75,0.0127
1442.50,0.0127
1442.25,0.0127
1442.00,0.0126
1441.75,0.0125
1441.50,0.0124
1441.25,0.0122
1441.00,0.0121
1440.75,0.0120
1440.50,0.0121
1440.25,0.0122
1440.00,0.0123
1439.75,0.0123
1439.50,0.0124
1439.25,0.0123
1439.00,0.0122
1438.75,0.0121
1438.50,0.0120
1438.25,0.0119
1438.00,0.0119
1437.75,0.0120
1437.50,0.0120
1437.25,0.0122
1437.00,0.0123
1436.75,0.0124
1436.50,0.0124
1436.25,0.0123
1436.00,0.0121
1435.75,0.0120
1435.50,0.0118
1435.25,0.0116
1435.00,0.0114
1434.75,0.0114
1434.50,0.0114
1434.25,0.0115
1434.00,0.0116
1433.75,0.0117
1433.50,0.0118
1433.25,0.0119
1433.00,0.0119
1432.75,0.0118
1432.50,0.0117
1432.25,0.0116
1432.00,0.0115
1431.75,0.0115
1431.50,0.0116
1431.25,0.0117
1431.00,0.0118
1430.75,0.0118
1430.50,0.0118
1430.25,0.0117
1430.00,0.0117
1429.75,0.0117
1429.50,0.0118
1429.25,0.0119
1429.00,0.0120
1428.75,0.0121
1428.50,0.0123
1428.25,0.0124
1428.00,0.0124
1427.75,0.0124
1427.50,0.0124
1427.25,0.0124
1427.00,0.0125
1426.75,0.0125
1426.50,0.0126
1426.25,0.0127
1426.00,0.0128
1425.75,0.0129
1425.50,0.0129
1425.25,0.0128
1425.00,0.0126
1424.75,0.0125
1424.50,0.0125
1424.25,0.0126
1424.00,0.0129
1423.75,0.0132
1423.50,0.0134
1423.25,0.0135
1423.00,0.0136
1422.75,0.0137
1422.50,0.0138
1422.25,0.0138
1422.00,0.0139
1421.75,0.0141
1421.50,0.0143
1421.25,0.0146
1421.00,0.0148
1420.75,0.0149
1420.50,0.0150
1420.25,0.0149
1420.00,0.0148
1419.75,0.0146
1419.50,0.0145
1419.25,0.0148
1419.00,0.0153
1418.75,0.0157
1418.50,0.0159
1418.25,0.0160
1418.00,0.0162
1417.75,0.0163
1417.50,0.0164
1417.25,0.0165
1417.00,0.0166
1416.75,0.0167
1416.50,0.0168
1416.25,0.0170
1416.00,0.0172
1415.75,0.0174
1415.50,0.0176
1415.25,0.0176
1415.00,0.0176
1414.75,0.0176
1414.50,0.0177
1414.25,0.0179
1414.00,0.0181
1413.75,0.0183
1413.50,0.0185
1413.25,0.0185
1413.00,0.0186
1412.75,0.0186
1412.50,0.0186
1412.25,0.0186
1412.00,0.0186
1411.75,0.0186
1411.50,0.0186
1411.25,0.0185
1411.00,0.0184
1410.75,0.0183
1410.50,0.0182
1410.25,0.0182
1410.00,0.0182
1409.75,0.0182
1409.50,0.0182
1409.25,0.0181
1409.00,0.0180
1408.75,0.0179
1408.50,0.0178
1408.25,0.0178
1408.00,0.0178
1407.75,0.0178
1407.50,0.0178
1407.25,0.0177
1407.00,0.0177
1406.75,0.0177
1406.50,0.0177
1406.25,0.0177
1406.00,0.0177
1405.75,0.0177
1405.50,0.0176
1405.25,0.0174
1405.00,0.0172
1404.75,0.0171
1404.50,0.0170
1404.25,0.0171
1404.00,0.0172
1403.75,0.0172
1403.50,0.0171
1403.25,0.0170
1403.00,0.0168
1402.75,0.0167
1402.50,0.0167
1402.25,0.0167
1402.00,0.0168
1401.75,0.0168
1401.50,0.0169
1401.25,0.0169
1401.00,0.0170
1400.75,0.0170
1400.50,0.0169
1400.25,0.0167
1400.00,0.0164
1399.75,0.0161
1399.50,0.0159
1399.25,0.0159
1399.00,0.0159
1398.75,0.0159
1398.50,0.0158
1398.25,0.0157
1398.00,0.0156
1397.75,0.0156
1397.50,0.0155
1397.25,0.0154
1397.00,0.0153
1396.75,0.0153
1396.50,0.0152
1396.25,0.0150
1396.00,0.0149
1395.75,0.0147
1395.50,0.0145
1395.25,0.0144
1395.00,0.0144
1394.75,0.0142
1394.50,0.0140
1394.25,0.0138
1394.00,0.0137
1393.75,0.0136
1393.50,0.0135
1393.25,0.0135
1393.00,0.0134
1392.75,0.0133
1392.50,0.0132
1392.25,0.0131
1392.00,0.0130
1391.75,0.0130
1391.50,0.0130
1391.25,0.0131
1391.00,0.0130
1390.75,0.0129
1390.50,0.0127
1390.25,0.0125
1390.00,0.0124
1389.75,0.0123
1389.50,0.0122
1389.25,0.0122
1389.00,0.0122
1388.75,0.0122
1388.50,0.0123
1388.25,0.0123
1388.00,0.0122
1387.75,0.0122
1387.50,0.0121
1387.25,0.0121
1387.00,0.0122
1386.75,0.0121
1386.50,0.0121
1386.25,0.0120
1386.00,0.0120
1385.75,0.0120
1385.50,0.0120
1385.25,0.0120
1385.00,0.0119
1384.75,0.0118
1384.50,0.0117
1384.25,0.0116
1384.00,0.0115
1383.75,0.0114
1383.50,0.0114
1383.25,0.0115
1383.00,0.0115
1382.75,0.0116
1382.50,0.0116
1382.25,0.0117
1382.00,0.0117
1381.75,0.0116
1381.50,0.0115
1381.25,0.0114
1381.00,0.0114
1380.75,0.0114
1380.50,0.0114
1380.25,0.0114
1380.00,0.0114
1379.75,0.0113
1379.50,0.0113
1379.25,0.0112
1379.00,0.0112
1378.75,0.0112
1378.50,0.0112
1378.25,0.0111
1378.00,0.0111
1377.75,0.0110
1377.50,0.0110
1377.25,0.0111
1377.00,0.0111
1376.75,0.0110
1376.50,0.0109
1376.25,0.0108
1376.00,0.0107
1375.75,0.0107
1375.50,0.0108
1375.25,0.0108
1375.00,0.0109
1374.75,0.0109
1374.50,0.0108
1374.25,0.0108
1374.00,0.0107
1373.75,0.0107
1373.50,0.0107
1373.25,0.0107
1373.00,0.0108
1372.75,0.0109
1372.50,0.0109
1372.25,0.0110
1372.00,0.0110
1371.75,0.0109
1371.50,0.0109
1371.25,0.0108
1371.00,0.0108
1370.75,0.0108
1370.50,0.0109
1370.25,0.0109
1370.00,0.0109
1369.75,0.0109
1369.50,0.0109
1369.25,0.0108
1369.00,0.0108
1368.75,0.0108
1368.50,0.0108
1368.25,0.0108
1368.00,0.0109
1367.75,0.0109
1367.50,0.0109
1367.25,0.0109
1367.00,0.0107
1366.75,0.0105
1366.50,0.0103
1366.25,0.0102
1366.00,0.0102
1365.75,0.0102
1365.50,0.0103
1365.25,0.0104
1365.00,0.0104
1364.75,0.0104
1364.50,0.0104
1364.25,0.0104
1364.00,0.0103
1363.75,0.0102
1363.50,0.0101
1363.25,0.0102
1363.00,0.0103
1362.75,0.0104
1362.50,0.0105
1362.25,0.0105
1362.00,0.0105
1361.75,0.0104
1361.50,0.0103
1361.25,0.0102
1361.00,0.0101
1360.75,0.0102
1360.50,0.0104
1360.25,0.0105
1360.00,0.0105
1359.75,0.0105
1359.50,0.0105
1359.25,0.0105
1359.00,0.0104
1358.75,0.0103
1358.50,0.0102
1358.25,0.0102
1358.00,0.0102
1357.75,0.0102
1357.50,0.0102
1357.25,0.0103
1357.00,0.0104
1356.75,0.0104
1356.50,0.0105
1356.25,0.0104
1356.00,0.0103
1355.75,0.0103
1355.50,0.0103
1355.25,0.0103
1355.00,0.0104
1354.75,0.0104
1354.50,0.0104
1354.25,0.0104
1354.00,0.0104
1353.75,0.0105
1353.50,0.0105
1353.25,0.0104
1353.00,0.0103
1352.75,0.0103
1352.50,0.0103
1352.25,0.0103
1352.00,0.0104
1351.75,0.0104
1351.50,0.0104
1351.25,0.0103
1351.00,0.0101
1350.75,0.0100
1350.50,0.0100
1350.25,0.0100
1350.00,0.0100
1349.75,0.0100
1349.50,0.0101
1349.25,0.0101
1349.00,0.0102
1348.75,0.0103
1348.50,0.0103
1348.25,0.0103
1348.00,0.0102
1347.75,0.0102
1347.50,0.0103
1347.25,0.0104
1347.00,0.0105
1346.75,0.0105
1346.50,0.0106
1346.25,0.0106
1346.00,0.0106
1345.75,0.0105
1345.50,0.0105
1345.25,0.0105
1345.00,0.0105
1344.75,0.0105
1344.50,0.0105
1344.25,0.0105
1344.00,0.0105
1343.75,0.0105
1343.50,0.0104
1343.25,0.0103
1343.00,0.0103
1342.75,0.0103
1342.50,0.0104
1342.25,0.0104
1342.00,0.0103
1341.75,0.0103
1341.50,0.0102
1341.25,0.0102
1341.00,0.0102
1340.75,0.0103
1340.50,0.0104
1340.25,0.0104
1340.00,0.0104
1339.75,0.0103
1339.50,0.0102
1339.25,0.0103
1339.00,0.0103
1338.75,0.0104
1338.50,0.0104
1338.25,0.0103
1338.00,0.0102
1337.75,0.0101
1337.50,0.0100
1337.25,0.0100
1337.00,0.0101
1336.75,0.0102
1336.50,0.0103
1336.25,0.0103
1336.00,0.0103
1335.75,0.0102
1335.50,0.0101
1335.25,0.0101
1335.00,0.0101
1334.75,0.0102
1334.50,0.0102
1334.25,0.0103
1334.00,0.0103
1333.75,0.0104
1333.50,0.0105
1333.25,0.0105
1333.00,0.0105
1332.75,0.0104
1332.50,0.0104
1332.25,0.0104
1332.00,0.0103
1331.75,0.0103
1331.50,0.0102
1331.25,0.0101
1331.00,0.0101
1330.75,0.0102
1330.50,0.0102
1330.25,0.0103
1330.00,0.0103
1329.75,0.0103
1329.50,0.0104
1329.25,0.0104
1329.00,0.0104
1328.75,0.0104
1328.50,0.0104
1328.25,0.0105
1328.00,0.0106
1327.75,0.0107
1327.50,0.0107
1327.25,0.0107
1327.00,0.0107
1326.75,0.0107
1326.50,0.0106
1326.25,0.0105
1326.00,0.0105
1325.75,0.0105
1325.50,0.0106
1325.25,0.0106
1325.00,0.0106
1324.75,0.0106
1324.50,0.0106
1324.25,0.0106
1324.00,0.0106
1323.75,0.0106
1323.50,0.0107
1323.25,0.0108
1323.00,0.0109
1322.75,0.0110
1322.50,0.0110
1322.25,0.0111
1322.00,0.0111
1321.75,0.0110
1321.50,0.0110
1321.25,0.0109
1321.00,0.0109
1320.75,0.0109
1320.50,0.0109
1320.25,0.0109
1320.00,0.0109
1319.75,0.0110
1319.50,0.0110
1319.25,0.0111
1319.00,0.0111
1318.75,0.0111
1318.50,0.0111
1318.25,0.0111
1318.00,0.0113
1317.75,0.0114
1317.50,0.0115
1317.25,0.0115
1317.00,0.0113
1316.75,0.0112
1316.50,0.0111
1316.25,0.0111
1316.00,0.0111
1315.75,0.0112
1315.50,0.0113
1315.25,0.0114
1315.00,0.0115
1314.75,0.0115
1314.50,0.0114
1314.25,0.0114
1314.00,0.0114
1313.75,0.0114
1313.50,0.0115
1313.25,0.0115
1313.00,0.0115
1312.75,0.0114
1312.50,0.0113
1312.25,0.0112
1312.00,0.0111
1311.75,0.0110
1311.50,0.0110
1311.25,0.0111
1311.00,0.0112
1310.75,0.0113
1310.50,0.0114
1310.25,0.0116
1310.00,0.0117
1309.75,0.0118
1309.50,0.0118
1309.25,0.0117
1309.00,0.0116
1308.75,0.0115
1308.50,0.0116
1308.25,0.0117
1308.00,0.0119
1307.75,0.0119
1307.50,0.0120
1307.25,0.0120
1307.00,0.0119
1306.75,0.0119
1306.50,0.0119
1306.25,0.0119
1306.00,0.0119
1305.75,0.0120
1305.50,0.0120
1305.25,0.0121
1305.00,0.0121
1304.75,0.0121
1304.50,0.0120
1304.25,0.0120
1304.00,0.0120
1303.75,0.0121
1303.50,0.0122
1303.25,0.0122
1303.00,0.0122
1302.75,0.0122
1302.50,0.0123
1302.25,0.0123
1302.00,0.0124
1301.75,0.0125
1301.50,0.0126
1301.25,0.0127
1301.00,0.0126
1300.75,0.0125
1300.50,0.0124
1300.25,0.0124
1300.00,0.0124
1299.75,0.0126
1299.50,0.0127
1299.25,0.0128
1299.00,0.0129
1298.75,0.0129
1298.50,0.0129
1298.25,0.0130
1298.00,0.0130
1297.75,0.0131
1297.50,0.0132
1297.25,0.0132
1297.00,0.0132
1296.75,0.0131
1296.50,0.0130
1296.25,0.0130
1296.00,0.0129
1295.75,0.0129
1295.50,0.0129
1295.25,0.0129
1295.00,0.0129
1294.75,0.0130
1294.50,0.0132
1294.25,0.0133
1294.00,0.0134
1293.75,0.0135
1293.50,0.0134
1293.25,0.0134
1293.00,0.0135
1292.75,0.0137
1292.50,0.0138
1292.25,0.0139
1292.00,0.0140
1291.75,0.0139
1291.50,0.0139
1291.25,0.0139
1291.00,0.0139
1290.75,0.0140
1290.50,0.0140
1290.25,0.0141
1290.00,0.0140
1289.75,0.0141
1289.50,0.0141
1289.25,0.0142
1289.00,0.0143
1288.75,0.0143
1288.50,0.0143
1288.25,0.0144
1288.00,0.0145
1287.75,0.0146
1287.50,0.0147
1287.25,0.0148
1287.00,0.0147
1286.75,0.0147
1286.50,0.0147
1286.25,0.0148
1286.00,0.0149
1285.75,0.0152
1285.50,0.0154
1285.25,0.0156
1285.00,0.0157
1284.75,0.0158
1284.50,0.0159
1284.25,0.0159
1284.00,0.0159
1283.75,0.0158
1283.50,0.0158
1283.25,0.0158
1283.00,0.0158
1282.75,0.0158
1282.50,0.0159
1282.25,0.0160
1282.00,0.0162
1281.75,0.0164
1281.50,0.0166
1281.25,0.0168
1281.00,0.0169
1280.75,0.0171
1280.50,0.0172
1280.25,0.0174
1280.00,0.0175
1279.75,0.0176
1279.50,0.0177
1279.25,0.0178
1279.00,0.0181
1278.75,0.0183
1278.50,0.0186
1278.25,0.0189
1278.00,0.0191
1277.75,0.0194
1277.50,0.0196
1277.25,0.0199
1277.00,0.0201
1276.75,0.0204
1276.50,0.0206
1276.25,0.0209
1276.00,0.0211
1275.75,0.0214
1275.50,0.0218
1275.25,0.0222
1275.00,0.0226
1274.75,0.0230
1274.50,0.0233
1274.25,0.0237
1274.00,0.0241
1273.75,0.0246
1273.50,0.0252
1273.25,0.0257
1273.00,0.0263
1272.75,0.0269
1272.50,0.0276
1272.25,0.0283
1272.00,0.0291
1271.75,0.0299
1271.50,0.0308
1271.25,0.0317
1271.00,0.0327
1270.75,0.0337
1270.50,0.0347
1270.25,0.0358
1270.00,0.0370
1269.75,0.0383
1269.50,0.0397
1269.25,0.0411
1269.00,0.0426
1268.75,0.0443
1268.50,0.0462
1268.25,0.0482
1268.00,0.0505
1267.75,0.0528
1267.50,0.0552
1267.25,0.0577
1267.00,0.0604
1266.75,0.0633
1266.50,0.0665
1266.25,0.0700
1266.00,0.0736
1265.75,0.0773
1265.50,0.0810
1265.25,0.0847
1265.00,0.0885
1264.75,0.0924
1264.50,0.0965
1264.25,0.1006
1264.00,0.1049
1263.75,0.1092
1263.50,0.1136
1263.25,0.1179
1263.00,0.1223
1262.75,0.1267
1262.50,0.1309
1262.25,0.1350
1262.00,0.1389
1261.75,0.1426
1261.50,0.1462
1261.25,0.1495
1261.00,0.1527
1260.75,0.1557
1260.50,0.1584
1260.25,0.1609
1260.00,0.1630
1259.75,0.1647
1259.50,0.1660
1259.25,0.1670
1259.00,0.1677
1258.75,0.1681
1258.50,0.1682
1258.25,0.1680
1258.00,0.1675
1257.75,0.1667
1257.50,0.1655
1257.25,0.1640
1257.00,0.1621
1256.75,0.1601
1256.50,0.1580
1256.25,0.1558
1256.00,0.1534
1255.75,0.1509
1255.50,0.1483
1255.25,0.1456
1255.00,0.1429
1254.75,0.1402
1254.50,0.1377
1254.25,0.1351
1254.00,0.1325
1253.75,0.1298
1253.50,0.1271
1253.25,0.1242
1253.00,0.1213
1252.75,0.1183
1252.50,0.1151
1252.25,0.1119
1252.00,0.1085
1251.75,0.1050
1251.50,0.1014
1251.25,0.0979
1251.00,0.0943
1250.75,0.0908
1250.50,0.0873
1250.25,0.0839
1250.00,0.0805
1249.75,0.0772
1249.50,0.0739
1249.25,0.0706
1249.00,0.0675
1248.75,0.0645
1248.50,0.0617
1248.25,0.0590
1248.00,0.0565
1247.75,0.0541
1247.50,0.0519
1247.25,0.0500
1247.00,0.0482
1246.75,0.0465
1246.50,0.0449
1246.25,0.0434
1246.00,0.0420
1245.75,0.0406
1245.50,0.0393
1245.25,0.0381
1245.00,0.0370
1244.75,0.0359
1244.50,0.0349
1244.25,0.0340
1244.00,0.0332
1243.75,0.0324
1243.50,0.0317
1243.25,0.0311
1243.00,0.0304
1242.75,0.0298
1242.50,0.0292
1242.25,0.0286
1242.00,0.0281
1241.75,0.0276
1241.50,0.0272
1241.25,0.0269
1241.00,0.0266
1240.75,0.0263
1240.50,0.0259
1240.25,0.0256
1240.00,0.0252
1239.75,0.0250
1239.50,0.0247
1239.25,0.0245
1239.00,0.0242
1238.75,0.0240
1238.50,0.0237
1238.25,0.0235
1238.00,0.0234
1237.75,0.0233
1237.50,0.0232
1237.25,0.0230
1237.00,0.0229
1236.75,0.0226
1236.50,0.0224
1236.25,0.0222
1236.00,0.0221
1235.75,0.0220
1235.50,0.0219
1235.25,0.0217
1235.00,0.0215
1234.75,0.0213
1234.50,0.0212
1234.25,0.0211
1234.00,0.0209
1233.75,0.0208
1233.50,0.0206
1233.25,0.0205
1233.00,0.0205
1232.75,0.0205
1232.50,0.0205
1232.25,0.0205
1232.00,0.0205
1231.75,0.0205
1231.50,0.0206
1231.25,0.0205
1231.00,0.0204
1230.75,0.0203
1230.50,0.0201
1230.25,0.0201
1230.00,0.0202
1229.75,0.0203
1229.50,0.0204
1229.25,0.0204
1229.00,0.0205
1228.75,0.0205
1228.50,0.0205
1228.25,0.0205
1228.00,0.0205
1227.75,0.0205
1227.50,0.0205
1227.25,0.0204
1227.00,0.0203
1226.75,0.0201
1226.50,0.0201
1226.25,0.0202
1226.00,0.0203
1225.75,0.0204
1225.50,0.0205
1225.25,0.0205
1225.00,0.0206
1224.75,0.0206
1224.50,0.0206
1224.25,0.0206
1224.00,0.0205
1223.75,0.0205
1223.50,0.0206
1223.25,0.0207
1223.00,0.0208
1222.75,0.0210
1222.50,0.0210
1222.25,0.0211
1222.00,0.0211
1221.75,0.0212
1221.50,0.0213
1221.25,0.0214
1221.00,0.0215
1220.75,0.0216
1220.50,0.0217
1220.25,0.0217
1220.00,0.0217
1219.75,0.0217
1219.50,0.0218
1219.25,0.0219
1219.00,0.0221
1218.75,0.0223
1218.50,0.0224
1218.25,0.0226
1218.00,0.0227
1217.75,0.0228
1217.50,0.0229
1217.25,0.0230
1217.00,0.0230
1216.75,0.0230
1216.50,0.0229
1216.25,0.0229
1216.00,0.0229
1215.75,0.0230
1215.50,0.0231
1215.25,0.0233
1215.00,0.0235
1214.75,0.0238
1214.50,0.0240
1214.25,0.0242
1214.00,0.0244
1213.75,0.0245
1213.50,0.0246
1213.25,0.0247
1213.00,0.0247
1212.75,0.0247
1212.50,0.0248
1212.25,0.0250
1212.00,0.0252
1211.75,0.0254
1211.50,0.0256
1211.25,0.0257
1211.00,0.0258
1210.75,0.0259
1210.50,0.0258
1210.25,0.0257
1210.00,0.0257
1209.75,0.0257
1209.50,0.0259
1209.25,0.0262
1209.00,0.0265
1208.75,0.0268
1208.50,0.0270
1208.25,0.0271
1208.00,0.0271
1207.75,0.0270
1207.50,0.0270
1207.25,0.0270
1207.00,0.0272
1206.75,0.0274
1206.50,0.0275
1206.25,0.0276
1206.00,0.0276
1205.75,0.0275
1205.50,0.0275
1205.25,0.0277
1205.00,0.0280
1204.75,0.0283
1204.50,0.0285
1204.25,0.0288
1204.00,0.0291
1203.75,0.0293
1203.50,0.0295
1203.25,0.0296
1203.00,0.0295
1202.75,0.0295
1202.50,0.0294
1202.25,0.0294
1202.00,0.0293
1201.75,0.0293
1201.50,0.0294
1201.25,0.0295
1201.00,0.0297
1200.75,0.0300
1200.50,0.0302
1200.25,0.0303
1200.00,0.0303
1199.75,0.0302
1199.50,0.0301
1199.25,0.0302
1199.00,0.0303
1198.75,0.0305
1198.50,0.0307
1198.25,0.0309
1198.00,0.0310
1197.75,0.0311
1197.50,0.0311
1197.25,0.0310
1197.00,0.0310
1196.75,0.0310
1196.50,0.0311
1196.25,0.0313
1196.00,0.0315
1195.75,0.0316
1195.50,0.0317
1195.25,0.0317
1195.00,0.0318
1194.75,0.0319
1194.50,0.0320
1194.25,0.0320
1194.00,0.0320
1193.75,0.0319
1193.50,0.0318
1193.25,0.0316
1193.00,0.0316
1192.75,0.0317
1192.50,0.0320
1192.25,0.0322
1192.00,0.0324
1191.75,0.0325
1191.50,0.0326
1191.25,0.0326
1191.00,0.0325
1190.75,0.0325
1190.50,0.0325
1190.25,0.0325
1190.00,0.0325
1189.75,0.0326
1189.50,0.0327
1189.25,0.0328
1189.00,0.0328
1188.75,0.0328
1188.50,0.0329
1188.25,0.0329
1188.00,0.0329
1187.75,0.0329
1187.50,0.0330
1187.25,0.0331
1187.00,0.0332
1186.75,0.0334
1186.50,0.0335
1186.25,0.0336
1186.00,0.0337
1185.75,0.0338
1185.50,0.0338
1185.25,0.0338
1185.00,0.0338
1184.75,0.0338
1184.50,0.0339
1184.25,0.0340
1184.00,0.0340
1183.75,0.0339
1183.50,0.0338
1183.25,0.0337
1183.00,0.0336
1182.75,0.0336
1182.50,0.0336
1182.25,0.0336
1182.00,0.0336
1181.75,0.0338
1181.50,0.0339
1181.25,0.0339
1181.00,0.0340
1180.75,0.0340
1180.50,0.0340
1180.25,0.0341
1180.00,0.0341
1179.75,0.0342
1179.50,0.0342
1179.25,0.0341
1179.00,0.0341
1178.75,0.0341
1178.50,0.0341
1178.25,0.0342
1178.00,0.0342
1177.75,0.0342
1177.50,0.0342
1177.25,0.0342
1177.00,0.0342
1176.75,0.0342
1176.50,0.0343
1176.25,0.0344
1176.00,0.0345
1175.75,0.0345
1175.50,0.0345
1175.25,0.0344
1175.00,0.0344
1174.75,0.0346
1174.50,0.0348
1174.25,0.0351
1174.00,0.0353
1173.75,0.0353
1173.50,0.0352
1173.25,0.0350
1173.00,0.0350
1172.75,0.0350
1172.50,0.0351
1172.25,0.0352
1172.00,0.0353
1171.75,0.0352
1171.50,0.0351
1171.25,0.0349
1171.00,0.0348
1170.75,0.0347
1170.50,0.0347
1170.25,0.0349
1170.00,0.0351
1169.75,0.0353
1169.50,0.0355
1169.25,0.0356
1169.00,0.0357
1168.75,0.0358
1168.50,0.0358
1168.25,0.0357
1168.00,0.0356
1167.75,0.0354
1167.50,0.0352
1167.25,0.0351
1167.00,0.0351
1166.75,0.0352
1166.50,0.0353
1166.25,0.0354
1166.00,0.0355
1165.75,0.0357
1165.50,0.0358
1165.25,0.0360
1165.00,0.0360
1164.75,0.0360
1164.50,0.0359
1164.25,0.0358
1164.00,0.0357
1163.75,0.0357
1163.50,0.0357
1163.25,0.0358
1163.00,0.0360
1162.75,0.0360
1162.50,0.0361
1162.25,0.0361
1162.00,0.0362
1161.75,0.0362
1161.50,0.0362
1161.25,0.0363
1161.00,0.0363
1160.75,0.0364
1160.50,0.0365
1160.25,0.0365
1160.00,0.0364
1159.75,0.0362
1159.50,0.0360
1159.25,0.0358
1159.00,0.0357
1158.75,0.0358
1158.50,0.0361
1158.25,0.0365
1158.00,0.0369
1157.75,0.0372
1157.50,0.0374
1157.25,0.0374
1157.00,0.0374
1156.75,0.0373
1156.50,0.0372
1156.25,0.0372
1156.00,0.0373
1155.75,0.0374
1155.50,0.0376
1155.25,0.0377
1155.00,0.0378
1154.75,0.0379
1154.50,0.0380
1154.25,0.0380
1154.00,0.0380
1153.75,0.0380
1153.50,0.0379
1153.25,0.0379
1153.00,0.0379
1152.75,0.0380
1152.50,0.0381
1152.25,0.0383
1152.00,0.0385
1151.75,0.0388
1151.50,0.0390
1151.25,0.0392
1151.00,0.0393
1150.75,0.0394
1150.50,0.0396
1150.25,0.0397
1150.00,0.0399
1149.75,0.0400
1149.50,0.0401
1149.25,0.0401
1149.00,0.0401
1148.75,0.0401
1148.50,0.0401
1148.25,0.0401
1148.00,0.0401
1147.75,0.0402
1147.50,0.0402
1147.25,0.0403
1147.00,0.0404
1146.75,0.0405
1146.50,0.0407
1146.25,0.0409
1146.00,0.0412
1145.75,0.0414
1145.50,0.0416
1145.25,0.0417
1145.00,0.0418
1144.75,0.0418
1144.50,0.0418
1144.25,0.0419
1144.00,0.0421
1143.75,0.0424
1143.50,0.0427
1143.25,0.0429
1143.00,0.0430
1142.75,0.0431
1142.50,0.0433
1142.25,0.0436
1142.00,0.0438
1141.75,0.0441
1141.50,0.0444
1141.25,0.0446
1141.00,0.0448
1140.75,0.0449
1140.50,0.0449
1140.25,0.0450
1140.00,0.0451
1139.75,0.0453
1139.50,0.0456
1139.25,0.0460
1139.00,0.0463
1138.75,0.0465
1138.50,0.0467
1138.25,0.0468
1138.00,0.0469
1137.75,0.0471
1137.50,0.0475
1137.25,0.0479
1137.00,0.0483
1136.75,0.0484
1136.50,0.0485
1136.25,0.0484
1136.00,0.0483
1135.75,0.0484
1135.50,0.0486
1135.25,0.0490
1135.00,0.0495
1134.75,0.0498
1134.50,0.0500
1134.25,0.0500
1134.00,0.0499
1133.75,0.0498
1133.50,0.0498
1133.25,0.0500
1133.00,0.0503
1132.75,0.0507
1132.50,0.0510
1132.25,0.0514
1132.00,0.0517
1131.75,0.0521
1131.50,0.0526
1131.25,0.0530
1131.00,0.0535
1130.75,0.0539
1130.50,0.0543
1130.25,0.0546
1130.00,0.0547
1129.75,0.0548
1129.50,0.0548
1129.25,0.0549
1129.00,0.0551
1128.75,0.0553
1128.50,0.0557
1128.25,0.0563
1128.00,0.0568
1127.75,0.0573
1127.50,0.0577
1127.25,0.0580
1127.00,0.0584
1126.75,0.0588
1126.50,0.0593
1126.25,0.0597
1126.00,0.0601
1125.75,0.0605
1125.50,0.0608
1125.25,0.0612
1125.00,0.0615
1124.75,0.0619
1124.50,0.0623
1124.25,0.0627
1124.00,0.0632
1123.75,0.0638
1123.50,0.0644
1123.25,0.0651
1123.00,0.0659
1122.75,0.0665
1122.50,0.0670
1122.25,0.0675
1122.00,0.0681
1121.75,0.0686
1121.50,0.0692
1121.25,0.0697
1121.00,0.0702
1120.75,0.0707
1120.50,0.0714
1120.25,0.0721
1120.00,0.0729
1119.75,0.0736
1119.50,0.0741
1119.25,0.0744
1119.00,0.0748
1118.75,0.0752
1118.50,0.0759
1118.25,0.0767
1118.00,0.0775
1117.75,0.0783
1117.50,0.0790
1117.25,0.0797
1117.00,0.0805
1116.75,0.0813
1116.50,0.0822
1116.25,0.0831
1116.00,0.0840
1115.75,0.0849
1115.50,0.0858
1115.25,0.0866
1115.00,0.0874
1114.75,0.0881
1114.50,0.0887
1114.25,0.0894
1114.00,0.0903
1113.75,0.0913
1113.50,0.0924
1113.25,0.0935
1113.00,0.0946
1112.75,0.0955
1112.50,0.0964
1112.25,0.0973
1112.00,0.0982
1111.75,0.0991
1111.50,0.1000
1111.25,0.1011
1111.00,0.1021
1110.75,0.1031
1110.50,0.1041
1110.25,0.1051
1110.00,0.1061
1109.75,0.1071
1109.50,0.1081
1109.25,0.1091
1109.00,0.1102
1108.75,0.1113
1108.50,0.1125
1108.25,0.1137
1108.00,0.1149
1107.75,0.1161
1107.50,0.1172
1107.25,0.1182
1107.00,0.1194
1106.75,0.1206
1106.50,0.1219
1106.25,0.1233
1106.00,0.1246
1105.75,0.1259
1105.50,0.1271
1105.25,0.1282
1105.00,0.1294
1104.75,0.1305
1104.50,0.1317
1104.25,0.1329
1104.00,0.1341
1103.75,0.1354
1103.50,0.1367
1103.25,0.1380
1103.00,0.1395
1102.75,0.1409
1102.50,0.1424
1102.25,0.1437
1102.00,0.1449
1101.75,0.1461
1101.50,0.1473
1101.25,0.1486
1101.00,0.1501
1100.75,0.1516
1100.50,0.1533
1100.25,0.1549
1100.00,0.1565
1099.75,0.1579
1099.50,0.1591
1099.25,0.1602
1099.00,0.1612
1098.75,0.1624
1098.50,0.1637
1098.25,0.1652
1098.00,0.1667
1097.75,0.1683
1097.50,0.1698
1097.25,0.1712
1097.00,0.1726
1096.75,0.1738
1096.50,0.1750
1096.25,0.1763
1096.00,0.1777
1095.75,0.1791
1095.50,0.1807
1095.25,0.1824
1095.00,0.1841
1094.75,0.1858
1094.50,0.1874
1094.25,0.1889
1094.00,0.1903
1093.75,0.1915
1093.50,0.1927
1093.25,0.1939
1093.00,0.1952
1092.75,0.1964
1092.50,0.1977
1092.25,0.1990
1092.00,0.2006
1091.75,0.2023
1091.50,0.2038
1091.25,0.2052
1091.00,0.2062
1090.75,0.2072
1090.50,0.2084
1090.25,0.2099
1090.00,0.2115
1089.75,0.2130
1089.50,0.2142
1089.25,0.2151
1089.00,0.2159
1088.75,0.2170
1088.50,0.2185
1088.25,0.2202
1088.00,0.2218
1087.75,0.2233
1087.50,0.2245
1087.25,0.2256
1087.00,0.2266
1086.75,0.2277
1086.50,0.2288
1086.25,0.2300
1086.00,0.2313
1085.75,0.2325
1085.50,0.2335
1085.25,0.2344
1085.00,0.2352
1084.75,0.2360
1084.50,0.2369
1084.25,0.2379
1084.00,0.2388
1083.75,0.2399
1083.50,0.2410
1083.25,0.2421
1083.00,0.2431
1082.75,0.2441
1082.50,0.2450
1082.25,0.2458
1082.00,0.2467
1081.75,0.2474
1081.50,0.2481
1081.25,0.2488
1081.00,0.2496
1080.75,0.2503
1080.50,0.2511
1080.25,0.2519
1080.00,0.2527
1079.75,0.2536
1079.50,0.2544
1079.25,0.2552
1079.00,0.2558
1078.75,0.2564
1078.50,0.2570
1078.25,0.2577
1078.00,0.2583
1077.75,0.2589
1077.50,0.2594
1077.25,0.2599
1077.00,0.2604
1076.75,0.2610
1076.50,0.2615
1076.25,0.2618
1076.00,0.2622
1075.75,0.2627
1075.50,0.2633
1075.25,0.2639
1075.00,0.2645
1074.75,0.2650
1074.50,0.2654
1074.25,0.2657
1074.00,0.2660
1073.75,0.2662
1073.50,0.2664
1073.25,0.2666
1073.00,0.2668
1072.75,0.2670
1072.50,0.2672
1072.25,0.2675
1072.00,0.2678
1071.75,0.2682
1071.50,0.2685
1071.25,0.2687
1071.00,0.2689
1070.75,0.2691
1070.50,0.2695
1070.25,0.2699
1070.00,0.2703
1069.75,0.2705
1069.50,0.2708
1069.25,0.2711
1069.00,0.2714
1068.75,0.2718
1068.50,0.2720
1068.25,0.2721
1068.00,0.2721
1067.75,0.2721
1067.50,0.2723
1067.25,0.2725
1067.00,0.2727
1066.75,0.2729
1066.50,0.2731
1066.25,0.2731
1066.00,0.2732
1065.75,0.2733
1065.50,0.2734
1065.25,0.2734
1065.00,0.2734
1064.75,0.2733
1064.50,0.2732
1064.25,0.2732
1064.00,0.2734
1063.75,0.2738
1063.50,0.2742
1063.25,0.2746
1063.00,0.2747
1062.75,0.2747
1062.50,0.2746
1062.25,0.2745
1062.00,0.2743
1061.75,0.2740
1061.50,0.2737
1061.25,0.2734
1061.00,0.2733
1060.75,0.2735
1060.50,0.2740
1060.25,0.2744
1060.00,0.2747
1059.75,0.2747
1059.50,0.2747
1059.25,0.2747
1059.00,0.2749
1058.75,0.2752
1058.50,0.2755
1058.25,0.2754
1058.00,0.2752
1057.75,0.2748
1057.50,0.2742
1057.25,0.2737
1057.00,0.2732
1056.75,0.2728
1056.50,0.2726
1056.25,0.2725
1056.00,0.2726
1055.75,0.2727
1055.50,0.2728
1055.25,0.2726
1055.00,0.2722
1054.75,0.2717
1054.50,0.2714
1054.25,0.2713
1054.00,0.2714
1053.75,0.2713
1053.50,0.2711
1053.25,0.2708
1053.00,0.2706
1052.75,0.2704
1052.50,0.2703
1052.25,0.2700
1052.00,0.2696
1051.75,0.2690
1051.50,0.2685
1051.25,0.2682
1051.00,0.2680
1050.75,0.2679
1050.50,0.2680
1050.25,0.2680
1050.00,0.2679
1049.75,0.2676
1049.50,0.2671
1049.25,0.2665
1049.00,0.2660
1048.75,0.2657
1048.50,0.2656
1048.25,0.2655
1048.00,0.2653
1047.75,0.2650
1047.50,0.2647
1047.25,0.2646
1047.00,0.2647
1046.75,0.2649
1046.50,0.2651
1046.25,0.2651
1046.00,0.2649
1045.75,0.2646
1045.50,0.2642
1045.25,0.2639
1045.00,0.2637
1044.75,0.2635
1044.50,0.2634
1044.25,0.2634
1044.00,0.2633
1043.75,0.2632
1043.50,0.2631
1043.25,0.2630
1043.00,0.2631
1042.75,0.2632
1042.50,0.2632
1042.25,0.2631
1042.00,0.2628
1041.75,0.2627
1041.50,0.2627
1041.25,0.2629
1041.00,0.2630
1040.75,0.2632
1040.50,0.2633
1040.25,0.2634
1040.00,0.2636
1039.75,0.2639
1039.50,0.2642
1039.25,0.2645
1039.00,0.2646
1038.75,0.2647
1038.50,0.2647
1038.25,0.2648
1038.00,0.2650
1037.75,0.2653
1037.50,0.2657
1037.25,0.2659
1037.00,0.2661
1036.75,0.2664
1036.50,0.2668
1036.25,0.2673
1036.00,0.2679
1035.75,0.2684
1035.50,0.2690
1035.25,0.2696
1035.00,0.2701
1034.75,0.2705
1034.50,0.2706
1034.25,0.2707
1034.00,0.2711
1033.75,0.2717
1033.50,0.2724
1033.25,0.2731
1033.00,0.2735
1032.75,0.2739
1032.50,0.2744
1032.25,0.2751
1032.00,0.2758
1031.75,0.2766
1031.50,0.2773
1031.25,0.2781
1031.00,0.2790
1030.75,0.2799
1030.50,0.2807
1030.25,0.2813
1030.00,0.2819
1029.75,0.2826
1029.50,0.2834
1029.25,0.2845
1029.00,0.2858
1028.75,0.2872
1028.50,0.2884
1028.25,0.2895
1028.00,0.2902
1027.75,0.2908
1027.50,0.2915
1027.25,0.2923
1027.00,0.2933
1026.75,0.2945
1026.50,0.2957
1026.25,0.2969
1026.00,0.2980
1025.75,0.2992
1025.50,0.3004
1025.25,0.3016
1025.00,0.3028
1024.75,0.3039
1024.50,0.3051
1024.25,0.3063
1024.00,0.3075
1023.75,0.3087
1023.50,0.3101
1023.25,0.3117
1023.00,0.3136
1022.75,0.3155
1022.50,0.3171
1022.25,0.3183
1022.00,0.3192
1021.75,0.3202
1021.50,0.3214
1021.25,0.3229
1021.00,0.3247
1020.75,0.3265
1020.50,0.3284
1020.25,0.3302
1020.00,0.3318
1019.75,0.3333
1019.50,0.3345
1019.25,0.3357
1019.00,0.3370
1018.75,0.3385
1018.50,0.3404
1018.25,0.3425
1018.00,0.3446
1017.75,0.3466
1017.50,0.3483
1017.25,0.3498
1017.00,0.3511
1016.75,0.3521
1016.50,0.3530
1016.25,0.3539
1016.00,0.3548
1015.75,0.3558
1015.50,0.3571
1015.25,0.3585
1015.00,0.3597
1014.75,0.3606
1014.50,0.3613
1014.25,0.3618
1014.00,0.3622
1013.75,0.3627
1013.50,0.3631
1013.25,0.3634
1013.00,0.3635
1012.75,0.3633
1012.50,0.3628
1012.25,0.3622
1012.00,0.3614
1011.75,0.3605
1011.50,0.3592
1011.25,0.3577
1011.00,0.3559
1010.75,0.3540
1010.50,0.3521
1010.25,0.3501
1010.00,0.3478
1009.75,0.3452
1009.50,0.3424
1009.25,0.3393
1009.00,0.3362
1008.75,0.3329
1008.50,0.3294
1008.25,0.3257
1008.00,0.3217
1007.75,0.3177
1007.50,0.3135
1007.25,0.3094
1007.00,0.3052
1006.75,0.3009
1006.50,0.2963
1006.25,0.2916
1006.00,0.2867
1005.75,0.2819
1005.50,0.2770
1005.25,0.2721
1005.00,0.2671
1004.75,0.2622
1004.50,0.2574
1004.25,0.2529
1004.00,0.2484
1003.75,0.2438
1003.50,0.2391
1003.25,0.2341
1003.00,0.2291
1002.75,0.2242
1002.50,0.2195
1002.25,0.2150
1002.00,0.2106
1001.75,0.2063
1001.50,0.2020
1001.25,0.1976
1001.00,0.1934
1000.75,0.1892
1000.50,0.1851
1000.25,0.1811
1000.00,0.1772
999.75,0.1734
999.50,0.1696
999.25,0.1659
999.00,0.1623
998.75,0.1587
998.50,0.1553
998.25,0.1519
998.00,0.1486
997.75,0.1454
997.50,0.1424
997.25,0.1395
997.00,0.1369
996.75,0.1344
996.50,0.1319
996.25,0.1294
996.00,0.1267
995.75,0.1241
995.50,0.1214
995.25,0.1188
995.00,0.1164
994.75,0.1142
994.50,0.1122
994.25,0.1102
994.00,0.1082
993.75,0.1062
993.50,0.1040
993.25,0.1020
993.00,0.1001
992.75,0.0984
992.50,0.0967
992.25,0.0951
992.00,0.0933
991.75,0.0915
991.50,0.0897
991.25,0.0880
991.00,0.0865
990.75,0.0852
990.50,0.0838
990.25,0.0824
990.00,0.0809
989.75,0.0795
989.50,0.0782
989.25,0.0772
989.00,0.0762
988.75,0.0751
988.50,0.0738
988.25,0.0726
988.00,0.0713
987.75,0.0701
987.50,0.0691
987.25,0.0681
987.00,0.0671
986.75,0.0662
986.50,0.0653
986.25,0.0644
986.00,0.0635
985.75,0.0627
985.50,0.0619
985.25,0.0610
985.00,0.0602
984.75,0.0594
984.50,0.0587
984.25,0.0581
984.00,0.0575
983.75,0.0567
983.50,0.0559
983.25,0.0551
983.00,0.0543
982.75,0.0536
982.50,0.0528
982.25,0.0520
982.00,0.0512
981.75,0.0505
981.50,0.0498
981.25,0.0493
981.00,0.0488
980.75,0.0484
980.50,0.0479
980.25,0.0475
980.00,0.0470
979.75,0.0463
979.50,0.0456
979.25,0.0449
979.00,0.0444
978.75,0.0442
978.50,0.0440
978.25,0.0439
978.00,0.0437
977.75,0.0433
977.50,0.0428
977.25,0.0421
977.00,0.0414
976.75,0.0408
976.50,0.0402
976.25,0.0398
976.00,0.0395
975.75,0.0392
975.50,0.0388
975.25,0.0384
975.00,0.0381
974.75,0.0378
974.50,0.0375
974.25,0.0372
974.00,0.0369
973.75,0.0365
973.50,0.0362
973.25,0.0358
973.00,0.0354
972.75,0.0351
972.50,0.0348
972.25,0.0346
972.00,0.0344
971.75,0.0342
971.50,0.0342
971.25,0.0342
971.00,0.0342
970.75,0.0340
970.50,0.0337
970.25,0.0335
970.00,0.0333
969.75,0.0332
969.50,0.0330
969.25,0.0327
969.00,0.0324
968.75,0.0320
968.50,0.0317
968.25,0.0314
968.00,0.0312
967.75,0.0311
967.50,0.0311
967.25,0.0311
967.00,0.0310
966.75,0.0308
966.50,0.0305
966.25,0.0302
966.00,0.0299
965.75,0.0298
965.50,0.0296
965.25,0.0295
965.00,0.0294
964.75,0.0292
964.50,0.0290
964.25,0.0287
964.00,0.0285
963.75,0.0283
963.50,0.0281
963.25,0.0279
963.00,0.0279
962.75,0.0278
962.50,0.0279
962.25,0.0279
962.00,0.0278
961.75,0.0277
961.50,0.0275
961.25,0.0274
961.00,0.0273
960.75,0.0273
960.50,0.0273
960.25,0.0274
960.00,0.0273
959.75,0.0272
959.50,0.0271
959.25,0.0270
959.00,0.0269
958.75,0.0268
958.50,0.0266
958.25,0.0265
958.00,0.0263
957.75,0.0262
957.50,0.0260
957.25,0.0259
957.00,0.0258
956.75,0.0258
956.50,0.0259
956.25,0.0260
956.00,0.0260
955.75,0.0259
955.50,0.0258
955.25,0.0257
955.00,0.0258
954.75,0.0259
954.50,0.0259
954.25,0.0257
954.00,0.0255
953.75,0.0252
953.50,0.0251
953.25,0.0251
953.00,0.0251
952.75,0.0249
952.50,0.0246
952.25,0.0241
952.00,0.0236
951.75,0.0233
951.50,0.0230
951.25,0.0227
951.00,0.0225
950.75,0.0223
950.50,0.0223
950.25,0.0224
950.00,0.0226
949.75,0.0229
949.50,0.0230
949.25,0.0230
949.00,0.0229
948.75,0.0227
948.50,0.0225
948.25,0.0224
948.00,0.0224
947.75,0.0224
947.50,0.0224
947.25,0.0222
947.00,0.0220
946.75,0.0219
946.50,0.0218
946.25,0.0218
946.00,0.0219
945.75,0.0219
945.50,0.0219
945.25,0.0219
945.00,0.0218
944.75,0.0217
944.50,0.0216
944.25,0.0214
944.00,0.0212
943.75,0.0210
943.50,0.0208
943.25,0.0208
943.00,0.0209
942.75,0.0211
942.50,0.0213
942.25,0.0214
942.00,0.0214
941.75,0.0212
941.50,0.0210
941.25,0.0209
941.00,0.0208
940.75,0.0209
940.50,0.0210
940.25,0.0211
940.00,0.0210
939.75,0.0208
939.50,0.0207
939.25,0.0206
939.00,0.0206
938.75,0.0207
938.50,0.0207
938.25,0.0207
938.00,0.0206
937.75,0.0206
937.50,0.0205
937.25,0.0205
937.00,0.0205
936.75,0.0204
936.50,0.0203
936.25,0.0202
936.00,0.0201
935.75,0.0200
935.50,0.0199
935.25,0.0200
935.00,0.0201
934.75,0.0203
934.50,0.0206
934.25,0.0209
934.00,0.0210
933.75,0.0210
933.50,0.0210
933.25,0.0210
933.00,0.0212
932.75,0.0214
932.50,0.0215
932.25,0.0215
932.00,0.0215
931.75,0.0214
931.50,0.0214
931.25,0.0214
931.00,0.0215
930.75,0.0217
930.50,0.0219
930.25,0.0221
930.00,0.0221
929.75,0.0222
929.50,0.0223
929.25,0.0224
929.00,0.0225
928.75,0.0225
928.50,0.0223
928.25,0.0222
928.00,0.0222
927.75,0.0224
927.50,0.0225
927.25,0.0226
927.00,0.0227
926.75,0.0228
926.50,0.0230
926.25,0.0231
926.00,0.0232
925.75,0.0232
925.50,0.0231
925.25,0.0230
925.00,0.0231
924.75,0.0234
924.50,0.0236
924.25,0.0237
924.00,0.0236
923.75,0.0233
923.50,0.0232
923.25,0.0231
923.00,0.0234
922.75,0.0237
922.50,0.0242
922.25,0.0246
922.00,0.0249
921.75,0.0251
921.50,0.0252
921.25,0.0253
921.00,0.0254
920.75,0.0255
920.50,0.0256
920.25,0.0257
920.00,0.0258
919.75,0.0261
919.50,0.0265
919.25,0.0269
919.00,0.0273
918.75,0.0276
918.50,0.0277
918.25,0.0279
918.00,0.0281
917.75,0.0284
917.50,0.0287
917.25,0.0290
917.00,0.0292
916.75,0.0294
916.50,0.0295
916.25,0.0297
916.00,0.0300
915.75,0.0302
915.50,0.0304
915.25,0.0306
915.00,0.0308
914.75,0.0310
914.50,0.0313
914.25,0.0316
914.00,0.0319
913.75,0.0322
913.50,0.0325
913.25,0.0327
913.00,0.0328
912.75,0.0330
912.50,0.0332
912.25,0.0333
912.00,0.0333
911.75,0.0331
911.50,0.0328
911.25,0.0326
911.00,0.0324
910.75,0.0324
910.50,0.0324
910.25,0.0325
910.00,0.0327
909.75,0.0329
909.50,0.0330
909.25,0.0330
909.00,0.0327
908.75,0.0323
908.50,0.0320
908.25,0.0318
908.00,0.0318
907.75,0.0318
907.50,0.0319
907.25,0.0319
907.00,0.0318
906.75,0.0316
906.50,0.0314
906.25,0.0312
906.00,0.0309
905.75,0.0306
905.50,0.0303
905.25,0.0300
905.00,0.0299
904.75,0.0299
904.50,0.0300
904.25,0.0301
904.00,0.0302
903.75,0.0302
903.50,0.0302
903.25,0.0302
903.00,0.0301
902.75,0.0301
902.50,0.0301
902.25,0.0302
902.00,0.0303
901.75,0.0304
901.50,0.0305
901.25,0.0306
901.00,0.0306
900.75,0.0306
900.50,0.0307
900.25,0.0308
900.00,0.0308
899.75,0.0308
899.50,0.0307
899.25,0.0306
899.00,0.0305
898.75,0.0306
898.50,0.0307
898.25,0.0309
898.00,0.0311
897.75,0.0314
897.50,0.0317
897.25,0.0320
897.00,0.0321
896.75,0.0321
896.50,0.0321
896.25,0.0321
896.00,0.0321
895.75,0.0322
895.50,0.0324
895.25,0.0328
895.00,0.0333
894.75,0.0338
894.50,0.0341
894.25,0.0342
894.00,0.0343
893.75,0.0343
893.50,0.0345
893.25,0.0347
893.00,0.0350
892.75,0.0352
892.50,0.0353
892.25,0.0354
892.00,0.0356
891.75,0.0359
891.50,0.0362
891.25,0.0365
891.00,0.0367
890.75,0.0368
890.50,0.0368
890.25,0.0369
890.00,0.0371
889.75,0.0373
889.50,0.0376
889.25,0.0380
889.00,0.0384
888.75,0.0390
888.50,0.0396
888.25,0.0400
888.00,0.0404
887.75,0.0407
887.50,0.0409
887.25,0.0412
887.00,0.0415
886.75,0.0417
886.50,0.0421
886.25,0.0425
886.00,0.0429
885.75,0.0434
885.50,0.0439
885.25,0.0444
885.00,0.0448
884.75,0.0451
884.50,0.0456
884.25,0.0462
884.00,0.0469
883.75,0.0477
883.50,0.0484
883.25,0.0489
883.00,0.0493
882.75,0.0496
882.50,0.0500
882.25,0.0504
882.00,0.0508
881.75,0.0514
881.50,0.0519
881.25,0.0524
881.00,0.0528
880.75,0.0533
880.50,0.0538
880.25,0.0546
880.00,0.0554
879.75,0.0564
879.50,0.0574
879.25,0.0584
879.00,0.0594
878.75,0.0602
878.50,0.0609
878.25,0.0615
878.00,0.0621
877.75,0.0628
877.50,0.0635
877.25,0.0643
877.00,0.0652
876.75,0.0662
876.50,0.0673
876.25,0.0683
876.00,0.0692
875.75,0.0700
875.50,0.0709
875.25,0.0720
875.00,0.0730
874.75,0.0741
874.50,0.0750
874.25,0.0758
874.00,0.0765
873.75,0.0773
873.50,0.0784
873.25,0.0797
873.00,0.0810
872.75,0.0823
872.50,0.0835
872.25,0.0846
872.00,0.0857
871.75,0.0868
871.50,0.0880
871.25,0.0895
871.00,0.0911
870.75,0.0927
870.50,0.0941
870.25,0.0953
870.00,0.0965
869.75,0.0976
869.50,0.0987
869.25,0.0998
869.00,0.1008
868.75,0.1017
868.50,0.1026
868.25,0.1035
868.00,0.1044
867.75,0.1053
867.50,0.1062
867.25,0.1069
867.00,0.1075
866.75,0.1080
866.50,0.1084
866.25,0.1087
866.00,0.1089
865.75,0.1093
865.50,0.1099
865.25,0.1105
865.00,0.1110
864.75,0.1111
864.50,0.1108
864.25,0.1102
864.00,0.1097
863.75,0.1095
863.50,0.1095
863.25,0.1097
863.00,0.1100
862.75,0.1101
862.50,0.1100
862.25,0.1097
862.00,0.1092
861.75,0.1086
861.50,0.1078
861.25,0.1070
861.00,0.1063
860.75,0.1059
860.50,0.1057
860.25,0.1057
860.00,0.1055
859.75,0.1051
859.50,0.1045
859.25,0.1037
859.00,0.1029
858.75,0.1023
858.50,0.1020
858.25,0.1020
858.00,0.1020
857.75,0.1021
857.50,0.1020
857.25,0.1016
857.00,0.1011
856.75,0.1006
856.50,0.1003
856.25,0.1002
856.00,0.1004
855.75,0.1008
855.50,0.1014
855.25,0.1019
855.00,0.1022
854.75,0.1023
854.50,0.1022
854.25,0.1021
854.00,0.1022
853.75,0.1025
853.50,0.1031
853.25,0.1038
853.00,0.1045
852.75,0.1052
852.50,0.1059
852.25,0.1066
852.00,0.1074
851.75,0.1084
851.50,0.1094
851.25,0.1105
851.00,0.1117
850.75,0.1128
850.50,0.1138
850.25,0.1147
850.00,0.1155
849.75,0.1163
849.50,0.1171
849.25,0.1180
849.00,0.1191
848.75,0.1205
848.50,0.1219
848.25,0.1233
848.00,0.1244
847.75,0.1253
847.50,0.1262
847.25,0.1274
847.00,0.1287
846.75,0.1300
846.50,0.1311
846.25,0.1319
846.00,0.1326
845.75,0.1332
845.50,0.1339
845.25,0.1345
845.00,0.1349
844.75,0.1352
844.50,0.1356
844.25,0.1360
844.00,0.1364
843.75,0.1367
843.50,0.1366
843.25,0.1363
843.00,0.1359
842.75,0.1354
842.50,0.1350
842.25,0.1347
842.00,0.1346
841.75,0.1347
841.50,0.1347
841.25,0.1347
841.00,0.1343
840.75,0.1337
840.50,0.1328
840.25,0.1317
840.00,0.1306
839.75,0.1295
839.50,0.1284
839.25,0.1272
839.00,0.1261
838.75,0.1249
838.50,0.1238
838.25,0.1228
838.00,0.1217
837.75,0.1206
837.50,0.1193
837.25,0.1179
837.00,0.1166
836.75,0.1155
836.50,0.1147
836.25,0.1141
836.00,0.1135
835.75,0.1126
835.50,0.1115
835.25,0.1103
835.00,0.1090
834.75,0.1080
834.50,0.1072
834.25,0.1066
834.00,0.1061
833.75,0.1055
833.50,0.1050
833.25,0.1045
833.00,0.1043
832.75,0.1042
832.50,0.1043
832.25,0.1045
832.00,0.1048
831.75,0.1051
831.50,0.1052
831.25,0.1052
831.00,0.1051
830.75,0.1049
830.50,0.1047
830.25,0.1048
830.00,0.1052
829.75,0.1059
829.50,0.1069
829.25,0.1078
829.00,0.1087
828.75,0.1092
828.50,0.1096
828.25,0.1100
828.00,0.1105
827.75,0.1113
827.50,0.1124
827.25,0.1137
827.00,0.1151
826.75,0.1163
826.50,0.1177
826.25,0.1194
826.00,0.1213
825.75,0.1234
825.50,0.1253
825.25,0.1270
825.00,0.1287
824.75,0.1306
824.50,0.1326
824.25,0.1348
824.00,0.1369
823.75,0.1388
823.50,0.1406
823.25,0.1422
823.00,0.1439
822.75,0.1457
822.50,0.1480
822.25,0.1505
822.00,0.1532
821.75,0.1557
821.50,0.1579
821.25,0.1597
821.00,0.1614
820.75,0.1629
820.50,0.1644
820.25,0.1660
820.00,0.1676
819.75,0.1691
819.50,0.1704
819.25,0.1718
819.00,0.1732
818.75,0.1746
818.50,0.1761
818.25,0.1776
818.00,0.1790
817.75,0.1803
817.50,0.1815
817.25,0.1825
817.00,0.1837
816.75,0.1850
816.50,0.1867
816.25,0.1885
816.00,0.1904
815.75,0.1921
815.50,0.1936
815.25,0.1947
815.00,0.1955
814.75,0.1960
814.50,0.1966
814.25,0.1975
814.00,0.1986
813.75,0.1998
813.50,0.2009
813.25,0.2019
813.00,0.2029
812.75,0.2042
812.50,0.2059
812.25,0.2081
812.00,0.2105
811.75,0.2128
811.50,0.2148
811.25,0.2167
811.00,0.2185
810.75,0.2205
810.50,0.2227
810.25,0.2251
810.00,0.2273
809.75,0.2294
809.50,0.2316
809.25,0.2340
809.00,0.2366
808.75,0.2395
808.50,0.2425
808.25,0.2455
808.00,0.2486
807.75,0.2516
807.50,0.2546
807.25,0.2576
807.00,0.2605
806.75,0.2633
806.50,0.2662
806.25,0.2694
806.00,0.2730
805.75,0.2770
805.50,0.2811
805.25,0.2851
805.00,0.2889
804.75,0.2926
804.50,0.2964
804.25,0.3004
804.00,0.3044
803.75,0.3087
803.50,0.3130
803.25,0.3175
803.00,0.3218
802.75,0.3259
802.50,0.3298
802.25,0.3336
802.00,0.3376
801.75,0.3418
801.50,0.3460
801.25,0.3500
801.00,0.3540
800.75,0.3581
800.50,0.3625
800.25,0.3672
800.00,0.3718
