Created as New Dataset,Sample 230 By irlear Date Friday, April 24 2009
cm-1,A
4000.00,0.0008
3999.00,0.0008
3998.00,0.0008
3997.00,0.0008
3996.00,0.0009
3995.00,0.0009
3994.00,0.0009
3993.00,0.0008
3992.00,0.0008
3991.00,0.0008
3990.00,0.0008
3989.00,0.0009
3988.00,0.0009
3987.00,0.0009
3986.00,0.0009
3985.00,0.0008
3984.00,0.0008
3983.00,0.0008
3982.00,0.0008
3981.00,0.0008
3980.00,0.0008
3979.00,0.0008
3978.00,0.0008
3977.00,0.0008
3976.00,0.0008
3975.00,0.0008
3974.00,0.0008
3973.00,0.0008
3972.00,0.0008
3971.00,0.0008
3970.00,0.0008
3969.00,0.0008
3968.00,0.0007
3967.00,0.0007
3966.00,0.0007
3965.00,0.0007
3964.00,0.0007
3963.00,0.0007
3962.00,0.0008
3961.00,0.0008
3960.00,0.0008
3959.00,0.0008
3958.00,0.0008
3957.00,0.0008
3956.00,0.0008
3955.00,0.0008
3954.00,0.0008
3953.00,0.0007
3952.00,0.0007
3951.00,0.0007
3950.00,0.0007
3949.00,0.0007
3948.00,0.0007
3947.00,0.0007
3946.00,0.0007
3945.00,0.0007
3944.00,0.0007
3943.00,0.0008
3942.00,0.0008
3941.00,0.0008
3940.00,0.0008
3939.00,0.0008
3938.00,0.0008
3937.00,0.0008
3936.00,0.0008
3935.00,0.0009
3934.00,0.0009
3933.00,0.0009
3932.00,0.0010
3931.00,0.0010
3930.00,0.0009
3929.00,0.0009
3928.00,0.0009
3927.00,0.0009
3926.00,0.0009
3925.00,0.0009
3924.00,0.0009
3923.00,0.0009
3922.00,0.0009
3921.00,0.0008
3920.00,0.0008
3919.00,0.0007
3918.00,0.0007
3917.00,0.0007
3916.00,0.0007
3915.00,0.0007
3914.00,0.0008
3913.00,0.0008
3912.00,0.0008
3911.00,0.0008
3910.00,0.0008
3909.00,0.0008
3908.00,0.0008
3907.00,0.0009
3906.00,0.0009
3905.00,0.0009
3904.00,0.0009
3903.00,0.0009
3902.00,0.0009
3901.00,0.0009
3900.00,0.0009
3899.00,0.0008
3898.00,0.0008
3897.00,0.0008
3896.00,0.0007
3895.00,0.0007
3894.00,0.0007
3893.00,0.0007
3892.00,0.0007
3891.00,0.0007
3890.00,0.0008
3889.00,0.0008
3888.00,0.0008
3887.00,0.0008
3886.00,0.0008
3885.00,0.0008
3884.00,0.0008
3883.00,0.0008
3882.00,0.0008
3881.00,0.0008
3880.00,0.0008
3879.00,0.0009
3878.00,0.0009
3877.00,0.0009
3876.00,0.0009
3875.00,0.0009
3874.00,0.0009
3873.00,0.0009
3872.00,0.0009
3871.00,0.0009
3870.00,0.0009
3869.00,0.0009
3868.00,0.0009
3867.00,0.0009
3866.00,0.0009
3865.00,0.0009
3864.00,0.0009
3863.00,0.0008
3862.00,0.0008
3861.00,0.0008
3860.00,0.0008
3859.00,0.0009
3858.00,0.0009
3857.00,0.0009
3856.00,0.0009
3855.00,0.0008
3854.00,0.0008
3853.00,0.0008
3852.00,0.0008
3851.00,0.0008
3850.00,0.0008
3849.00,0.0007
3848.00,0.0007
3847.00,0.0008
3846.00,0.0008
3845.00,0.0008
3844.00,0.0008
3843.00,0.0008
3842.00,0.0008
3841.00,0.0008
3840.00,0.0008
3839.00,0.0008
3838.00,0.0008
3837.00,0.0008
3836.00,0.0009
3835.00,0.0009
3834.00,0.0009
3833.00,0.0009
3832.00,0.0009
3831.00,0.0009
3830.00,0.0009
3829.00,0.0009
3828.00,0.0009
3827.00,0.0008
3826.00,0.0008
3825.00,0.0009
3824.00,0.0009
3823.00,0.0009
3822.00,0.0009
3821.00,0.0009
3820.00,0.0009
3819.00,0.0010
3818.00,0.0009
3817.00,0.0009
3816.00,0.0008
3815.00,0.0008
3814.00,0.0009
3813.00,0.0009
3812.00,0.0009
3811.00,0.0009
3810.00,0.0009
3809.00,0.0009
3808.00,0.0009
3807.00,0.0008
3806.00,0.0008
3805.00,0.0008
3804.00,0.0008
3803.00,0.0008
3802.00,0.0008
3801.00,0.0008
3800.00,0.0008
3799.00,0.0009
3798.00,0.0009
3797.00,0.0009
3796.00,0.0009
3795.00,0.0009
3794.00,0.0009
3793.00,0.0008
3792.00,0.0008
3791.00,0.0008
3790.00,0.0008
3789.00,0.0009
3788.00,0.0009
3787.00,0.0009
3786.00,0.0009
3785.00,0.0009
3784.00,0.0009
3783.00,0.0009
3782.00,0.0009
3781.00,0.0009
3780.00,0.0009
3779.00,0.0009
3778.00,0.0009
3777.00,0.0009
3776.00,0.0010
3775.00,0.0010
3774.00,0.0010
3773.00,0.0010
3772.00,0.0010
3771.00,0.0009
3770.00,0.0009
3769.00,0.0009
3768.00,0.0010
3767.00,0.0010
3766.00,0.0010
3765.00,0.0010
3764.00,0.0010
3763.00,0.0010
3762.00,0.0010
3761.00,0.0011
3760.00,0.0011
3759.00,0.0011
3758.00,0.0011
3757.00,0.0010
3756.00,0.0010
3755.00,0.0010
3754.00,0.0010
3753.00,0.0010
3752.00,0.0009
3751.00,0.0009
3750.00,0.0009
3749.00,0.0009
3748.00,0.0010
3747.00,0.0010
3746.00,0.0009
3745.00,0.0009
3744.00,0.0009
3743.00,0.0010
3742.00,0.0010
3741.00,0.0009
3740.00,0.0009
3739.00,0.0008
3738.00,0.0008
3737.00,0.0008
3736.00,0.0008
3735.00,0.0008
3734.00,0.0008
3733.00,0.0008
3732.00,0.0009
3731.00,0.0009
3730.00,0.0010
3729.00,0.0010
3728.00,0.0011
3727.00,0.0010
3726.00,0.0010
3725.00,0.0009
3724.00,0.0009
3723.00,0.0009
3722.00,0.0008
3721.00,0.0009
3720.00,0.0009
3719.00,0.0010
3718.00,0.0011
3717.00,0.0011
3716.00,0.0012
3715.00,0.0012
3714.00,0.0012
3713.00,0.0012
3712.00,0.0011
3711.00,0.0011
3710.00,0.0011
3709.00,0.0012
3708.00,0.0012
3707.00,0.0012
3706.00,0.0012
3705.00,0.0012
3704.00,0.0011
3703.00,0.0011
3702.00,0.0010
3701.00,0.0010
3700.00,0.0011
3699.00,0.0011
3698.00,0.0011
3697.00,0.0011
3696.00,0.0010
3695.00,0.0010
3694.00,0.0010
3693.00,0.0010
3692.00,0.0009
3691.00,0.0009
3690.00,0.0009
3689.00,0.0009
3688.00,0.0009
3687.00,0.0009
3686.00,0.0009
3685.00,0.0009
3684.00,0.0009
3683.00,0.0009
3682.00,0.0009
3681.00,0.0009
3680.00,0.0010
3679.00,0.0010
3678.00,0.0010
3677.00,0.0011
3676.00,0.0011
3675.00,0.0011
3674.00,0.0011
3673.00,0.0011
3672.00,0.0011
3671.00,0.0010
3670.00,0.0010
3669.00,0.0010
3668.00,0.0010
3667.00,0.0010
3666.00,0.0010
3665.00,0.0010
3664.00,0.0010
3663.00,0.0010
3662.00,0.0010
3661.00,0.0010
3660.00,0.0010
3659.00,0.0010
3658.00,0.0011
3657.00,0.0011
3656.00,0.0012
3655.00,0.0013
3654.00,0.0013
3653.00,0.0013
3652.00,0.0013
3651.00,0.0012
3650.00,0.0012
3649.00,0.0012
3648.00,0.0011
3647.00,0.0011
3646.00,0.0011
3645.00,0.0011
3644.00,0.0011
3643.00,0.0011
3642.00,0.0011
3641.00,0.0012
3640.00,0.0012
3639.00,0.0013
3638.00,0.0013
3637.00,0.0013
3636.00,0.0012
3635.00,0.0012
3634.00,0.0011
3633.00,0.0011
3632.00,0.0012
3631.00,0.0012
3630.00,0.0012
3629.00,0.0012
3628.00,0.0011
3627.00,0.0011
3626.00,0.0010
3625.00,0.0010
3624.00,0.0010
3623.00,0.0011
3622.00,0.0011
3621.00,0.0011
3620.00,0.0012
3619.00,0.0012
3618.00,0.0012
3617.00,0.0012
3616.00,0.0012
3615.00,0.0012
3614.00,0.0011
3613.00,0.0011
3612.00,0.0012
3611.00,0.0012
3610.00,0.0012
3609.00,0.0012
3608.00,0.0012
3607.00,0.0011
3606.00,0.0011
3605.00,0.0010
3604.00,0.0010
3603.00,0.0010
3602.00,0.0010
3601.00,0.0010
3600.00,0.0010
3599.00,0.0010
3598.00,0.0010
3597.00,0.0010
3596.00,0.0010
3595.00,0.0011
3594.00,0.0011
3593.00,0.0010
3592.00,0.0010
3591.00,0.0010
3590.00,0.0010
3589.00,0.0010
3588.00,0.0010
3587.00,0.0011
3586.00,0.0011
3585.00,0.0011
3584.00,0.0012
3583.00,0.0012
3582.00,0.0012
3581.00,0.0011
3580.00,0.0011
3579.00,0.0011
3578.00,0.0011
3577.00,0.0011
3576.00,0.0010
3575.00,0.0010
3574.00,0.0010
3573.00,0.0011
3572.00,0.0011
3571.00,0.0012
3570.00,0.0012
3569.00,0.0012
3568.00,0.0011
3567.00,0.0011
3566.00,0.0011
3565.00,0.0011
3564.00,0.0011
3563.00,0.0011
3562.00,0.0011
3561.00,0.0011
3560.00,0.0011
3559.00,0.0011
3558.00,0.0011
3557.00,0.0011
3556.00,0.0010
3555.00,0.0010
3554.00,0.0010
3553.00,0.0010
3552.00,0.0010
3551.00,0.0010
3550.00,0.0010
3549.00,0.0011
3548.00,0.0011
3547.00,0.0012
3546.00,0.0011
3545.00,0.0011
3544.00,0.0010
3543.00,0.0009
3542.00,0.0009
3541.00,0.0010
3540.00,0.0010
3539.00,0.0011
3538.00,0.0011
3537.00,0.0011
3536.00,0.0011
3535.00,0.0011
3534.00,0.0011
3533.00,0.0011
3532.00,0.0011
3531.00,0.0011
3530.00,0.0011
3529.00,0.0011
3528.00,0.0011
3527.00,0.0011
3526.00,0.0011
3525.00,0.0011
3524.00,0.0010
3523.00,0.0010
3522.00,0.0009
3521.00,0.0008
3520.00,0.0008
3519.00,0.0008
3518.00,0.0009
3517.00,0.0009
3516.00,0.0010
3515.00,0.0010
3514.00,0.0010
3513.00,0.0011
3512.00,0.0011
3511.00,0.0011
3510.00,0.0012
3509.00,0.0011
3508.00,0.0011
3507.00,0.0011
3506.00,0.0011
3505.00,0.0010
3504.00,0.0010
3503.00,0.0010
3502.00,0.0009
3501.00,0.0009
3500.00,0.0009
3499.00,0.0009
3498.00,0.0009
3497.00,0.0009
3496.00,0.0009
3495.00,0.0009
3494.00,0.0009
3493.00,0.0010
3492.00,0.0010
3491.00,0.0010
3490.00,0.0009
3489.00,0.0009
3488.00,0.0009
3487.00,0.0010
3486.00,0.0010
3485.00,0.0010
3484.00,0.0010
3483.00,0.0010
3482.00,0.0009
3481.00,0.0009
3480.00,0.0009
3479.00,0.0009
3478.00,0.0009
3477.00,0.0009
3476.00,0.0010
3475.00,0.0010
3474.00,0.0010
3473.00,0.0010
3472.00,0.0010
3471.00,0.0010
3470.00,0.0009
3469.00,0.0009
3468.00,0.0009
3467.00,0.0009
3466.00,0.0009
3465.00,0.0009
3464.00,0.0009
3463.00,0.0009
3462.00,0.0009
3461.00,0.0009
3460.00,0.0009
3459.00,0.0009
3458.00,0.0010
3457.00,0.0010
3456.00,0.0010
3455.00,0.0010
3454.00,0.0010
3453.00,0.0010
3452.00,0.0009
3451.00,0.0009
3450.00,0.0009
3449.00,0.0009
3448.00,0.0009
3447.00,0.0009
3446.00,0.0009
3445.00,0.0009
3444.00,0.0009
3443.00,0.0009
3442.00,0.0009
3441.00,0.0009
3440.00,0.0009
3439.00,0.0009
3438.00,0.0009
3437.00,0.0009
3436.00,0.0009
3435.00,0.0009
3434.00,0.0009
3433.00,0.0009
3432.00,0.0009
3431.00,0.0008
3430.00,0.0008
3429.00,0.0008
3428.00,0.0008
3427.00,0.0008
3426.00,0.0009
3425.00,0.0009
3424.00,0.0009
3423.00,0.0009
3422.00,0.0008
3421.00,0.0008
3420.00,0.0008
3419.00,0.0008
3418.00,0.0008
3417.00,0.0009
3416.00,0.0009
3415.00,0.0010
3414.00,0.0010
3413.00,0.0010
3412.00,0.0010
3411.00,0.0010
3410.00,0.0010
3409.00,0.0010
3408.00,0.0010
3407.00,0.0010
3406.00,0.0010
3405.00,0.0009
3404.00,0.0009
3403.00,0.0008
3402.00,0.0009
3401.00,0.0009
3400.00,0.0009
3399.00,0.0009
3398.00,0.0009
3397.00,0.0009
3396.00,0.0009
3395.00,0.0009
3394.00,0.0009
3393.00,0.0009
3392.00,0.0009
3391.00,0.0009
3390.00,0.0009
3389.00,0.0009
3388.00,0.0009
3387.00,0.0008
3386.00,0.0008
3385.00,0.0008
3384.00,0.0008
3383.00,0.0008
3382.00,0.0008
3381.00,0.0009
3380.00,0.0009
3379.00,0.0009
3378.00,0.0009
3377.00,0.0009
3376.00,0.0009
3375.00,0.0009
3374.00,0.0008
3373.00,0.0008
3372.00,0.0008
3371.00,0.0008
3370.00,0.0008
3369.00,0.0008
3368.00,0.0009
3367.00,0.0009
3366.00,0.0009
3365.00,0.0009
3364.00,0.0009
3363.00,0.0009
3362.00,0.0009
3361.00,0.0008
3360.00,0.0008
3359.00,0.0008
3358.00,0.0008
3357.00,0.0008
3356.00,0.0009
3355.00,0.0009
3354.00,0.0009
3353.00,0.0010
3352.00,0.0010
3351.00,0.0010
3350.00,0.0010
3349.00,0.0009
3348.00,0.0009
3347.00,0.0009
3346.00,0.0008
3345.00,0.0008
3344.00,0.0008
3343.00,0.0008
3342.00,0.0008
3341.00,0.0008
3340.00,0.0009
3339.00,0.0009
3338.00,0.0009
3337.00,0.0009
3336.00,0.0009
3335.00,0.0009
3334.00,0.0010
3333.00,0.0010
3332.00,0.0010
3331.00,0.0009
3330.00,0.0008
3329.00,0.0008
3328.00,0.0008
3327.00,0.0009
3326.00,0.0009
3325.00,0.0009
3324.00,0.0009
3323.00,0.0008
3322.00,0.0008
3321.00,0.0008
3320.00,0.0008
3319.00,0.0008
3318.00,0.0009
3317.00,0.0009
3316.00,0.0009
3315.00,0.0009
3314.00,0.0009
3313.00,0.0009
3312.00,0.0009
3311.00,0.0008
3310.00,0.0008
3309.00,0.0008
3308.00,0.0008
3307.00,0.0008
3306.00,0.0009
3305.00,0.0009
3304.00,0.0009
3303.00,0.0009
3302.00,0.0009
3301.00,0.0009
3300.00,0.0009
3299.00,0.0009
3298.00,0.0008
3297.00,0.0008
3296.00,0.0007
3295.00,0.0007
3294.00,0.0007
3293.00,0.0007
3292.00,0.0007
3291.00,0.0007
3290.00,0.0007
3289.00,0.0008
3288.00,0.0008
3287.00,0.0008
3286.00,0.0009
3285.00,0.0009
3284.00,0.0009
3283.00,0.0009
3282.00,0.0009
3281.00,0.0008
3280.00,0.0008
3279.00,0.0008
3278.00,0.0008
3277.00,0.0009
3276.00,0.0009
3275.00,0.0009
3274.00,0.0009
3273.00,0.0008
3272.00,0.0008
3271.00,0.0008
3270.00,0.0008
3269.00,0.0009
3268.00,0.0009
3267.00,0.0009
3266.00,0.0008
3265.00,0.0008
3264.00,0.0008
3263.00,0.0008
3262.00,0.0008
3261.00,0.0008
3260.00,0.0009
3259.00,0.0008
3258.00,0.0008
3257.00,0.0008
3256.00,0.0008
3255.00,0.0008
3254.00,0.0009
3253.00,0.0009
3252.00,0.0009
3251.00,0.0009
3250.00,0.0009
3249.00,0.0009
3248.00,0.0009
3247.00,0.0009
3246.00,0.0009
3245.00,0.0009
3244.00,0.0009
3243.00,0.0009
3242.00,0.0009
3241.00,0.0008
3240.00,0.0008
3239.00,0.0008
3238.00,0.0008
3237.00,0.0008
3236.00,0.0007
3235.00,0.0007
3234.00,0.0008
3233.00,0.0008
3232.00,0.0008
3231.00,0.0009
3230.00,0.0009
3229.00,0.0010
3228.00,0.0010
3227.00,0.0010
3226.00,0.0009
3225.00,0.0009
3224.00,0.0009
3223.00,0.0009
3222.00,0.0009
3221.00,0.0009
3220.00,0.0009
3219.00,0.0009
3218.00,0.0009
3217.00,0.0008
3216.00,0.0008
3215.00,0.0008
3214.00,0.0009
3213.00,0.0009
3212.00,0.0009
3211.00,0.0009
3210.00,0.0009
3209.00,0.0009
3208.00,0.0009
3207.00,0.0009
3206.00,0.0009
3205.00,0.0009
3204.00,0.0009
3203.00,0.0009
3202.00,0.0009
3201.00,0.0009
3200.00,0.0009
3199.00,0.0010
3198.00,0.0010
3197.00,0.0010
3196.00,0.0010
3195.00,0.0010
3194.00,0.0009
3193.00,0.0009
3192.00,0.0009
3191.00,0.0009
3190.00,0.0009
3189.00,0.0008
3188.00,0.0008
3187.00,0.0009
3186.00,0.0009
3185.00,0.0009
3184.00,0.0009
3183.00,0.0009
3182.00,0.0009
3181.00,0.0009
3180.00,0.0009
3179.00,0.0008
3178.00,0.0008
3177.00,0.0008
3176.00,0.0009
3175.00,0.0009
3174.00,0.0009
3173.00,0.0009
3172.00,0.0009
3171.00,0.0009
3170.00,0.0009
3169.00,0.0009
3168.00,0.0009
3167.00,0.0009
3166.00,0.0010
3165.00,0.0010
3164.00,0.0010
3163.00,0.0009
3162.00,0.0009
3161.00,0.0009
3160.00,0.0009
3159.00,0.0009
3158.00,0.0009
3157.00,0.0010
3156.00,0.0010
3155.00,0.0010
3154.00,0.0010
3153.00,0.0010
3152.00,0.0010
3151.00,0.0010
3150.00,0.0010
3149.00,0.0009
3148.00,0.0009
3147.00,0.0009
3146.00,0.0009
3145.00,0.0009
3144.00,0.0009
3143.00,0.0010
3142.00,0.0010
3141.00,0.0010
3140.00,0.0010
3139.00,0.0010
3138.00,0.0010
3137.00,0.0010
3136.00,0.0011
3135.00,0.0011
3134.00,0.0011
3133.00,0.0011
3132.00,0.0011
3131.00,0.0011
3130.00,0.0010
3129.00,0.0010
3128.00,0.0010
3127.00,0.0010
3126.00,0.0010
3125.00,0.0011
3124.00,0.0011
3123.00,0.0011
3122.00,0.0011
3121.00,0.0011
3120.00,0.0011
3119.00,0.0011
3118.00,0.0011
3117.00,0.0011
3116.00,0.0011
3115.00,0.0011
3114.00,0.0012
3113.00,0.0012
3112.00,0.0012
3111.00,0.0012
3110.00,0.0012
3109.00,0.0012
3108.00,0.0012
3107.00,0.0012
3106.00,0.0013
3105.00,0.0013
3104.00,0.0013
3103.00,0.0012
3102.00,0.0012
3101.00,0.0012
3100.00,0.0012
3099.00,0.0012
3098.00,0.0012
3097.00,0.0011
3096.00,0.0011
3095.00,0.0011
3094.00,0.0011
3093.00,0.0011
3092.00,0.0011
3091.00,0.0011
3090.00,0.0011
3089.00,0.0011
3088.00,0.0011
3087.00,0.0011
3086.00,0.0011
3085.00,0.0012
3084.00,0.0012
3083.00,0.0012
3082.00,0.0012
3081.00,0.0012
3080.00,0.0012
3079.00,0.0012
3078.00,0.0012
3077.00,0.0011
3076.00,0.0011
3075.00,0.0011
3074.00,0.0012
3073.00,0.0012
3072.00,0.0012
3071.00,0.0012
3070.00,0.0012
3069.00,0.0012
3068.00,0.0012
3067.00,0.0012
3066.00,0.0012
3065.00,0.0012
3064.00,0.0012
3063.00,0.0012
3062.00,0.0012
3061.00,0.0013
3060.00,0.0013
3059.00,0.0014
3058.00,0.0014
3057.00,0.0014
3056.00,0.0014
3055.00,0.0014
3054.00,0.0014
3053.00,0.0014
3052.00,0.0014
3051.00,0.0013
3050.00,0.0013
3049.00,0.0013
3048.00,0.0013
3047.00,0.0012
3046.00,0.0012
3045.00,0.0012
3044.00,0.0011
3043.00,0.0011
3042.00,0.0011
3041.00,0.0011
3040.00,0.0011
3039.00,0.0011
3038.00,0.0012
3037.00,0.0012
3036.00,0.0012
3035.00,0.0013
3034.00,0.0013
3033.00,0.0013
3032.00,0.0013
3031.00,0.0013
3030.00,0.0013
3029.00,0.0013
3028.00,0.0013
3027.00,0.0013
3026.00,0.0012
3025.00,0.0012
3024.00,0.0012
3023.00,0.0012
3022.00,0.0013
3021.00,0.0013
3020.00,0.0014
3019.00,0.0014
3018.00,0.0015
3017.00,0.0015
3016.00,0.0014
3015.00,0.0014
3014.00,0.0014
3013.00,0.0014
3012.00,0.0014
3011.00,0.0014
3010.00,0.0014
3009.00,0.0015
3008.00,0.0015
3007.00,0.0016
3006.00,0.0016
3005.00,0.0016
3004.00,0.0016
3003.00,0.0016
3002.00,0.0016
3001.00,0.0017
3000.00,0.0017
2999.00,0.0017
2998.00,0.0017
2997.00,0.0017
2996.00,0.0017
2995.00,0.0018
2994.00,0.0019
2993.00,0.0020
2992.00,0.0021
2991.00,0.0022
2990.00,0.0023
2989.00,0.0024
2988.00,0.0025
2987.00,0.0026
2986.00,0.0028
2985.00,0.0030
2984.00,0.0032
2983.00,0.0034
2982.00,0.0037
2981.00,0.0040
2980.00,0.0044
2979.00,0.0048
2978.00,0.0053
2977.00,0.0059
2976.00,0.0066
2975.00,0.0074
2974.00,0.0082
2973.00,0.0092
2972.00,0.0103
2971.00,0.0115
2970.00,0.0128
2969.00,0.0141
2968.00,0.0155
2967.00,0.0168
2966.00,0.0180
2965.00,0.0190
2964.00,0.0196
2963.00,0.0200
2962.00,0.0199
2961.00,0.0195
2960.00,0.0187
2959.00,0.0176
2958.00,0.0163
2957.00,0.0148
2956.00,0.0134
2955.00,0.0120
2954.00,0.0108
2953.00,0.0096
2952.00,0.0086
2951.00,0.0078
2950.00,0.0070
2949.00,0.0063
2948.00,0.0057
2947.00,0.0052
2946.00,0.0047
2945.00,0.0043
2944.00,0.0040
2943.00,0.0038
2942.00,0.0036
2941.00,0.0034
2940.00,0.0032
2939.00,0.0031
2938.00,0.0029
2937.00,0.0028
2936.00,0.0027
2935.00,0.0026
2934.00,0.0025
2933.00,0.0024
2932.00,0.0024
2931.00,0.0023
2930.00,0.0023
2929.00,0.0022
2928.00,0.0022
2927.00,0.0021
2926.00,0.0021
2925.00,0.0020
2924.00,0.0020
2923.00,0.0020
2922.00,0.0021
2921.00,0.0021
2920.00,0.0022
2919.00,0.0022
2918.00,0.0023
2917.00,0.0024
2916.00,0.0025
2915.00,0.0026
2914.00,0.0027
2913.00,0.0028
2912.00,0.0030
2911.00,0.0031
2910.00,0.0033
2909.00,0.0034
2908.00,0.0036
2907.00,0.0037
2906.00,0.0037
2905.00,0.0037
2904.00,0.0037
2903.00,0.0036
2902.00,0.0035
2901.00,0.0034
2900.00,0.0033
2899.00,0.0032
2898.00,0.0030
2897.00,0.0029
2896.00,0.0028
2895.00,0.0027
2894.00,0.0026
2893.00,0.0024
2892.00,0.0024
2891.00,0.0023
2890.00,0.0022
2889.00,0.0021
2888.00,0.0021
2887.00,0.0020
2886.00,0.0019
2885.00,0.0019
2884.00,0.0018
2883.00,0.0018
2882.00,0.0018
2881.00,0.0018
2880.00,0.0018
2879.00,0.0017
2878.00,0.0017
2877.00,0.0016
2876.00,0.0016
2875.00,0.0015
2874.00,0.0015
2873.00,0.0015
2872.00,0.0015
2871.00,0.0014
2870.00,0.0014
2869.00,0.0014
2868.00,0.0013
2867.00,0.0013
2866.00,0.0013
2865.00,0.0013
2864.00,0.0013
2863.00,0.0013
2862.00,0.0013
2861.00,0.0014
2860.00,0.0014
2859.00,0.0014
2858.00,0.0014
2857.00,0.0013
2856.00,0.0013
2855.00,0.0013
2854.00,0.0013
2853.00,0.0012
2852.00,0.0012
2851.00,0.0012
2850.00,0.0012
2849.00,0.0012
2848.00,0.0012
2847.00,0.0012
2846.00,0.0012
2845.00,0.0012
2844.00,0.0013
2843.00,0.0013
2842.00,0.0013
2841.00,0.0013
2840.00,0.0013
2839.00,0.0013
2838.00,0.0013
2837.00,0.0013
2836.00,0.0012
2835.00,0.0012
2834.00,0.0012
2833.00,0.0012
2832.00,0.0013
2831.00,0.0013
2830.00,0.0014
2829.00,0.0014
2828.00,0.0014
2827.00,0.0013
2826.00,0.0013
2825.00,0.0013
2824.00,0.0013
2823.00,0.0013
2822.00,0.0013
2821.00,0.0013
2820.00,0.0014
2819.00,0.0014
2818.00,0.0014
2817.00,0.0014
2816.00,0.0013
2815.00,0.0013
2814.00,0.0012
2813.00,0.0012
2812.00,0.0012
2811.00,0.0011
2810.00,0.0012
2809.00,0.0012
2808.00,0.0012
2807.00,0.0013
2806.00,0.0013
2805.00,0.0013
2804.00,0.0013
2803.00,0.0013
2802.00,0.0013
2801.00,0.0013
2800.00,0.0013
2799.00,0.0013
2798.00,0.0013
2797.00,0.0013
2796.00,0.0013
2795.00,0.0013
2794.00,0.0013
2793.00,0.0013
2792.00,0.0013
2791.00,0.0013
2790.00,0.0013
2789.00,0.0012
2788.00,0.0012
2787.00,0.0011
2786.00,0.0011
2785.00,0.0011
2784.00,0.0011
2783.00,0.0011
2782.00,0.0010
2781.00,0.0010
2780.00,0.0010
2779.00,0.0010
2778.00,0.0010
2777.00,0.0010
2776.00,0.0010
2775.00,0.0009
2774.00,0.0009
2773.00,0.0009
2772.00,0.0009
2771.00,0.0010
2770.00,0.0010
2769.00,0.0010
2768.00,0.0010
2767.00,0.0009
2766.00,0.0009
2765.00,0.0009
2764.00,0.0009
2763.00,0.0009
2762.00,0.0010
2761.00,0.0010
2760.00,0.0010
2759.00,0.0010
2758.00,0.0010
2757.00,0.0010
2756.00,0.0009
2755.00,0.0009
2754.00,0.0009
2753.00,0.0009
2752.00,0.0009
2751.00,0.0009
2750.00,0.0009
2749.00,0.0009
2748.00,0.0009
2747.00,0.0009
2746.00,0.0009
2745.00,0.0009
2744.00,0.0009
2743.00,0.0009
2742.00,0.0009
2741.00,0.0009
2740.00,0.0009
2739.00,0.0008
2738.00,0.0008
2737.00,0.0009
2736.00,0.0009
2735.00,0.0009
2734.00,0.0009
2733.00,0.0009
2732.00,0.0008
2731.00,0.0009
2730.00,0.0009
2729.00,0.0009
2728.00,0.0009
2727.00,0.0009
2726.00,0.0009
2725.00,0.0009
2724.00,0.0009
2723.00,0.0008
2722.00,0.0008
2721.00,0.0008
2720.00,0.0008
2719.00,0.0007
2718.00,0.0008
2717.00,0.0008
2716.00,0.0008
2715.00,0.0008
2714.00,0.0008
2713.00,0.0008
2712.00,0.0008
2711.00,0.0008
2710.00,0.0008
2709.00,0.0008
2708.00,0.0008
2707.00,0.0008
2706.00,0.0008
2705.00,0.0008
2704.00,0.0008
2703.00,0.0008
2702.00,0.0008
2701.00,0.0008
2700.00,0.0009
2699.00,0.0009
2698.00,0.0009
2697.00,0.0009
2696.00,0.0009
2695.00,0.0009
2694.00,0.0009
2693.00,0.0009
2692.00,0.0008
2691.00,0.0008
2690.00,0.0008
2689.00,0.0008
2688.00,0.0008
2687.00,0.0008
2686.00,0.0007
2685.00,0.0007
2684.00,0.0007
2683.00,0.0008
2682.00,0.0008
2681.00,0.0008
2680.00,0.0009
2679.00,0.0009
2678.00,0.0009
2677.00,0.0009
2676.00,0.0009
2675.00,0.0009
2674.00,0.0009
2673.00,0.0008
2672.00,0.0008
2671.00,0.0008
2670.00,0.0008
2669.00,0.0009
2668.00,0.0009
2667.00,0.0009
2666.00,0.0009
2665.00,0.0009
2664.00,0.0008
2663.00,0.0008
2662.00,0.0008
2661.00,0.0008
2660.00,0.0008
2659.00,0.0008
2658.00,0.0008
2657.00,0.0008
2656.00,0.0008
2655.00,0.0008
2654.00,0.0008
2653.00,0.0008
2652.00,0.0008
2651.00,0.0008
2650.00,0.0008
2649.00,0.0008
2648.00,0.0008
2647.00,0.0008
2646.00,0.0008
2645.00,0.0008
2644.00,0.0007
2643.00,0.0007
2642.00,0.0007
2641.00,0.0007
2640.00,0.0007
2639.00,0.0007
2638.00,0.0007
2637.00,0.0007
2636.00,0.0007
2635.00,0.0007
2634.00,0.0006
2633.00,0.0006
2632.00,0.0006
2631.00,0.0007
2630.00,0.0007
2629.00,0.0007
2628.00,0.0007
2627.00,0.0006
2626.00,0.0006
2625.00,0.0006
2624.00,0.0005
2623.00,0.0005
2622.00,0.0005
2621.00,0.0005
2620.00,0.0006
2619.00,0.0006
2618.00,0.0007
2617.00,0.0007
2616.00,0.0007
2615.00,0.0007
2614.00,0.0006
2613.00,0.0006
2612.00,0.0006
2611.00,0.0006
2610.00,0.0006
2609.00,0.0006
2608.00,0.0006
2607.00,0.0006
2606.00,0.0006
2605.00,0.0006
2604.00,0.0006
2603.00,0.0005
2602.00,0.0005
2601.00,0.0005
2600.00,0.0004
2599.00,0.0004
2598.00,0.0004
2597.00,0.0004
2596.00,0.0005
2595.00,0.0005
2594.00,0.0006
2593.00,0.0006
2592.00,0.0006
2591.00,0.0006
2590.00,0.0006
2589.00,0.0006
2588.00,0.0006
2587.00,0.0006
2586.00,0.0006
2585.00,0.0006
2584.00,0.0006
2583.00,0.0006
2582.00,0.0006
2581.00,0.0006
2580.00,0.0006
2579.00,0.0006
2578.00,0.0006
2577.00,0.0006
2576.00,0.0006
2575.00,0.0005
2574.00,0.0005
2573.00,0.0004
2572.00,0.0005
2571.00,0.0005
2570.00,0.0006
2569.00,0.0006
2568.00,0.0006
2567.00,0.0006
2566.00,0.0005
2565.00,0.0005
2564.00,0.0005
2563.00,0.0005
2562.00,0.0005
2561.00,0.0005
2560.00,0.0005
2559.00,0.0005
2558.00,0.0006
2557.00,0.0006
2556.00,0.0007
2555.00,0.0007
2554.00,0.0006
2553.00,0.0006
2552.00,0.0006
2551.00,0.0006
2550.00,0.0006
2549.00,0.0006
2548.00,0.0005
2547.00,0.0005
2546.00,0.0004
2545.00,0.0003
2544.00,0.0003
2543.00,0.0003
2542.00,0.0003
2541.00,0.0003
2540.00,0.0003
2539.00,0.0004
2538.00,0.0004
2537.00,0.0004
2536.00,0.0004
2535.00,0.0004
2534.00,0.0004
2533.00,0.0004
2532.00,0.0004
2531.00,0.0004
2530.00,0.0003
2529.00,0.0003
2528.00,0.0003
2527.00,0.0003
2526.00,0.0003
2525.00,0.0003
2524.00,0.0003
2523.00,0.0003
2522.00,0.0003
2521.00,0.0002
2520.00,0.0002
2519.00,0.0001
2518.00,0.0001
2517.00,0.0001
2516.00,0.0001
2515.00,0.0002
2514.00,0.0003
2513.00,0.0004
2512.00,0.0004
2511.00,0.0004
2510.00,0.0004
2509.00,0.0004
2508.00,0.0004
2507.00,0.0004
2506.00,0.0004
2505.00,0.0004
2504.00,0.0003
2503.00,0.0003
2502.00,0.0003
2501.00,0.0004
2500.00,0.0005
2499.00,0.0006
2498.00,0.0007
2497.00,0.0007
2496.00,0.0007
2495.00,0.0007
2494.00,0.0006
2493.00,0.0005
2492.00,0.0004
2491.00,0.0003
2490.00,0.0003
2489.00,0.0003
2488.00,0.0003
2487.00,0.0003
2486.00,0.0003
2485.00,0.0003
2484.00,0.0003
2483.00,0.0003
2482.00,0.0003
2481.00,0.0003
2480.00,0.0003
2479.00,0.0004
2478.00,0.0003
2477.00,0.0003
2476.00,0.0003
2475.00,0.0002
2474.00,0.0002
2473.00,0.0002
2472.00,0.0003
2471.00,0.0003
2470.00,0.0004
2469.00,0.0004
2468.00,0.0004
2467.00,0.0004
2466.00,0.0004
2465.00,0.0004
2464.00,0.0004
2463.00,0.0004
2462.00,0.0004
2461.00,0.0003
2460.00,0.0003
2459.00,0.0003
2458.00,0.0004
2457.00,0.0004
2456.00,0.0005
2455.00,0.0005
2454.00,0.0005
2453.00,0.0005
2452.00,0.0004
2451.00,0.0004
2450.00,0.0004
2449.00,0.0005
2448.00,0.0005
2447.00,0.0005
2446.00,0.0005
2445.00,0.0004
2444.00,0.0004
2443.00,0.0004
2442.00,0.0003
2441.00,0.0003
2440.00,0.0003
2439.00,0.0003
2438.00,0.0003
2437.00,0.0004
2436.00,0.0004
2435.00,0.0004
2434.00,0.0004
2433.00,0.0004
2432.00,0.0004
2431.00,0.0004
2430.00,0.0005
2429.00,0.0005
2428.00,0.0005
2427.00,0.0004
2426.00,0.0003
2425.00,0.0003
2424.00,0.0003
2423.00,0.0004
2422.00,0.0005
2421.00,0.0005
2420.00,0.0005
2419.00,0.0004
2418.00,0.0004
2417.00,0.0004
2416.00,0.0004
2415.00,0.0004
2414.00,0.0004
2413.00,0.0004
2412.00,0.0004
2411.00,0.0004
2410.00,0.0004
2409.00,0.0004
2408.00,0.0004
2407.00,0.0004
2406.00,0.0005
2405.00,0.0005
2404.00,0.0005
2403.00,0.0005
2402.00,0.0005
2401.00,0.0005
2400.00,0.0005
2399.00,0.0005
2398.00,0.0005
2397.00,0.0005
2396.00,0.0005
2395.00,0.0006
2394.00,0.0006
2393.00,0.0006
2392.00,0.0006
2391.00,0.0005
2390.00,0.0005
2389.00,0.0004
2388.00,0.0004
2387.00,0.0005
2386.00,0.0005
2385.00,0.0005
2384.00,0.0005
2383.00,0.0005
2382.00,0.0005
2381.00,0.0005
2380.00,0.0005
2379.00,0.0005
2378.00,0.0005
2377.00,0.0005
2376.00,0.0004
2375.00,0.0003
2374.00,0.0003
2373.00,0.0003
2372.00,0.0004
2371.00,0.0004
2370.00,0.0005
2369.00,0.0005
2368.00,0.0005
2367.00,0.0005
2366.00,0.0004
2365.00,0.0004
2364.00,0.0003
2363.00,0.0003
2362.00,0.0003
2361.00,0.0003
2360.00,0.0003
2359.00,0.0004
2358.00,0.0005
2357.00,0.0006
2356.00,0.0006
2355.00,0.0006
2354.00,0.0006
2353.00,0.0005
2352.00,0.0004
2351.00,0.0004
2350.00,0.0003
2349.00,0.0003
2348.00,0.0003
2347.00,0.0003
2346.00,0.0003
2345.00,0.0002
2344.00,0.0001
2343.00,0.0000
2342.00,0.0000
2341.00,0.0001
2340.00,0.0001
2339.00,0.0002
2338.00,0.0002
2337.00,0.0002
2336.00,0.0002
2335.00,0.0001
2334.00,0.0001
2333.00,0.0002
2332.00,0.0002
2331.00,0.0003
2330.00,0.0004
2329.00,0.0005
2328.00,0.0005
2327.00,0.0005
2326.00,0.0004
2325.00,0.0003
2324.00,0.0002
2323.00,0.0001
2322.00,0.0000
2321.00,0.0001
2320.00,0.0001
2319.00,0.0002
2318.00,0.0002
2317.00,0.0002
2316.00,0.0002
2315.00,0.0002
2314.00,0.0001
2313.00,0.0001
2312.00,0.0001
2311.00,0.0001
2310.00,0.0001
2309.00,0.0001
2308.00,0.0001
2307.00,0.0001
2306.00,0.0000
2305.00,0.0001
2304.00,0.0001
2303.00,0.0002
2302.00,0.0003
2301.00,0.0004
2300.00,0.0005
2299.00,0.0006
2298.00,0.0006
2297.00,0.0006
2296.00,0.0006
2295.00,0.0005
2294.00,0.0004
2293.00,0.0004
2292.00,0.0003
2291.00,0.0003
2290.00,0.0002
2289.00,0.0001
2288.00,0.0000
2287.00,-0.0000
2286.00,0.0000
2285.00,0.0001
2284.00,0.0002
2283.00,0.0002
2282.00,0.0002
2281.00,0.0001
2280.00,0.0001
2279.00,0.0001
2278.00,0.0002
2277.00,0.0002
2276.00,0.0002
2275.00,0.0002
2274.00,0.0001
2273.00,0.0001
2272.00,0.0000
2271.00,0.0001
2270.00,0.0001
2269.00,0.0001
2268.00,0.0001
2267.00,0.0001
2266.00,0.0001
2265.00,0.0001
2264.00,0.0002
2263.00,0.0003
2262.00,0.0003
2261.00,0.0002
2260.00,0.0002
2259.00,0.0001
2258.00,0.0001
2257.00,0.0001
2256.00,0.0001
2255.00,0.0001
2254.00,0.0001
2253.00,0.0002
2252.00,0.0002
2251.00,0.0002
2250.00,0.0002
2249.00,0.0002
2248.00,0.0002
2247.00,0.0001
2246.00,0.0000
2245.00,-0.0001
2244.00,-0.0001
2243.00,-0.0001
2242.00,-0.0002
2241.00,-0.0003
2240.00,-0.0003
2239.00,-0.0004
2238.00,-0.0003
2237.00,-0.0002
2236.00,-0.0001
2235.00,0.0000
2234.00,0.0001
2233.00,0.0001
2232.00,0.0000
2231.00,-0.0001
2230.00,-0.0002
2229.00,-0.0003
2228.00,-0.0003
2227.00,-0.0002
2226.00,-0.0002
2225.00,-0.0002
2224.00,-0.0001
2223.00,-0.0001
2222.00,-0.0001
2221.00,-0.0000
2220.00,-0.0000
2219.00,-0.0001
2218.00,-0.0001
2217.00,-0.0002
2216.00,-0.0004
2215.00,-0.0005
2214.00,-0.0006
2213.00,-0.0007
2212.00,-0.0006
2211.00,-0.0004
2210.00,-0.0003
2209.00,-0.0002
2208.00,-0.0002
2207.00,-0.0002
2206.00,-0.0003
2205.00,-0.0004
2204.00,-0.0004
2203.00,-0.0005
2202.00,-0.0005
2201.00,-0.0006
2200.00,-0.0006
2199.00,-0.0007
2198.00,-0.0007
2197.00,-0.0008
2196.00,-0.0009
2195.00,-0.0010
2194.00,-0.0011
2193.00,-0.0011
2192.00,-0.0010
2191.00,-0.0009
2190.00,-0.0007
2189.00,-0.0007
2188.00,-0.0006
2187.00,-0.0006
2186.00,-0.0007
2185.00,-0.0007
2184.00,-0.0008
2183.00,-0.0008
2182.00,-0.0009
2181.00,-0.0009
2180.00,-0.0009
2179.00,-0.0010
2178.00,-0.0009
2177.00,-0.0009
2176.00,-0.0007
2175.00,-0.0005
2174.00,-0.0004
2173.00,-0.0003
2172.00,-0.0003
2171.00,-0.0004
2170.00,-0.0006
2169.00,-0.0007
2168.00,-0.0008
2167.00,-0.0008
2166.00,-0.0009
2165.00,-0.0010
2164.00,-0.0011
2163.00,-0.0012
2162.00,-0.0012
2161.00,-0.0011
2160.00,-0.0009
2159.00,-0.0008
2158.00,-0.0007
2157.00,-0.0005
2156.00,-0.0004
2155.00,-0.0003
2154.00,-0.0004
2153.00,-0.0005
2152.00,-0.0007
2151.00,-0.0008
2150.00,-0.0007
2149.00,-0.0006
2148.00,-0.0005
2147.00,-0.0004
2146.00,-0.0004
2145.00,-0.0003
2144.00,-0.0003
2143.00,-0.0003
2142.00,-0.0003
2141.00,-0.0003
2140.00,-0.0003
2139.00,-0.0002
2138.00,-0.0000
2137.00,0.0000
2136.00,-0.0000
2135.00,-0.0001
2134.00,-0.0001
2133.00,-0.0002
2132.00,-0.0003
2131.00,-0.0003
2130.00,-0.0003
2129.00,-0.0002
2128.00,-0.0002
2127.00,-0.0001
2126.00,-0.0001
2125.00,-0.0002
2124.00,-0.0002
2123.00,-0.0003
2122.00,-0.0003
2121.00,-0.0003
2120.00,-0.0003
2119.00,-0.0002
2118.00,-0.0001
2117.00,-0.0001
2116.00,-0.0001
2115.00,-0.0002
2114.00,-0.0003
2113.00,-0.0003
2112.00,-0.0002
2111.00,-0.0002
2110.00,-0.0002
2109.00,-0.0001
2108.00,-0.0001
2107.00,0.0000
2106.00,0.0001
2105.00,0.0002
2104.00,0.0002
2103.00,0.0002
2102.00,0.0002
2101.00,0.0002
2100.00,0.0001
2099.00,0.0001
2098.00,0.0001
2097.00,0.0000
2096.00,-0.0000
2095.00,-0.0001
2094.00,-0.0001
2093.00,-0.0001
2092.00,-0.0001
2091.00,-0.0000
2090.00,-0.0000
2089.00,-0.0000
2088.00,-0.0001
2087.00,-0.0001
2086.00,-0.0002
2085.00,-0.0002
2084.00,-0.0003
2083.00,-0.0004
2082.00,-0.0004
2081.00,-0.0004
2080.00,-0.0003
2079.00,-0.0003
2078.00,-0.0003
2077.00,-0.0003
2076.00,-0.0003
2075.00,-0.0003
2074.00,-0.0003
2073.00,-0.0004
2072.00,-0.0004
2071.00,-0.0003
2070.00,-0.0002
2069.00,-0.0001
2068.00,-0.0000
2067.00,0.0000
2066.00,-0.0000
2065.00,-0.0000
2064.00,0.0000
2063.00,0.0001
2062.00,0.0002
2061.00,0.0002
2060.00,0.0003
2059.00,0.0003
2058.00,0.0003
2057.00,0.0002
2056.00,0.0002
2055.00,0.0001
2054.00,0.0000
2053.00,-0.0000
2052.00,-0.0000
2051.00,0.0000
2050.00,0.0001
2049.00,0.0002
2048.00,0.0002
2047.00,0.0001
2046.00,-0.0000
2045.00,-0.0001
2044.00,-0.0002
2043.00,-0.0002
2042.00,-0.0002
2041.00,-0.0004
2040.00,-0.0006
2039.00,-0.0008
2038.00,-0.0008
2037.00,-0.0008
2036.00,-0.0007
2035.00,-0.0008
2034.00,-0.0008
2033.00,-0.0008
2032.00,-0.0007
2031.00,-0.0006
2030.00,-0.0006
2029.00,-0.0005
2028.00,-0.0004
2027.00,-0.0004
2026.00,-0.0004
2025.00,-0.0004
2024.00,-0.0004
2023.00,-0.0006
2022.00,-0.0007
2021.00,-0.0007
2020.00,-0.0006
2019.00,-0.0005
2018.00,-0.0004
2017.00,-0.0002
2016.00,-0.0002
2015.00,-0.0002
2014.00,-0.0002
2013.00,-0.0002
2012.00,-0.0002
2011.00,-0.0002
2010.00,-0.0001
2009.00,-0.0001
2008.00,-0.0001
2007.00,-0.0001
2006.00,-0.0001
2005.00,0.0000
2004.00,0.0002
2003.00,0.0005
2002.00,0.0006
2001.00,0.0007
2000.00,0.0007
1999.00,0.0006
1998.00,0.0004
1997.00,0.0002
1996.00,0.0001
1995.00,0.0000
1994.00,-0.0000
1993.00,-0.0000
1992.00,-0.0001
1991.00,-0.0001
1990.00,-0.0001
1989.00,-0.0002
1988.00,-0.0002
1987.00,-0.0002
1986.00,-0.0003
1985.00,-0.0003
1984.00,-0.0003
1983.00,-0.0001
1982.00,0.0001
1981.00,0.0002
1980.00,0.0002
1979.00,0.0002
1978.00,0.0002
1977.00,0.0002
1976.00,0.0002
1975.00,0.0002
1974.00,0.0002
1973.00,0.0000
1972.00,-0.0002
1971.00,-0.0003
1970.00,-0.0005
1969.00,-0.0005
1968.00,-0.0004
1967.00,-0.0002
1966.00,-0.0001
1965.00,-0.0000
1964.00,-0.0000
1963.00,0.0000
1962.00,0.0001
1961.00,0.0002
1960.00,0.0003
1959.00,0.0004
1958.00,0.0004
1957.00,0.0004
1956.00,0.0004
1955.00,0.0004
1954.00,0.0004
1953.00,0.0005
1952.00,0.0005
1951.00,0.0006
1950.00,0.0007
1949.00,0.0007
1948.00,0.0007
1947.00,0.0007
1946.00,0.0007
1945.00,0.0007
1944.00,0.0006
1943.00,0.0005
1942.00,0.0005
1941.00,0.0004
1940.00,0.0004
1939.00,0.0004
1938.00,0.0004
1937.00,0.0004
1936.00,0.0004
1935.00,0.0004
1934.00,0.0004
1933.00,0.0004
1932.00,0.0004
1931.00,0.0004
1930.00,0.0004
1929.00,0.0004
1928.00,0.0005
1927.00,0.0005
1926.00,0.0005
1925.00,0.0005
1924.00,0.0005
1923.00,0.0005
1922.00,0.0004
1921.00,0.0004
1920.00,0.0004
1919.00,0.0005
1918.00,0.0006
1917.00,0.0007
1916.00,0.0007
1915.00,0.0007
1914.00,0.0007
1913.00,0.0007
1912.00,0.0006
1911.00,0.0006
1910.00,0.0006
1909.00,0.0006
1908.00,0.0006
1907.00,0.0005
1906.00,0.0005
1905.00,0.0004
1904.00,0.0004
1903.00,0.0004
1902.00,0.0005
1901.00,0.0005
1900.00,0.0005
1899.00,0.0004
1898.00,0.0004
1897.00,0.0005
1896.00,0.0005
1895.00,0.0004
1894.00,0.0004
1893.00,0.0004
1892.00,0.0005
1891.00,0.0005
1890.00,0.0005
1889.00,0.0005
1888.00,0.0005
1887.00,0.0005
1886.00,0.0006
1885.00,0.0006
1884.00,0.0007
1883.00,0.0007
1882.00,0.0007
1881.00,0.0008
1880.00,0.0007
1879.00,0.0007
1878.00,0.0006
1877.00,0.0006
1876.00,0.0006
1875.00,0.0007
1874.00,0.0007
1873.00,0.0008
1872.00,0.0008
1871.00,0.0008
1870.00,0.0008
1869.00,0.0007
1868.00,0.0006
1867.00,0.0006
1866.00,0.0006
1865.00,0.0007
1864.00,0.0007
1863.00,0.0008
1862.00,0.0008
1861.00,0.0008
1860.00,0.0008
1859.00,0.0007
1858.00,0.0007
1857.00,0.0007
1856.00,0.0007
1855.00,0.0008
1854.00,0.0008
1853.00,0.0008
1852.00,0.0008
1851.00,0.0007
1850.00,0.0007
1849.00,0.0006
1848.00,0.0007
1847.00,0.0007
1846.00,0.0008
1845.00,0.0008
1844.00,0.0008
1843.00,0.0008
1842.00,0.0008
1841.00,0.0008
1840.00,0.0008
1839.00,0.0008
1838.00,0.0008
1837.00,0.0008
1836.00,0.0008
1835.00,0.0008
1834.00,0.0008
1833.00,0.0008
1832.00,0.0008
1831.00,0.0008
1830.00,0.0009
1829.00,0.0008
1828.00,0.0008
1827.00,0.0008
1826.00,0.0007
1825.00,0.0007
1824.00,0.0007
1823.00,0.0007
1822.00,0.0007
1821.00,0.0006
1820.00,0.0007
1819.00,0.0007
1818.00,0.0008
1817.00,0.0008
1816.00,0.0009
1815.00,0.0009
1814.00,0.0009
1813.00,0.0009
1812.00,0.0008
1811.00,0.0008
1810.00,0.0008
1809.00,0.0008
1808.00,0.0008
1807.00,0.0008
1806.00,0.0008
1805.00,0.0009
1804.00,0.0009
1803.00,0.0009
1802.00,0.0009
1801.00,0.0009
1800.00,0.0010
1799.00,0.0009
1798.00,0.0009
1797.00,0.0009
1796.00,0.0009
1795.00,0.0010
1794.00,0.0010
1793.00,0.0010
1792.00,0.0010
1791.00,0.0010
1790.00,0.0010
1789.00,0.0010
1788.00,0.0010
1787.00,0.0010
1786.00,0.0010
1785.00,0.0010
1784.00,0.0010
1783.00,0.0010
1782.00,0.0010
1781.00,0.0010
1780.00,0.0010
1779.00,0.0010
1778.00,0.0011
1777.00,0.0011
1776.00,0.0011
1775.00,0.0011
1774.00,0.0011
1773.00,0.0011
1772.00,0.0011
1771.00,0.0011
1770.00,0.0011
1769.00,0.0010
1768.00,0.0010
1767.00,0.0011
1766.00,0.0011
1765.00,0.0011
1764.00,0.0011
1763.00,0.0010
1762.00,0.0010
1761.00,0.0011
1760.00,0.0011
1759.00,0.0011
1758.00,0.0011
1757.00,0.0011
1756.00,0.0010
1755.00,0.0010
1754.00,0.0010
1753.00,0.0010
1752.00,0.0011
1751.00,0.0011
1750.00,0.0011
1749.00,0.0010
1748.00,0.0010
1747.00,0.0010
1746.00,0.0010
1745.00,0.0010
1744.00,0.0010
1743.00,0.0010
1742.00,0.0011
1741.00,0.0011
1740.00,0.0012
1739.00,0.0012
1738.00,0.0012
1737.00,0.0011
1736.00,0.0011
1735.00,0.0011
1734.00,0.0011
1733.00,0.0010
1732.00,0.0010
1731.00,0.0010
1730.00,0.0011
1729.00,0.0011
1728.00,0.0012
1727.00,0.0012
1726.00,0.0012
1725.00,0.0012
1724.00,0.0011
1723.00,0.0011
1722.00,0.0011
1721.00,0.0011
1720.00,0.0012
1719.00,0.0012
1718.00,0.0012
1717.00,0.0012
1716.00,0.0013
1715.00,0.0013
1714.00,0.0013
1713.00,0.0013
1712.00,0.0012
1711.00,0.0012
1710.00,0.0012
1709.00,0.0012
1708.00,0.0012
1707.00,0.0012
1706.00,0.0012
1705.00,0.0012
1704.00,0.0011
1703.00,0.0011
1702.00,0.0011
1701.00,0.0011
1700.00,0.0011
1699.00,0.0011
1698.00,0.0011
1697.00,0.0011
1696.00,0.0012
1695.00,0.0011
1694.00,0.0011
1693.00,0.0011
1692.00,0.0011
1691.00,0.0011
1690.00,0.0011
1689.00,0.0012
1688.00,0.0012
1687.00,0.0012
1686.00,0.0012
1685.00,0.0011
1684.00,0.0010
1683.00,0.0010
1682.00,0.0010
1681.00,0.0011
1680.00,0.0011
1679.00,0.0012
1678.00,0.0012
1677.00,0.0012
1676.00,0.0012
1675.00,0.0011
1674.00,0.0011
1673.00,0.0011
1672.00,0.0012
1671.00,0.0012
1670.00,0.0013
1669.00,0.0013
1668.00,0.0012
1667.00,0.0012
1666.00,0.0012
1665.00,0.0012
1664.00,0.0012
1663.00,0.0013
1662.00,0.0013
1661.00,0.0014
1660.00,0.0014
1659.00,0.0014
1658.00,0.0014
1657.00,0.0014
1656.00,0.0014
1655.00,0.0014
1654.00,0.0013
1653.00,0.0013
1652.00,0.0013
1651.00,0.0013
1650.00,0.0013
1649.00,0.0013
1648.00,0.0013
1647.00,0.0013
1646.00,0.0014
1645.00,0.0014
1644.00,0.0014
1643.00,0.0014
1642.00,0.0014
1641.00,0.0014
1640.00,0.0014
1639.00,0.0014
1638.00,0.0014
1637.00,0.0015
1636.00,0.0015
1635.00,0.0016
1634.00,0.0016
1633.00,0.0016
1632.00,0.0016
1631.00,0.0016
1630.00,0.0015
1629.00,0.0015
1628.00,0.0015
1627.00,0.0015
1626.00,0.0015
1625.00,0.0015
1624.00,0.0014
1623.00,0.0014
1622.00,0.0014
1621.00,0.0014
1620.00,0.0014
1619.00,0.0014
1618.00,0.0014
1617.00,0.0015
1616.00,0.0015
1615.00,0.0015
1614.00,0.0016
1613.00,0.0016
1612.00,0.0016
1611.00,0.0016
1610.00,0.0015
1609.00,0.0015
1608.00,0.0015
1607.00,0.0015
1606.00,0.0016
1605.00,0.0016
1604.00,0.0016
1603.00,0.0016
1602.00,0.0016
1601.00,0.0016
1600.00,0.0017
1599.00,0.0017
1598.00,0.0018
1597.00,0.0018
1596.00,0.0018
1595.00,0.0017
1594.00,0.0017
1593.00,0.0016
1592.00,0.0016
1591.00,0.0016
1590.00,0.0015
1589.00,0.0015
1588.00,0.0015
1587.00,0.0015
1586.00,0.0016
1585.00,0.0016
1584.00,0.0016
1583.00,0.0016
1582.00,0.0016
1581.00,0.0016
1580.00,0.0016
1579.00,0.0016
1578.00,0.0017
1577.00,0.0016
1576.00,0.0016
1575.00,0.0016
1574.00,0.0015
1573.00,0.0015
1572.00,0.0014
1571.00,0.0014
1570.00,0.0014
1569.00,0.0014
1568.00,0.0014
1567.00,0.0014
1566.00,0.0014
1565.00,0.0014
1564.00,0.0014
1563.00,0.0014
1562.00,0.0014
1561.00,0.0014
1560.00,0.0013
1559.00,0.0013
1558.00,0.0013
1557.00,0.0013
1556.00,0.0014
1555.00,0.0014
1554.00,0.0014
1553.00,0.0014
1552.00,0.0014
1551.00,0.0013
1550.00,0.0013
1549.00,0.0013
1548.00,0.0013
1547.00,0.0013
1546.00,0.0013
1545.00,0.0013
1544.00,0.0013
1543.00,0.0014
1542.00,0.0014
1541.00,0.0013
1540.00,0.0013
1539.00,0.0012
1538.00,0.0012
1537.00,0.0012
1536.00,0.0012
1535.00,0.0012
1534.00,0.0012
1533.00,0.0013
1532.00,0.0013
1531.00,0.0013
1530.00,0.0013
1529.00,0.0012
1528.00,0.0012
1527.00,0.0012
1526.00,0.0011
1525.00,0.0012
1524.00,0.0012
1523.00,0.0013
1522.00,0.0014
1521.00,0.0014
1520.00,0.0014
1519.00,0.0014
1518.00,0.0013
1517.00,0.0013
1516.00,0.0013
1515.00,0.0013
1514.00,0.0013
1513.00,0.0013
1512.00,0.0013
1511.00,0.0013
1510.00,0.0014
1509.00,0.0014
1508.00,0.0013
1507.00,0.0013
1506.00,0.0013
1505.00,0.0014
1504.00,0.0013
1503.00,0.0013
1502.00,0.0013
1501.00,0.0013
1500.00,0.0013
1499.00,0.0013
1498.00,0.0013
1497.00,0.0013
1496.00,0.0013
1495.00,0.0013
1494.00,0.0013
1493.00,0.0013
1492.00,0.0013
1491.00,0.0014
1490.00,0.0014
1489.00,0.0014
1488.00,0.0014
1487.00,0.0015
1486.00,0.0016
1485.00,0.0016
1484.00,0.0016
1483.00,0.0016
1482.00,0.0016
1481.00,0.0016
1480.00,0.0016
1479.00,0.0016
1478.00,0.0016
1477.00,0.0016
1476.00,0.0016
1475.00,0.0016
1474.00,0.0016
1473.00,0.0015
1472.00,0.0015
1471.00,0.0015
1470.00,0.0015
1469.00,0.0015
1468.00,0.0016
1467.00,0.0017
1466.00,0.0017
1465.00,0.0018
1464.00,0.0018
1463.00,0.0019
1462.00,0.0019
1461.00,0.0020
1460.00,0.0020
1459.00,0.0021
1458.00,0.0021
1457.00,0.0022
1456.00,0.0022
1455.00,0.0023
1454.00,0.0023
1453.00,0.0024
1452.00,0.0025
1451.00,0.0026
1450.00,0.0027
1449.00,0.0028
1448.00,0.0029
1447.00,0.0030
1446.00,0.0030
1445.00,0.0030
1444.00,0.0030
1443.00,0.0030
1442.00,0.0029
1441.00,0.0029
1440.00,0.0028
1439.00,0.0028
1438.00,0.0027
1437.00,0.0026
1436.00,0.0025
1435.00,0.0024
1434.00,0.0024
1433.00,0.0024
1432.00,0.0025
1431.00,0.0026
1430.00,0.0026
1429.00,0.0027
1428.00,0.0028
1427.00,0.0029
1426.00,0.0030
1425.00,0.0032
1424.00,0.0035
1423.00,0.0037
1422.00,0.0039
1421.00,0.0041
1420.00,0.0044
1419.00,0.0047
1418.00,0.0050
1417.00,0.0052
1416.00,0.0054
1415.00,0.0056
1414.00,0.0058
1413.00,0.0059
1412.00,0.0059
1411.00,0.0059
1410.00,0.0059
1409.00,0.0058
1408.00,0.0057
1407.00,0.0055
1406.00,0.0054
1405.00,0.0053
1404.00,0.0053
1403.00,0.0052
1402.00,0.0051
1401.00,0.0050
1400.00,0.0049
1399.00,0.0047
1398.00,0.0045
1397.00,0.0044
1396.00,0.0041
1395.00,0.0039
1394.00,0.0036
1393.00,0.0034
1392.00,0.0032
1391.00,0.0030
1390.00,0.0029
1389.00,0.0027
1388.00,0.0026
1387.00,0.0025
1386.00,0.0024
1385.00,0.0023
1384.00,0.0023
1383.00,0.0023
1382.00,0.0022
1381.00,0.0022
1380.00,0.0022
1379.00,0.0021
1378.00,0.0020
1377.00,0.0020
1376.00,0.0020
1375.00,0.0020
1374.00,0.0020
1373.00,0.0020
1372.00,0.0021
1371.00,0.0021
1370.00,0.0020
1369.00,0.0020
1368.00,0.0020
1367.00,0.0019
1366.00,0.0019
1365.00,0.0019
1364.00,0.0018
1363.00,0.0018
1362.00,0.0018
1361.00,0.0018
1360.00,0.0018
1359.00,0.0018
1358.00,0.0018
1357.00,0.0018
1356.00,0.0018
1355.00,0.0018
1354.00,0.0018
1353.00,0.0018
1352.00,0.0018
1351.00,0.0018
1350.00,0.0018
1349.00,0.0018
1348.00,0.0018
1347.00,0.0018
1346.00,0.0018
1345.00,0.0018
1344.00,0.0018
1343.00,0.0018
1342.00,0.0018
1341.00,0.0018
1340.00,0.0018
1339.00,0.0017
1338.00,0.0017
1337.00,0.0018
1336.00,0.0018
1335.00,0.0018
1334.00,0.0018
1333.00,0.0018
1332.00,0.0018
1331.00,0.0018
1330.00,0.0019
1329.00,0.0019
1328.00,0.0019
1327.00,0.0019
1326.00,0.0020
1325.00,0.0020
1324.00,0.0021
1323.00,0.0021
1322.00,0.0022
1321.00,0.0021
1320.00,0.0021
1319.00,0.0021
1318.00,0.0021
1317.00,0.0022
1316.00,0.0022
1315.00,0.0023
1314.00,0.0023
1313.00,0.0023
1312.00,0.0023
1311.00,0.0024
1310.00,0.0024
1309.00,0.0024
1308.00,0.0025
1307.00,0.0025
1306.00,0.0025
1305.00,0.0026
1304.00,0.0026
1303.00,0.0027
1302.00,0.0028
1301.00,0.0028
1300.00,0.0029
1299.00,0.0029
1298.00,0.0030
1297.00,0.0030
1296.00,0.0031
1295.00,0.0032
1294.00,0.0033
1293.00,0.0034
1292.00,0.0035
1291.00,0.0036
1290.00,0.0037
1289.00,0.0039
1288.00,0.0040
1287.00,0.0042
1286.00,0.0044
1285.00,0.0046
1284.00,0.0048
1283.00,0.0050
1282.00,0.0052
1281.00,0.0055
1280.00,0.0059
1279.00,0.0063
1278.00,0.0069
1277.00,0.0075
1276.00,0.0083
1275.00,0.0092
1274.00,0.0103
1273.00,0.0117
1272.00,0.0135
1271.00,0.0159
1270.00,0.0191
1269.00,0.0232
1268.00,0.0284
1267.00,0.0347
1266.00,0.0421
1265.00,0.0502
1264.00,0.0585
1263.00,0.0666
1262.00,0.0736
1261.00,0.0791
1260.00,0.0825
1259.00,0.0835
1258.00,0.0824
1257.00,0.0793
1256.00,0.0748
1255.00,0.0694
1254.00,0.0634
1253.00,0.0571
1252.00,0.0506
1251.00,0.0441
1250.00,0.0378
1249.00,0.0320
1248.00,0.0269
1247.00,0.0226
1246.00,0.0192
1245.00,0.0165
1244.00,0.0145
1243.00,0.0129
1242.00,0.0116
1241.00,0.0106
1240.00,0.0098
1239.00,0.0092
1238.00,0.0087
1237.00,0.0083
1236.00,0.0080
1235.00,0.0078
1234.00,0.0076
1233.00,0.0074
1232.00,0.0073
1231.00,0.0072
1230.00,0.0071
1229.00,0.0071
1228.00,0.0071
1227.00,0.0072
1226.00,0.0074
1225.00,0.0075
1224.00,0.0076
1223.00,0.0078
1222.00,0.0079
1221.00,0.0080
1220.00,0.0082
1219.00,0.0083
1218.00,0.0086
1217.00,0.0088
1216.00,0.0091
1215.00,0.0093
1214.00,0.0096
1213.00,0.0098
1212.00,0.0101
1211.00,0.0104
1210.00,0.0107
1209.00,0.0110
1208.00,0.0112
1207.00,0.0115
1206.00,0.0117
1205.00,0.0120
1204.00,0.0122
1203.00,0.0124
1202.00,0.0126
1201.00,0.0128
1200.00,0.0130
1199.00,0.0132
1198.00,0.0134
1197.00,0.0136
1196.00,0.0138
1195.00,0.0139
1194.00,0.0141
1193.00,0.0142
1192.00,0.0143
1191.00,0.0144
1190.00,0.0145
1189.00,0.0146
1188.00,0.0147
1187.00,0.0147
1186.00,0.0148
1185.00,0.0149
1184.00,0.0150
1183.00,0.0151
1182.00,0.0151
1181.00,0.0152
1180.00,0.0152
1179.00,0.0153
1178.00,0.0153
1177.00,0.0153
1176.00,0.0154
1175.00,0.0154
1174.00,0.0155
1173.00,0.0156
1172.00,0.0156
1171.00,0.0157
1170.00,0.0157
1169.00,0.0157
1168.00,0.0158
1167.00,0.0158
1166.00,0.0159
1165.00,0.0160
1164.00,0.0161
1163.00,0.0162
1162.00,0.0162
1161.00,0.0163
1160.00,0.0164
1159.00,0.0165
1158.00,0.0166
1157.00,0.0167
1156.00,0.0169
1155.00,0.0170
1154.00,0.0172
1153.00,0.0174
1152.00,0.0175
1151.00,0.0177
1150.00,0.0180
1149.00,0.0182
1148.00,0.0184
1147.00,0.0187
1146.00,0.0190
1145.00,0.0194
1144.00,0.0199
1143.00,0.0203
1142.00,0.0208
1141.00,0.0212
1140.00,0.0216
1139.00,0.0221
1138.00,0.0225
1137.00,0.0230
1136.00,0.0235
1135.00,0.0240
1134.00,0.0246
1133.00,0.0251
1132.00,0.0257
1131.00,0.0264
1130.00,0.0272
1129.00,0.0281
1128.00,0.0290
1127.00,0.0299
1126.00,0.0310
1125.00,0.0321
1124.00,0.0333
1123.00,0.0345
1122.00,0.0359
1121.00,0.0373
1120.00,0.0389
1119.00,0.0405
1118.00,0.0423
1117.00,0.0441
1116.00,0.0461
1115.00,0.0482
1114.00,0.0504
1113.00,0.0526
1112.00,0.0549
1111.00,0.0573
1110.00,0.0598
1109.00,0.0623
1108.00,0.0649
1107.00,0.0676
1106.00,0.0703
1105.00,0.0731
1104.00,0.0759
1103.00,0.0788
1102.00,0.0817
1101.00,0.0846
1100.00,0.0874
1099.00,0.0903
1098.00,0.0931
1097.00,0.0960
1096.00,0.0989
1095.00,0.1016
1094.00,0.1044
1093.00,0.1070
1092.00,0.1096
1091.00,0.1121
1090.00,0.1144
1089.00,0.1167
1088.00,0.1187
1087.00,0.1207
1086.00,0.1225
1085.00,0.1242
1084.00,0.1256
1083.00,0.1269
1082.00,0.1281
1081.00,0.1291
1080.00,0.1299
1079.00,0.1307
1078.00,0.1314
1077.00,0.1319
1076.00,0.1324
1075.00,0.1328
1074.00,0.1330
1073.00,0.1332
1072.00,0.1333
1071.00,0.1333
1070.00,0.1333
1069.00,0.1332
1068.00,0.1330
1067.00,0.1328
1066.00,0.1325
1065.00,0.1322
1064.00,0.1319
1063.00,0.1316
1062.00,0.1312
1061.00,0.1308
1060.00,0.1304
1059.00,0.1299
1058.00,0.1293
1057.00,0.1287
1056.00,0.1281
1055.00,0.1275
1054.00,0.1269
1053.00,0.1263
1052.00,0.1258
1051.00,0.1252
1050.00,0.1246
1049.00,0.1241
1048.00,0.1236
1047.00,0.1231
1046.00,0.1228
1045.00,0.1225
1044.00,0.1223
1043.00,0.1223
1042.00,0.1223
1041.00,0.1224
1040.00,0.1226
1039.00,0.1228
1038.00,0.1231
1037.00,0.1235
1036.00,0.1240
1035.00,0.1247
1034.00,0.1256
1033.00,0.1265
1032.00,0.1275
1031.00,0.1287
1030.00,0.1299
1029.00,0.1312
1028.00,0.1327
1027.00,0.1343
1026.00,0.1360
1025.00,0.1379
1024.00,0.1398
1023.00,0.1417
1022.00,0.1437
1021.00,0.1456
1020.00,0.1475
1019.00,0.1490
1018.00,0.1503
1017.00,0.1512
1016.00,0.1515
1015.00,0.1512
1014.00,0.1502
1013.00,0.1483
1012.00,0.1455
1011.00,0.1417
1010.00,0.1371
1009.00,0.1317
1008.00,0.1255
1007.00,0.1189
1006.00,0.1118
1005.00,0.1047
1004.00,0.0975
1003.00,0.0905
1002.00,0.0837
1001.00,0.0773
1000.00,0.0713
999.00,0.0657
998.00,0.0606
997.00,0.0559
996.00,0.0517
995.00,0.0479
994.00,0.0444
993.00,0.0412
992.00,0.0383
991.00,0.0357
990.00,0.0334
989.00,0.0313
988.00,0.0294
987.00,0.0277
986.00,0.0260
985.00,0.0245
984.00,0.0231
983.00,0.0219
982.00,0.0208
981.00,0.0198
980.00,0.0189
979.00,0.0181
978.00,0.0173
977.00,0.0165
976.00,0.0158
975.00,0.0151
974.00,0.0145
973.00,0.0140
972.00,0.0136
971.00,0.0131
970.00,0.0127
969.00,0.0123
968.00,0.0119
967.00,0.0116
966.00,0.0113
965.00,0.0111
964.00,0.0109
963.00,0.0108
962.00,0.0106
961.00,0.0105
960.00,0.0103
959.00,0.0102
958.00,0.0101
957.00,0.0099
956.00,0.0096
955.00,0.0094
954.00,0.0092
953.00,0.0089
952.00,0.0087
951.00,0.0085
950.00,0.0083
949.00,0.0081
948.00,0.0079
947.00,0.0078
946.00,0.0077
945.00,0.0076
944.00,0.0074
943.00,0.0073
942.00,0.0071
941.00,0.0070
940.00,0.0069
939.00,0.0068
938.00,0.0068
937.00,0.0067
936.00,0.0067
935.00,0.0067
934.00,0.0067
933.00,0.0068
932.00,0.0068
931.00,0.0069
930.00,0.0070
929.00,0.0071
928.00,0.0071
927.00,0.0072
926.00,0.0072
925.00,0.0072
924.00,0.0072
923.00,0.0073
922.00,0.0075
921.00,0.0077
920.00,0.0080
919.00,0.0083
918.00,0.0086
917.00,0.0088
916.00,0.0091
915.00,0.0093
914.00,0.0095
913.00,0.0097
912.00,0.0099
911.00,0.0101
910.00,0.0102
909.00,0.0103
908.00,0.0103
907.00,0.0103
906.00,0.0103
905.00,0.0103
904.00,0.0103
903.00,0.0104
902.00,0.0105
901.00,0.0106
900.00,0.0107
899.00,0.0109
898.00,0.0111
897.00,0.0113
896.00,0.0116
895.00,0.0120
894.00,0.0123
893.00,0.0126
892.00,0.0130
891.00,0.0134
890.00,0.0139
889.00,0.0145
888.00,0.0152
887.00,0.0160
886.00,0.0168
885.00,0.0177
884.00,0.0186
883.00,0.0196
882.00,0.0207
881.00,0.0219
880.00,0.0232
879.00,0.0247
878.00,0.0263
877.00,0.0281
876.00,0.0299
875.00,0.0319
874.00,0.0340
873.00,0.0362
872.00,0.0384
871.00,0.0405
870.00,0.0425
869.00,0.0443
868.00,0.0459
867.00,0.0472
866.00,0.0481
865.00,0.0486
864.00,0.0486
863.00,0.0483
862.00,0.0478
861.00,0.0471
860.00,0.0464
859.00,0.0457
858.00,0.0452
857.00,0.0449
856.00,0.0449
855.00,0.0451
854.00,0.0457
853.00,0.0466
852.00,0.0478
851.00,0.0493
850.00,0.0509
849.00,0.0525
848.00,0.0540
847.00,0.0554
846.00,0.0566
845.00,0.0575
844.00,0.0579
843.00,0.0578
842.00,0.0572
841.00,0.0561
840.00,0.0547
839.00,0.0530
838.00,0.0512
837.00,0.0494
836.00,0.0477
835.00,0.0464
834.00,0.0456
833.00,0.0451
832.00,0.0451
831.00,0.0455
830.00,0.0462
829.00,0.0475
828.00,0.0494
827.00,0.0518
826.00,0.0548
825.00,0.0583
824.00,0.0622
823.00,0.0663
822.00,0.0705
821.00,0.0744
820.00,0.0779
819.00,0.0810
818.00,0.0837
817.00,0.0863
816.00,0.0888
815.00,0.0913
814.00,0.0941
813.00,0.0970
812.00,0.1003
811.00,0.1041
810.00,0.1083
809.00,0.1130
808.00,0.1181
807.00,0.1235
806.00,0.1293
805.00,0.1354
804.00,0.1417
803.00,0.1481
802.00,0.1543
801.00,0.1601
800.00,0.1653
