Created as New Dataset,Sample 227 By irlear Date Friday, April 24 2009
cm-1,A
4000.00,0.0004
3999.00,0.0004
3998.00,0.0004
3997.00,0.0005
3996.00,0.0005
3995.00,0.0004
3994.00,0.0004
3993.00,0.0004
3992.00,0.0003
3991.00,0.0003
3990.00,0.0003
3989.00,0.0003
3988.00,0.0004
3987.00,0.0004
3986.00,0.0004
3985.00,0.0004
3984.00,0.0004
3983.00,0.0004
3982.00,0.0004
3981.00,0.0004
3980.00,0.0004
3979.00,0.0004
3978.00,0.0004
3977.00,0.0004
3976.00,0.0004
3975.00,0.0004
3974.00,0.0004
3973.00,0.0004
3972.00,0.0004
3971.00,0.0004
3970.00,0.0004
3969.00,0.0004
3968.00,0.0004
3967.00,0.0004
3966.00,0.0004
3965.00,0.0004
3964.00,0.0003
3963.00,0.0003
3962.00,0.0003
3961.00,0.0003
3960.00,0.0003
3959.00,0.0003
3958.00,0.0003
3957.00,0.0003
3956.00,0.0004
3955.00,0.0004
3954.00,0.0004
3953.00,0.0004
3952.00,0.0003
3951.00,0.0003
3950.00,0.0003
3949.00,0.0003
3948.00,0.0003
3947.00,0.0003
3946.00,0.0004
3945.00,0.0004
3944.00,0.0004
3943.00,0.0004
3942.00,0.0004
3941.00,0.0003
3940.00,0.0003
3939.00,0.0003
3938.00,0.0004
3937.00,0.0004
3936.00,0.0004
3935.00,0.0004
3934.00,0.0004
3933.00,0.0004
3932.00,0.0005
3931.00,0.0005
3930.00,0.0005
3929.00,0.0005
3928.00,0.0005
3927.00,0.0004
3926.00,0.0004
3925.00,0.0004
3924.00,0.0004
3923.00,0.0004
3922.00,0.0004
3921.00,0.0004
3920.00,0.0003
3919.00,0.0003
3918.00,0.0003
3917.00,0.0002
3916.00,0.0002
3915.00,0.0002
3914.00,0.0002
3913.00,0.0003
3912.00,0.0003
3911.00,0.0004
3910.00,0.0003
3909.00,0.0003
3908.00,0.0003
3907.00,0.0003
3906.00,0.0003
3905.00,0.0003
3904.00,0.0004
3903.00,0.0004
3902.00,0.0004
3901.00,0.0003
3900.00,0.0003
3899.00,0.0003
3898.00,0.0003
3897.00,0.0003
3896.00,0.0003
3895.00,0.0002
3894.00,0.0002
3893.00,0.0002
3892.00,0.0003
3891.00,0.0003
3890.00,0.0004
3889.00,0.0004
3888.00,0.0003
3887.00,0.0003
3886.00,0.0002
3885.00,0.0002
3884.00,0.0003
3883.00,0.0003
3882.00,0.0003
3881.00,0.0003
3880.00,0.0003
3879.00,0.0003
3878.00,0.0003
3877.00,0.0003
3876.00,0.0003
3875.00,0.0003
3874.00,0.0003
3873.00,0.0003
3872.00,0.0003
3871.00,0.0003
3870.00,0.0004
3869.00,0.0004
3868.00,0.0004
3867.00,0.0004
3866.00,0.0004
3865.00,0.0004
3864.00,0.0004
3863.00,0.0004
3862.00,0.0003
3861.00,0.0003
3860.00,0.0003
3859.00,0.0003
3858.00,0.0004
3857.00,0.0004
3856.00,0.0004
3855.00,0.0004
3854.00,0.0004
3853.00,0.0003
3852.00,0.0002
3851.00,0.0002
3850.00,0.0002
3849.00,0.0002
3848.00,0.0003
3847.00,0.0004
3846.00,0.0004
3845.00,0.0004
3844.00,0.0004
3843.00,0.0003
3842.00,0.0003
3841.00,0.0002
3840.00,0.0001
3839.00,0.0001
3838.00,0.0002
3837.00,0.0002
3836.00,0.0002
3835.00,0.0002
3834.00,0.0003
3833.00,0.0003
3832.00,0.0004
3831.00,0.0004
3830.00,0.0004
3829.00,0.0004
3828.00,0.0004
3827.00,0.0004
3826.00,0.0004
3825.00,0.0004
3824.00,0.0004
3823.00,0.0004
3822.00,0.0004
3821.00,0.0004
3820.00,0.0004
3819.00,0.0004
3818.00,0.0004
3817.00,0.0004
3816.00,0.0004
3815.00,0.0004
3814.00,0.0005
3813.00,0.0006
3812.00,0.0006
3811.00,0.0006
3810.00,0.0006
3809.00,0.0006
3808.00,0.0006
3807.00,0.0005
3806.00,0.0005
3805.00,0.0004
3804.00,0.0003
3803.00,0.0003
3802.00,0.0004
3801.00,0.0004
3800.00,0.0004
3799.00,0.0004
3798.00,0.0005
3797.00,0.0005
3796.00,0.0005
3795.00,0.0006
3794.00,0.0006
3793.00,0.0006
3792.00,0.0006
3791.00,0.0006
3790.00,0.0006
3789.00,0.0006
3788.00,0.0006
3787.00,0.0005
3786.00,0.0005
3785.00,0.0004
3784.00,0.0004
3783.00,0.0004
3782.00,0.0004
3781.00,0.0004
3780.00,0.0005
3779.00,0.0005
3778.00,0.0005
3777.00,0.0005
3776.00,0.0005
3775.00,0.0005
3774.00,0.0006
3773.00,0.0005
3772.00,0.0005
3771.00,0.0004
3770.00,0.0004
3769.00,0.0004
3768.00,0.0004
3767.00,0.0005
3766.00,0.0006
3765.00,0.0006
3764.00,0.0007
3763.00,0.0007
3762.00,0.0007
3761.00,0.0007
3760.00,0.0007
3759.00,0.0007
3758.00,0.0006
3757.00,0.0006
3756.00,0.0006
3755.00,0.0006
3754.00,0.0006
3753.00,0.0007
3752.00,0.0007
3751.00,0.0007
3750.00,0.0007
3749.00,0.0007
3748.00,0.0006
3747.00,0.0005
3746.00,0.0005
3745.00,0.0005
3744.00,0.0004
3743.00,0.0004
3742.00,0.0004
3741.00,0.0004
3740.00,0.0004
3739.00,0.0004
3738.00,0.0004
3737.00,0.0003
3736.00,0.0003
3735.00,0.0003
3734.00,0.0003
3733.00,0.0003
3732.00,0.0004
3731.00,0.0004
3730.00,0.0005
3729.00,0.0006
3728.00,0.0006
3727.00,0.0006
3726.00,0.0006
3725.00,0.0006
3724.00,0.0005
3723.00,0.0005
3722.00,0.0005
3721.00,0.0006
3720.00,0.0007
3719.00,0.0007
3718.00,0.0008
3717.00,0.0008
3716.00,0.0008
3715.00,0.0008
3714.00,0.0008
3713.00,0.0008
3712.00,0.0008
3711.00,0.0008
3710.00,0.0008
3709.00,0.0008
3708.00,0.0008
3707.00,0.0008
3706.00,0.0007
3705.00,0.0007
3704.00,0.0007
3703.00,0.0007
3702.00,0.0008
3701.00,0.0008
3700.00,0.0008
3699.00,0.0008
3698.00,0.0008
3697.00,0.0008
3696.00,0.0007
3695.00,0.0007
3694.00,0.0007
3693.00,0.0006
3692.00,0.0006
3691.00,0.0006
3690.00,0.0006
3689.00,0.0006
3688.00,0.0006
3687.00,0.0006
3686.00,0.0006
3685.00,0.0006
3684.00,0.0007
3683.00,0.0007
3682.00,0.0007
3681.00,0.0007
3680.00,0.0007
3679.00,0.0007
3678.00,0.0007
3677.00,0.0007
3676.00,0.0008
3675.00,0.0008
3674.00,0.0007
3673.00,0.0007
3672.00,0.0006
3671.00,0.0006
3670.00,0.0007
3669.00,0.0008
3668.00,0.0009
3667.00,0.0009
3666.00,0.0010
3665.00,0.0010
3664.00,0.0011
3663.00,0.0011
3662.00,0.0011
3661.00,0.0011
3660.00,0.0010
3659.00,0.0010
3658.00,0.0010
3657.00,0.0010
3656.00,0.0011
3655.00,0.0012
3654.00,0.0013
3653.00,0.0013
3652.00,0.0013
3651.00,0.0012
3650.00,0.0012
3649.00,0.0012
3648.00,0.0011
3647.00,0.0011
3646.00,0.0011
3645.00,0.0011
3644.00,0.0012
3643.00,0.0013
3642.00,0.0014
3641.00,0.0014
3640.00,0.0015
3639.00,0.0015
3638.00,0.0015
3637.00,0.0015
3636.00,0.0015
3635.00,0.0015
3634.00,0.0015
3633.00,0.0015
3632.00,0.0015
3631.00,0.0015
3630.00,0.0015
3629.00,0.0015
3628.00,0.0015
3627.00,0.0015
3626.00,0.0015
3625.00,0.0015
3624.00,0.0015
3623.00,0.0015
3622.00,0.0015
3621.00,0.0015
3620.00,0.0016
3619.00,0.0016
3618.00,0.0017
3617.00,0.0018
3616.00,0.0018
3615.00,0.0018
3614.00,0.0019
3613.00,0.0019
3612.00,0.0018
3611.00,0.0018
3610.00,0.0018
3609.00,0.0018
3608.00,0.0018
3607.00,0.0017
3606.00,0.0017
3605.00,0.0017
3604.00,0.0017
3603.00,0.0017
3602.00,0.0018
3601.00,0.0018
3600.00,0.0018
3599.00,0.0018
3598.00,0.0019
3597.00,0.0019
3596.00,0.0019
3595.00,0.0019
3594.00,0.0019
3593.00,0.0019
3592.00,0.0018
3591.00,0.0018
3590.00,0.0018
3589.00,0.0018
3588.00,0.0018
3587.00,0.0018
3586.00,0.0019
3585.00,0.0019
3584.00,0.0020
3583.00,0.0020
3582.00,0.0021
3581.00,0.0021
3580.00,0.0021
3579.00,0.0021
3578.00,0.0021
3577.00,0.0021
3576.00,0.0021
3575.00,0.0021
3574.00,0.0021
3573.00,0.0021
3572.00,0.0021
3571.00,0.0022
3570.00,0.0022
3569.00,0.0021
3568.00,0.0021
3567.00,0.0021
3566.00,0.0021
3565.00,0.0021
3564.00,0.0021
3563.00,0.0022
3562.00,0.0022
3561.00,0.0022
3560.00,0.0022
3559.00,0.0022
3558.00,0.0022
3557.00,0.0022
3556.00,0.0022
3555.00,0.0023
3554.00,0.0023
3553.00,0.0023
3552.00,0.0023
3551.00,0.0023
3550.00,0.0023
3549.00,0.0024
3548.00,0.0024
3547.00,0.0024
3546.00,0.0024
3545.00,0.0024
3544.00,0.0024
3543.00,0.0024
3542.00,0.0024
3541.00,0.0024
3540.00,0.0025
3539.00,0.0025
3538.00,0.0025
3537.00,0.0025
3536.00,0.0025
3535.00,0.0025
3534.00,0.0025
3533.00,0.0025
3532.00,0.0026
3531.00,0.0026
3530.00,0.0026
3529.00,0.0026
3528.00,0.0026
3527.00,0.0026
3526.00,0.0025
3525.00,0.0025
3524.00,0.0025
3523.00,0.0024
3522.00,0.0024
3521.00,0.0024
3520.00,0.0025
3519.00,0.0025
3518.00,0.0025
3517.00,0.0025
3516.00,0.0026
3515.00,0.0026
3514.00,0.0027
3513.00,0.0027
3512.00,0.0028
3511.00,0.0028
3510.00,0.0028
3509.00,0.0028
3508.00,0.0027
3507.00,0.0027
3506.00,0.0027
3505.00,0.0027
3504.00,0.0027
3503.00,0.0027
3502.00,0.0026
3501.00,0.0026
3500.00,0.0026
3499.00,0.0027
3498.00,0.0027
3497.00,0.0028
3496.00,0.0028
3495.00,0.0029
3494.00,0.0029
3493.00,0.0030
3492.00,0.0030
3491.00,0.0029
3490.00,0.0029
3489.00,0.0028
3488.00,0.0028
3487.00,0.0028
3486.00,0.0029
3485.00,0.0029
3484.00,0.0029
3483.00,0.0028
3482.00,0.0028
3481.00,0.0028
3480.00,0.0028
3479.00,0.0028
3478.00,0.0028
3477.00,0.0029
3476.00,0.0029
3475.00,0.0029
3474.00,0.0029
3473.00,0.0029
3472.00,0.0029
3471.00,0.0029
3470.00,0.0029
3469.00,0.0028
3468.00,0.0028
3467.00,0.0028
3466.00,0.0029
3465.00,0.0029
3464.00,0.0029
3463.00,0.0029
3462.00,0.0030
3461.00,0.0030
3460.00,0.0030
3459.00,0.0030
3458.00,0.0030
3457.00,0.0030
3456.00,0.0030
3455.00,0.0030
3454.00,0.0029
3453.00,0.0029
3452.00,0.0029
3451.00,0.0029
3450.00,0.0030
3449.00,0.0030
3448.00,0.0029
3447.00,0.0029
3446.00,0.0029
3445.00,0.0029
3444.00,0.0029
3443.00,0.0029
3442.00,0.0030
3441.00,0.0030
3440.00,0.0030
3439.00,0.0029
3438.00,0.0029
3437.00,0.0029
3436.00,0.0029
3435.00,0.0029
3434.00,0.0029
3433.00,0.0029
3432.00,0.0030
3431.00,0.0030
3430.00,0.0030
3429.00,0.0030
3428.00,0.0030
3427.00,0.0030
3426.00,0.0030
3425.00,0.0030
3424.00,0.0030
3423.00,0.0030
3422.00,0.0030
3421.00,0.0030
3420.00,0.0029
3419.00,0.0029
3418.00,0.0030
3417.00,0.0030
3416.00,0.0030
3415.00,0.0030
3414.00,0.0030
3413.00,0.0030
3412.00,0.0029
3411.00,0.0029
3410.00,0.0030
3409.00,0.0030
3408.00,0.0030
3407.00,0.0030
3406.00,0.0030
3405.00,0.0030
3404.00,0.0030
3403.00,0.0030
3402.00,0.0030
3401.00,0.0030
3400.00,0.0030
3399.00,0.0030
3398.00,0.0029
3397.00,0.0029
3396.00,0.0029
3395.00,0.0029
3394.00,0.0029
3393.00,0.0029
3392.00,0.0029
3391.00,0.0029
3390.00,0.0030
3389.00,0.0030
3388.00,0.0029
3387.00,0.0029
3386.00,0.0029
3385.00,0.0029
3384.00,0.0029
3383.00,0.0029
3382.00,0.0029
3381.00,0.0030
3380.00,0.0030
3379.00,0.0029
3378.00,0.0029
3377.00,0.0029
3376.00,0.0028
3375.00,0.0028
3374.00,0.0028
3373.00,0.0028
3372.00,0.0028
3371.00,0.0028
3370.00,0.0028
3369.00,0.0028
3368.00,0.0028
3367.00,0.0028
3366.00,0.0028
3365.00,0.0028
3364.00,0.0028
3363.00,0.0028
3362.00,0.0028
3361.00,0.0027
3360.00,0.0027
3359.00,0.0027
3358.00,0.0027
3357.00,0.0027
3356.00,0.0027
3355.00,0.0027
3354.00,0.0027
3353.00,0.0028
3352.00,0.0027
3351.00,0.0027
3350.00,0.0027
3349.00,0.0026
3348.00,0.0026
3347.00,0.0026
3346.00,0.0026
3345.00,0.0026
3344.00,0.0026
3343.00,0.0026
3342.00,0.0026
3341.00,0.0026
3340.00,0.0026
3339.00,0.0026
3338.00,0.0025
3337.00,0.0025
3336.00,0.0025
3335.00,0.0025
3334.00,0.0025
3333.00,0.0026
3332.00,0.0026
3331.00,0.0025
3330.00,0.0025
3329.00,0.0025
3328.00,0.0025
3327.00,0.0025
3326.00,0.0026
3325.00,0.0026
3324.00,0.0026
3323.00,0.0025
3322.00,0.0025
3321.00,0.0024
3320.00,0.0024
3319.00,0.0024
3318.00,0.0024
3317.00,0.0024
3316.00,0.0024
3315.00,0.0024
3314.00,0.0024
3313.00,0.0024
3312.00,0.0024
3311.00,0.0024
3310.00,0.0024
3309.00,0.0024
3308.00,0.0024
3307.00,0.0024
3306.00,0.0025
3305.00,0.0025
3304.00,0.0025
3303.00,0.0025
3302.00,0.0025
3301.00,0.0025
3300.00,0.0024
3299.00,0.0024
3298.00,0.0023
3297.00,0.0022
3296.00,0.0022
3295.00,0.0022
3294.00,0.0022
3293.00,0.0022
3292.00,0.0022
3291.00,0.0022
3290.00,0.0023
3289.00,0.0023
3288.00,0.0023
3287.00,0.0024
3286.00,0.0024
3285.00,0.0024
3284.00,0.0024
3283.00,0.0024
3282.00,0.0023
3281.00,0.0023
3280.00,0.0023
3279.00,0.0023
3278.00,0.0023
3277.00,0.0023
3276.00,0.0023
3275.00,0.0023
3274.00,0.0023
3273.00,0.0022
3272.00,0.0022
3271.00,0.0022
3270.00,0.0023
3269.00,0.0023
3268.00,0.0023
3267.00,0.0023
3266.00,0.0022
3265.00,0.0022
3264.00,0.0022
3263.00,0.0021
3262.00,0.0021
3261.00,0.0021
3260.00,0.0021
3259.00,0.0021
3258.00,0.0021
3257.00,0.0021
3256.00,0.0021
3255.00,0.0021
3254.00,0.0021
3253.00,0.0021
3252.00,0.0022
3251.00,0.0022
3250.00,0.0022
3249.00,0.0021
3248.00,0.0021
3247.00,0.0021
3246.00,0.0020
3245.00,0.0020
3244.00,0.0020
3243.00,0.0019
3242.00,0.0019
3241.00,0.0019
3240.00,0.0019
3239.00,0.0019
3238.00,0.0019
3237.00,0.0019
3236.00,0.0018
3235.00,0.0018
3234.00,0.0018
3233.00,0.0019
3232.00,0.0019
3231.00,0.0020
3230.00,0.0020
3229.00,0.0020
3228.00,0.0020
3227.00,0.0019
3226.00,0.0020
3225.00,0.0020
3224.00,0.0020
3223.00,0.0020
3222.00,0.0020
3221.00,0.0020
3220.00,0.0019
3219.00,0.0019
3218.00,0.0019
3217.00,0.0019
3216.00,0.0019
3215.00,0.0019
3214.00,0.0019
3213.00,0.0019
3212.00,0.0019
3211.00,0.0018
3210.00,0.0018
3209.00,0.0018
3208.00,0.0018
3207.00,0.0018
3206.00,0.0018
3205.00,0.0018
3204.00,0.0018
3203.00,0.0018
3202.00,0.0018
3201.00,0.0019
3200.00,0.0019
3199.00,0.0019
3198.00,0.0019
3197.00,0.0019
3196.00,0.0019
3195.00,0.0019
3194.00,0.0019
3193.00,0.0018
3192.00,0.0018
3191.00,0.0017
3190.00,0.0017
3189.00,0.0016
3188.00,0.0016
3187.00,0.0017
3186.00,0.0017
3185.00,0.0017
3184.00,0.0017
3183.00,0.0017
3182.00,0.0017
3181.00,0.0017
3180.00,0.0016
3179.00,0.0016
3178.00,0.0017
3177.00,0.0017
3176.00,0.0017
3175.00,0.0017
3174.00,0.0016
3173.00,0.0016
3172.00,0.0016
3171.00,0.0015
3170.00,0.0015
3169.00,0.0015
3168.00,0.0016
3167.00,0.0016
3166.00,0.0016
3165.00,0.0016
3164.00,0.0016
3163.00,0.0016
3162.00,0.0016
3161.00,0.0016
3160.00,0.0016
3159.00,0.0016
3158.00,0.0016
3157.00,0.0016
3156.00,0.0016
3155.00,0.0016
3154.00,0.0016
3153.00,0.0016
3152.00,0.0016
3151.00,0.0015
3150.00,0.0015
3149.00,0.0015
3148.00,0.0015
3147.00,0.0015
3146.00,0.0015
3145.00,0.0015
3144.00,0.0015
3143.00,0.0015
3142.00,0.0015
3141.00,0.0014
3140.00,0.0014
3139.00,0.0014
3138.00,0.0014
3137.00,0.0014
3136.00,0.0014
3135.00,0.0014
3134.00,0.0014
3133.00,0.0014
3132.00,0.0014
3131.00,0.0014
3130.00,0.0014
3129.00,0.0014
3128.00,0.0014
3127.00,0.0015
3126.00,0.0015
3125.00,0.0015
3124.00,0.0016
3123.00,0.0016
3122.00,0.0016
3121.00,0.0016
3120.00,0.0016
3119.00,0.0015
3118.00,0.0015
3117.00,0.0015
3116.00,0.0015
3115.00,0.0016
3114.00,0.0016
3113.00,0.0016
3112.00,0.0016
3111.00,0.0016
3110.00,0.0016
3109.00,0.0016
3108.00,0.0015
3107.00,0.0015
3106.00,0.0015
3105.00,0.0015
3104.00,0.0015
3103.00,0.0016
3102.00,0.0015
3101.00,0.0015
3100.00,0.0015
3099.00,0.0014
3098.00,0.0014
3097.00,0.0014
3096.00,0.0014
3095.00,0.0014
3094.00,0.0014
3093.00,0.0014
3092.00,0.0014
3091.00,0.0014
3090.00,0.0014
3089.00,0.0014
3088.00,0.0014
3087.00,0.0014
3086.00,0.0013
3085.00,0.0013
3084.00,0.0013
3083.00,0.0013
3082.00,0.0013
3081.00,0.0013
3080.00,0.0014
3079.00,0.0015
3078.00,0.0015
3077.00,0.0015
3076.00,0.0015
3075.00,0.0015
3074.00,0.0014
3073.00,0.0014
3072.00,0.0014
3071.00,0.0014
3070.00,0.0014
3069.00,0.0014
3068.00,0.0015
3067.00,0.0015
3066.00,0.0015
3065.00,0.0015
3064.00,0.0015
3063.00,0.0015
3062.00,0.0015
3061.00,0.0015
3060.00,0.0016
3059.00,0.0016
3058.00,0.0017
3057.00,0.0017
3056.00,0.0017
3055.00,0.0017
3054.00,0.0017
3053.00,0.0017
3052.00,0.0017
3051.00,0.0017
3050.00,0.0017
3049.00,0.0016
3048.00,0.0015
3047.00,0.0015
3046.00,0.0014
3045.00,0.0014
3044.00,0.0013
3043.00,0.0013
3042.00,0.0012
3041.00,0.0012
3040.00,0.0012
3039.00,0.0012
3038.00,0.0012
3037.00,0.0013
3036.00,0.0013
3035.00,0.0013
3034.00,0.0014
3033.00,0.0014
3032.00,0.0014
3031.00,0.0014
3030.00,0.0015
3029.00,0.0015
3028.00,0.0015
3027.00,0.0015
3026.00,0.0015
3025.00,0.0015
3024.00,0.0014
3023.00,0.0014
3022.00,0.0014
3021.00,0.0015
3020.00,0.0016
3019.00,0.0016
3018.00,0.0017
3017.00,0.0017
3016.00,0.0017
3015.00,0.0017
3014.00,0.0017
3013.00,0.0017
3012.00,0.0016
3011.00,0.0016
3010.00,0.0016
3009.00,0.0016
3008.00,0.0016
3007.00,0.0016
3006.00,0.0017
3005.00,0.0017
3004.00,0.0018
3003.00,0.0019
3002.00,0.0019
3001.00,0.0019
3000.00,0.0019
2999.00,0.0020
2998.00,0.0020
2997.00,0.0020
2996.00,0.0021
2995.00,0.0022
2994.00,0.0023
2993.00,0.0024
2992.00,0.0025
2991.00,0.0026
2990.00,0.0028
2989.00,0.0029
2988.00,0.0031
2987.00,0.0033
2986.00,0.0035
2985.00,0.0037
2984.00,0.0041
2983.00,0.0044
2982.00,0.0048
2981.00,0.0053
2980.00,0.0059
2979.00,0.0065
2978.00,0.0072
2977.00,0.0080
2976.00,0.0089
2975.00,0.0100
2974.00,0.0112
2973.00,0.0126
2972.00,0.0141
2971.00,0.0158
2970.00,0.0176
2969.00,0.0196
2968.00,0.0216
2967.00,0.0235
2966.00,0.0252
2965.00,0.0266
2964.00,0.0276
2963.00,0.0281
2962.00,0.0281
2961.00,0.0275
2960.00,0.0264
2959.00,0.0249
2958.00,0.0230
2957.00,0.0211
2956.00,0.0190
2955.00,0.0171
2954.00,0.0153
2953.00,0.0136
2952.00,0.0121
2951.00,0.0108
2950.00,0.0097
2949.00,0.0087
2948.00,0.0078
2947.00,0.0071
2946.00,0.0064
2945.00,0.0059
2944.00,0.0054
2943.00,0.0050
2942.00,0.0047
2941.00,0.0044
2940.00,0.0041
2939.00,0.0039
2938.00,0.0037
2937.00,0.0035
2936.00,0.0033
2935.00,0.0031
2934.00,0.0030
2933.00,0.0028
2932.00,0.0027
2931.00,0.0027
2930.00,0.0026
2929.00,0.0026
2928.00,0.0025
2927.00,0.0024
2926.00,0.0024
2925.00,0.0023
2924.00,0.0023
2923.00,0.0023
2922.00,0.0023
2921.00,0.0023
2920.00,0.0024
2919.00,0.0024
2918.00,0.0025
2917.00,0.0026
2916.00,0.0027
2915.00,0.0028
2914.00,0.0030
2913.00,0.0032
2912.00,0.0034
2911.00,0.0036
2910.00,0.0038
2909.00,0.0040
2908.00,0.0042
2907.00,0.0044
2906.00,0.0045
2905.00,0.0045
2904.00,0.0045
2903.00,0.0045
2902.00,0.0044
2901.00,0.0042
2900.00,0.0041
2899.00,0.0039
2898.00,0.0037
2897.00,0.0035
2896.00,0.0033
2895.00,0.0031
2894.00,0.0029
2893.00,0.0028
2892.00,0.0026
2891.00,0.0025
2890.00,0.0024
2889.00,0.0023
2888.00,0.0022
2887.00,0.0021
2886.00,0.0021
2885.00,0.0020
2884.00,0.0019
2883.00,0.0019
2882.00,0.0018
2881.00,0.0018
2880.00,0.0017
2879.00,0.0017
2878.00,0.0017
2877.00,0.0016
2876.00,0.0016
2875.00,0.0016
2874.00,0.0015
2873.00,0.0015
2872.00,0.0014
2871.00,0.0014
2870.00,0.0013
2869.00,0.0013
2868.00,0.0013
2867.00,0.0012
2866.00,0.0012
2865.00,0.0012
2864.00,0.0012
2863.00,0.0012
2862.00,0.0012
2861.00,0.0012
2860.00,0.0012
2859.00,0.0012
2858.00,0.0012
2857.00,0.0012
2856.00,0.0012
2855.00,0.0011
2854.00,0.0011
2853.00,0.0011
2852.00,0.0011
2851.00,0.0010
2850.00,0.0010
2849.00,0.0010
2848.00,0.0010
2847.00,0.0010
2846.00,0.0011
2845.00,0.0011
2844.00,0.0012
2843.00,0.0012
2842.00,0.0012
2841.00,0.0012
2840.00,0.0012
2839.00,0.0011
2838.00,0.0011
2837.00,0.0011
2836.00,0.0010
2835.00,0.0011
2834.00,0.0011
2833.00,0.0011
2832.00,0.0011
2831.00,0.0011
2830.00,0.0011
2829.00,0.0011
2828.00,0.0011
2827.00,0.0011
2826.00,0.0011
2825.00,0.0011
2824.00,0.0011
2823.00,0.0011
2822.00,0.0011
2821.00,0.0011
2820.00,0.0011
2819.00,0.0011
2818.00,0.0012
2817.00,0.0012
2816.00,0.0012
2815.00,0.0011
2814.00,0.0011
2813.00,0.0011
2812.00,0.0011
2811.00,0.0011
2810.00,0.0011
2809.00,0.0011
2808.00,0.0011
2807.00,0.0011
2806.00,0.0011
2805.00,0.0011
2804.00,0.0011
2803.00,0.0011
2802.00,0.0011
2801.00,0.0011
2800.00,0.0011
2799.00,0.0011
2798.00,0.0012
2797.00,0.0012
2796.00,0.0011
2795.00,0.0011
2794.00,0.0011
2793.00,0.0011
2792.00,0.0011
2791.00,0.0011
2790.00,0.0011
2789.00,0.0011
2788.00,0.0010
2787.00,0.0010
2786.00,0.0009
2785.00,0.0009
2784.00,0.0009
2783.00,0.0009
2782.00,0.0009
2781.00,0.0009
2780.00,0.0008
2779.00,0.0008
2778.00,0.0007
2777.00,0.0007
2776.00,0.0007
2775.00,0.0007
2774.00,0.0007
2773.00,0.0006
2772.00,0.0006
2771.00,0.0006
2770.00,0.0006
2769.00,0.0007
2768.00,0.0007
2767.00,0.0007
2766.00,0.0007
2765.00,0.0007
2764.00,0.0007
2763.00,0.0006
2762.00,0.0006
2761.00,0.0006
2760.00,0.0006
2759.00,0.0006
2758.00,0.0006
2757.00,0.0006
2756.00,0.0006
2755.00,0.0006
2754.00,0.0006
2753.00,0.0006
2752.00,0.0006
2751.00,0.0006
2750.00,0.0006
2749.00,0.0006
2748.00,0.0006
2747.00,0.0005
2746.00,0.0005
2745.00,0.0006
2744.00,0.0006
2743.00,0.0006
2742.00,0.0006
2741.00,0.0006
2740.00,0.0005
2739.00,0.0005
2738.00,0.0005
2737.00,0.0005
2736.00,0.0005
2735.00,0.0005
2734.00,0.0005
2733.00,0.0005
2732.00,0.0006
2731.00,0.0006
2730.00,0.0006
2729.00,0.0006
2728.00,0.0006
2727.00,0.0005
2726.00,0.0005
2725.00,0.0005
2724.00,0.0004
2723.00,0.0004
2722.00,0.0004
2721.00,0.0004
2720.00,0.0004
2719.00,0.0004
2718.00,0.0004
2717.00,0.0004
2716.00,0.0004
2715.00,0.0004
2714.00,0.0004
2713.00,0.0004
2712.00,0.0004
2711.00,0.0004
2710.00,0.0004
2709.00,0.0005
2708.00,0.0005
2707.00,0.0005
2706.00,0.0005
2705.00,0.0004
2704.00,0.0004
2703.00,0.0005
2702.00,0.0005
2701.00,0.0005
2700.00,0.0005
2699.00,0.0005
2698.00,0.0005
2697.00,0.0005
2696.00,0.0005
2695.00,0.0004
2694.00,0.0004
2693.00,0.0004
2692.00,0.0004
2691.00,0.0004
2690.00,0.0004
2689.00,0.0005
2688.00,0.0005
2687.00,0.0004
2686.00,0.0004
2685.00,0.0005
2684.00,0.0005
2683.00,0.0005
2682.00,0.0005
2681.00,0.0005
2680.00,0.0005
2679.00,0.0005
2678.00,0.0006
2677.00,0.0006
2676.00,0.0006
2675.00,0.0006
2674.00,0.0006
2673.00,0.0005
2672.00,0.0005
2671.00,0.0005
2670.00,0.0005
2669.00,0.0006
2668.00,0.0006
2667.00,0.0006
2666.00,0.0006
2665.00,0.0006
2664.00,0.0005
2663.00,0.0005
2662.00,0.0005
2661.00,0.0005
2660.00,0.0004
2659.00,0.0004
2658.00,0.0004
2657.00,0.0005
2656.00,0.0005
2655.00,0.0005
2654.00,0.0005
2653.00,0.0005
2652.00,0.0004
2651.00,0.0005
2650.00,0.0005
2649.00,0.0005
2648.00,0.0005
2647.00,0.0005
2646.00,0.0004
2645.00,0.0004
2644.00,0.0004
2643.00,0.0004
2642.00,0.0003
2641.00,0.0003
2640.00,0.0003
2639.00,0.0003
2638.00,0.0003
2637.00,0.0003
2636.00,0.0003
2635.00,0.0002
2634.00,0.0002
2633.00,0.0002
2632.00,0.0001
2631.00,0.0001
2630.00,0.0002
2629.00,0.0002
2628.00,0.0002
2627.00,0.0002
2626.00,0.0002
2625.00,0.0001
2624.00,0.0001
2623.00,0.0001
2622.00,0.0001
2621.00,0.0001
2620.00,0.0002
2619.00,0.0002
2618.00,0.0003
2617.00,0.0003
2616.00,0.0003
2615.00,0.0002
2614.00,0.0002
2613.00,0.0001
2612.00,0.0001
2611.00,0.0001
2610.00,0.0001
2609.00,0.0001
2608.00,0.0001
2607.00,0.0001
2606.00,0.0001
2605.00,0.0001
2604.00,0.0002
2603.00,0.0002
2602.00,0.0002
2601.00,0.0002
2600.00,0.0001
2599.00,0.0001
2598.00,0.0001
2597.00,0.0001
2596.00,0.0001
2595.00,0.0001
2594.00,0.0002
2593.00,0.0002
2592.00,0.0001
2591.00,0.0001
2590.00,0.0001
2589.00,0.0002
2588.00,0.0002
2587.00,0.0002
2586.00,0.0002
2585.00,0.0002
2584.00,0.0002
2583.00,0.0001
2582.00,0.0001
2581.00,0.0001
2580.00,0.0001
2579.00,0.0001
2578.00,0.0001
2577.00,0.0001
2576.00,0.0001
2575.00,0.0001
2574.00,0.0001
2573.00,0.0000
2572.00,0.0000
2571.00,0.0001
2570.00,0.0001
2569.00,0.0001
2568.00,0.0001
2567.00,0.0002
2566.00,0.0002
2565.00,0.0002
2564.00,0.0002
2563.00,0.0001
2562.00,0.0001
2561.00,0.0001
2560.00,0.0000
2559.00,-0.0000
2558.00,-0.0001
2557.00,-0.0001
2556.00,-0.0000
2555.00,-0.0000
2554.00,-0.0000
2553.00,-0.0000
2552.00,-0.0000
2551.00,0.0000
2550.00,0.0000
2549.00,-0.0000
2548.00,-0.0001
2547.00,-0.0001
2546.00,-0.0002
2545.00,-0.0002
2544.00,-0.0001
2543.00,-0.0001
2542.00,-0.0001
2541.00,-0.0001
2540.00,-0.0001
2539.00,-0.0001
2538.00,-0.0000
2537.00,-0.0000
2536.00,-0.0000
2535.00,-0.0001
2534.00,-0.0001
2533.00,-0.0001
2532.00,-0.0002
2531.00,-0.0003
2530.00,-0.0004
2529.00,-0.0004
2528.00,-0.0005
2527.00,-0.0005
2526.00,-0.0005
2525.00,-0.0004
2524.00,-0.0004
2523.00,-0.0004
2522.00,-0.0004
2521.00,-0.0004
2520.00,-0.0005
2519.00,-0.0005
2518.00,-0.0004
2517.00,-0.0004
2516.00,-0.0003
2515.00,-0.0002
2514.00,-0.0001
2513.00,-0.0001
2512.00,-0.0001
2511.00,-0.0001
2510.00,-0.0001
2509.00,-0.0001
2508.00,-0.0001
2507.00,-0.0002
2506.00,-0.0002
2505.00,-0.0003
2504.00,-0.0003
2503.00,-0.0002
2502.00,-0.0001
2501.00,-0.0000
2500.00,0.0001
2499.00,0.0001
2498.00,0.0002
2497.00,0.0002
2496.00,0.0002
2495.00,0.0002
2494.00,0.0002
2493.00,0.0002
2492.00,0.0002
2491.00,0.0002
2490.00,0.0001
2489.00,0.0000
2488.00,-0.0000
2487.00,-0.0001
2486.00,-0.0001
2485.00,-0.0001
2484.00,-0.0000
2483.00,-0.0000
2482.00,0.0000
2481.00,-0.0000
2480.00,-0.0000
2479.00,-0.0000
2478.00,-0.0000
2477.00,-0.0000
2476.00,-0.0001
2475.00,-0.0001
2474.00,-0.0002
2473.00,-0.0002
2472.00,-0.0002
2471.00,-0.0001
2470.00,-0.0001
2469.00,-0.0000
2468.00,-0.0000
2467.00,-0.0000
2466.00,-0.0001
2465.00,-0.0001
2464.00,-0.0000
2463.00,-0.0000
2462.00,-0.0000
2461.00,-0.0000
2460.00,-0.0001
2459.00,-0.0001
2458.00,-0.0001
2457.00,-0.0001
2456.00,0.0000
2455.00,0.0000
2454.00,0.0001
2453.00,0.0001
2452.00,0.0001
2451.00,0.0002
2450.00,0.0002
2449.00,0.0002
2448.00,0.0002
2447.00,0.0001
2446.00,0.0001
2445.00,-0.0000
2444.00,-0.0001
2443.00,-0.0001
2442.00,-0.0001
2441.00,-0.0001
2440.00,-0.0000
2439.00,0.0001
2438.00,0.0001
2437.00,0.0001
2436.00,0.0001
2435.00,0.0001
2434.00,0.0000
2433.00,0.0000
2432.00,0.0001
2431.00,0.0001
2430.00,0.0002
2429.00,0.0002
2428.00,0.0002
2427.00,0.0001
2426.00,0.0000
2425.00,-0.0000
2424.00,-0.0000
2423.00,-0.0000
2422.00,-0.0000
2421.00,-0.0000
2420.00,-0.0001
2419.00,-0.0001
2418.00,-0.0001
2417.00,-0.0000
2416.00,-0.0000
2415.00,0.0000
2414.00,0.0000
2413.00,-0.0000
2412.00,-0.0001
2411.00,-0.0001
2410.00,-0.0001
2409.00,-0.0001
2408.00,-0.0001
2407.00,-0.0000
2406.00,0.0000
2405.00,0.0000
2404.00,0.0000
2403.00,0.0001
2402.00,0.0001
2401.00,0.0001
2400.00,0.0001
2399.00,0.0000
2398.00,0.0000
2397.00,-0.0000
2396.00,-0.0000
2395.00,-0.0000
2394.00,0.0000
2393.00,0.0000
2392.00,0.0000
2391.00,-0.0000
2390.00,-0.0001
2389.00,-0.0001
2388.00,-0.0001
2387.00,-0.0000
2386.00,0.0000
2385.00,0.0001
2384.00,0.0001
2383.00,0.0001
2382.00,0.0001
2381.00,0.0001
2380.00,0.0001
2379.00,0.0001
2378.00,0.0001
2377.00,0.0000
2376.00,0.0000
2375.00,0.0000
2374.00,0.0000
2373.00,0.0001
2372.00,0.0001
2371.00,0.0002
2370.00,0.0003
2369.00,0.0004
2368.00,0.0004
2367.00,0.0004
2366.00,0.0003
2365.00,0.0001
2364.00,0.0001
2363.00,0.0000
2362.00,0.0001
2361.00,0.0001
2360.00,0.0002
2359.00,0.0003
2358.00,0.0004
2357.00,0.0004
2356.00,0.0005
2355.00,0.0005
2354.00,0.0004
2353.00,0.0003
2352.00,0.0002
2351.00,0.0002
2350.00,0.0003
2349.00,0.0003
2348.00,0.0003
2347.00,0.0003
2346.00,0.0003
2345.00,0.0002
2344.00,0.0001
2343.00,0.0000
2342.00,-0.0001
2341.00,-0.0001
2340.00,-0.0000
2339.00,0.0000
2338.00,0.0001
2337.00,0.0003
2336.00,0.0003
2335.00,0.0004
2334.00,0.0004
2333.00,0.0004
2332.00,0.0003
2331.00,0.0003
2330.00,0.0004
2329.00,0.0004
2328.00,0.0004
2327.00,0.0003
2326.00,0.0002
2325.00,0.0001
2324.00,0.0000
2323.00,-0.0000
2322.00,-0.0000
2321.00,-0.0000
2320.00,0.0001
2319.00,0.0002
2318.00,0.0002
2317.00,0.0003
2316.00,0.0002
2315.00,0.0002
2314.00,0.0001
2313.00,0.0001
2312.00,0.0002
2311.00,0.0002
2310.00,0.0002
2309.00,0.0001
2308.00,0.0000
2307.00,-0.0000
2306.00,-0.0001
2305.00,-0.0000
2304.00,0.0000
2303.00,0.0001
2302.00,0.0002
2301.00,0.0002
2300.00,0.0003
2299.00,0.0003
2298.00,0.0002
2297.00,0.0002
2296.00,0.0001
2295.00,0.0001
2294.00,0.0000
2293.00,-0.0000
2292.00,-0.0000
2291.00,-0.0001
2290.00,-0.0001
2289.00,-0.0002
2288.00,-0.0002
2287.00,-0.0003
2286.00,-0.0002
2285.00,-0.0002
2284.00,-0.0001
2283.00,-0.0001
2282.00,-0.0001
2281.00,-0.0002
2280.00,-0.0002
2279.00,-0.0002
2278.00,-0.0002
2277.00,-0.0001
2276.00,-0.0001
2275.00,-0.0000
2274.00,-0.0001
2273.00,-0.0001
2272.00,-0.0002
2271.00,-0.0002
2270.00,-0.0001
2269.00,-0.0000
2268.00,0.0000
2267.00,-0.0001
2266.00,-0.0002
2265.00,-0.0003
2264.00,-0.0003
2263.00,-0.0003
2262.00,-0.0003
2261.00,-0.0002
2260.00,-0.0002
2259.00,-0.0001
2258.00,-0.0001
2257.00,-0.0001
2256.00,-0.0001
2255.00,-0.0001
2254.00,-0.0002
2253.00,-0.0002
2252.00,-0.0002
2251.00,-0.0002
2250.00,-0.0001
2249.00,-0.0000
2248.00,-0.0000
2247.00,-0.0001
2246.00,-0.0002
2245.00,-0.0002
2244.00,-0.0002
2243.00,-0.0002
2242.00,-0.0001
2241.00,-0.0001
2240.00,-0.0000
2239.00,-0.0000
2238.00,-0.0001
2237.00,-0.0001
2236.00,-0.0002
2235.00,-0.0002
2234.00,-0.0002
2233.00,-0.0002
2232.00,-0.0003
2231.00,-0.0003
2230.00,-0.0004
2229.00,-0.0003
2228.00,-0.0003
2227.00,-0.0002
2226.00,-0.0002
2225.00,-0.0003
2224.00,-0.0004
2223.00,-0.0004
2222.00,-0.0005
2221.00,-0.0005
2220.00,-0.0005
2219.00,-0.0005
2218.00,-0.0004
2217.00,-0.0005
2216.00,-0.0006
2215.00,-0.0007
2214.00,-0.0008
2213.00,-0.0009
2212.00,-0.0008
2211.00,-0.0007
2210.00,-0.0006
2209.00,-0.0004
2208.00,-0.0004
2207.00,-0.0003
2206.00,-0.0003
2205.00,-0.0003
2204.00,-0.0002
2203.00,-0.0002
2202.00,-0.0002
2201.00,-0.0003
2200.00,-0.0004
2199.00,-0.0004
2198.00,-0.0004
2197.00,-0.0004
2196.00,-0.0005
2195.00,-0.0005
2194.00,-0.0006
2193.00,-0.0007
2192.00,-0.0006
2191.00,-0.0005
2190.00,-0.0003
2189.00,-0.0003
2188.00,-0.0003
2187.00,-0.0002
2186.00,-0.0002
2185.00,-0.0001
2184.00,-0.0000
2183.00,-0.0000
2182.00,-0.0001
2181.00,-0.0001
2180.00,-0.0002
2179.00,-0.0003
2178.00,-0.0004
2177.00,-0.0005
2176.00,-0.0004
2175.00,-0.0003
2174.00,-0.0000
2173.00,0.0002
2172.00,0.0005
2171.00,0.0006
2170.00,0.0006
2169.00,0.0005
2168.00,0.0004
2167.00,0.0003
2166.00,0.0001
2165.00,-0.0002
2164.00,-0.0004
2163.00,-0.0006
2162.00,-0.0007
2161.00,-0.0006
2160.00,-0.0003
2159.00,-0.0000
2158.00,0.0002
2157.00,0.0003
2156.00,0.0003
2155.00,0.0001
2154.00,-0.0002
2153.00,-0.0004
2152.00,-0.0005
2151.00,-0.0005
2150.00,-0.0004
2149.00,-0.0003
2148.00,-0.0003
2147.00,-0.0003
2146.00,-0.0004
2145.00,-0.0004
2144.00,-0.0004
2143.00,-0.0005
2142.00,-0.0005
2141.00,-0.0005
2140.00,-0.0005
2139.00,-0.0004
2138.00,-0.0004
2137.00,-0.0004
2136.00,-0.0005
2135.00,-0.0007
2134.00,-0.0008
2133.00,-0.0009
2132.00,-0.0009
2131.00,-0.0008
2130.00,-0.0008
2129.00,-0.0007
2128.00,-0.0007
2127.00,-0.0006
2126.00,-0.0006
2125.00,-0.0006
2124.00,-0.0007
2123.00,-0.0007
2122.00,-0.0008
2121.00,-0.0008
2120.00,-0.0008
2119.00,-0.0008
2118.00,-0.0007
2117.00,-0.0006
2116.00,-0.0006
2115.00,-0.0006
2114.00,-0.0006
2113.00,-0.0006
2112.00,-0.0006
2111.00,-0.0006
2110.00,-0.0007
2109.00,-0.0007
2108.00,-0.0006
2107.00,-0.0005
2106.00,-0.0003
2105.00,-0.0003
2104.00,-0.0003
2103.00,-0.0003
2102.00,-0.0003
2101.00,-0.0003
2100.00,-0.0002
2099.00,-0.0002
2098.00,-0.0002
2097.00,-0.0003
2096.00,-0.0005
2095.00,-0.0006
2094.00,-0.0007
2093.00,-0.0006
2092.00,-0.0005
2091.00,-0.0004
2090.00,-0.0003
2089.00,-0.0004
2088.00,-0.0005
2087.00,-0.0006
2086.00,-0.0007
2085.00,-0.0007
2084.00,-0.0008
2083.00,-0.0009
2082.00,-0.0009
2081.00,-0.0009
2080.00,-0.0008
2079.00,-0.0008
2078.00,-0.0007
2077.00,-0.0006
2076.00,-0.0005
2075.00,-0.0004
2074.00,-0.0004
2073.00,-0.0004
2072.00,-0.0005
2071.00,-0.0005
2070.00,-0.0005
2069.00,-0.0004
2068.00,-0.0004
2067.00,-0.0004
2066.00,-0.0004
2065.00,-0.0003
2064.00,-0.0003
2063.00,-0.0002
2062.00,-0.0001
2061.00,-0.0001
2060.00,-0.0002
2059.00,-0.0002
2058.00,-0.0003
2057.00,-0.0004
2056.00,-0.0005
2055.00,-0.0006
2054.00,-0.0007
2053.00,-0.0008
2052.00,-0.0008
2051.00,-0.0007
2050.00,-0.0006
2049.00,-0.0004
2048.00,-0.0002
2047.00,-0.0001
2046.00,-0.0001
2045.00,-0.0001
2044.00,-0.0002
2043.00,-0.0002
2042.00,-0.0003
2041.00,-0.0005
2040.00,-0.0007
2039.00,-0.0009
2038.00,-0.0010
2037.00,-0.0009
2036.00,-0.0008
2035.00,-0.0007
2034.00,-0.0006
2033.00,-0.0005
2032.00,-0.0004
2031.00,-0.0004
2030.00,-0.0004
2029.00,-0.0005
2028.00,-0.0005
2027.00,-0.0005
2026.00,-0.0005
2025.00,-0.0006
2024.00,-0.0006
2023.00,-0.0007
2022.00,-0.0008
2021.00,-0.0009
2020.00,-0.0009
2019.00,-0.0009
2018.00,-0.0008
2017.00,-0.0008
2016.00,-0.0007
2015.00,-0.0006
2014.00,-0.0005
2013.00,-0.0004
2012.00,-0.0002
2011.00,-0.0001
2010.00,0.0000
2009.00,0.0000
2008.00,-0.0000
2007.00,-0.0001
2006.00,-0.0002
2005.00,-0.0003
2004.00,-0.0003
2003.00,-0.0003
2002.00,-0.0002
2001.00,-0.0001
2000.00,-0.0001
1999.00,0.0000
1998.00,0.0001
1997.00,0.0001
1996.00,0.0001
1995.00,0.0001
1994.00,0.0001
1993.00,0.0002
1992.00,0.0002
1991.00,0.0001
1990.00,0.0001
1989.00,-0.0000
1988.00,-0.0002
1987.00,-0.0003
1986.00,-0.0004
1985.00,-0.0004
1984.00,-0.0003
1983.00,-0.0002
1982.00,0.0000
1981.00,0.0002
1980.00,0.0002
1979.00,0.0003
1978.00,0.0004
1977.00,0.0005
1976.00,0.0006
1975.00,0.0007
1974.00,0.0007
1973.00,0.0005
1972.00,0.0004
1971.00,0.0002
1970.00,-0.0000
1969.00,-0.0001
1968.00,-0.0001
1967.00,0.0000
1966.00,0.0002
1965.00,0.0003
1964.00,0.0003
1963.00,0.0003
1962.00,0.0004
1961.00,0.0005
1960.00,0.0006
1959.00,0.0006
1958.00,0.0006
1957.00,0.0006
1956.00,0.0005
1955.00,0.0004
1954.00,0.0004
1953.00,0.0004
1952.00,0.0006
1951.00,0.0009
1950.00,0.0011
1949.00,0.0012
1948.00,0.0013
1947.00,0.0013
1946.00,0.0012
1945.00,0.0011
1944.00,0.0010
1943.00,0.0008
1942.00,0.0007
1941.00,0.0006
1940.00,0.0006
1939.00,0.0006
1938.00,0.0006
1937.00,0.0006
1936.00,0.0005
1935.00,0.0004
1934.00,0.0004
1933.00,0.0004
1932.00,0.0004
1931.00,0.0004
1930.00,0.0004
1929.00,0.0005
1928.00,0.0006
1927.00,0.0007
1926.00,0.0007
1925.00,0.0008
1924.00,0.0008
1923.00,0.0008
1922.00,0.0007
1921.00,0.0007
1920.00,0.0007
1919.00,0.0007
1918.00,0.0007
1917.00,0.0007
1916.00,0.0007
1915.00,0.0007
1914.00,0.0006
1913.00,0.0005
1912.00,0.0005
1911.00,0.0004
1910.00,0.0005
1909.00,0.0005
1908.00,0.0005
1907.00,0.0005
1906.00,0.0005
1905.00,0.0004
1904.00,0.0004
1903.00,0.0004
1902.00,0.0005
1901.00,0.0004
1900.00,0.0004
1899.00,0.0003
1898.00,0.0003
1897.00,0.0003
1896.00,0.0003
1895.00,0.0004
1894.00,0.0004
1893.00,0.0005
1892.00,0.0006
1891.00,0.0007
1890.00,0.0007
1889.00,0.0007
1888.00,0.0007
1887.00,0.0007
1886.00,0.0007
1885.00,0.0007
1884.00,0.0007
1883.00,0.0006
1882.00,0.0006
1881.00,0.0006
1880.00,0.0006
1879.00,0.0007
1878.00,0.0007
1877.00,0.0007
1876.00,0.0006
1875.00,0.0006
1874.00,0.0006
1873.00,0.0006
1872.00,0.0006
1871.00,0.0006
1870.00,0.0006
1869.00,0.0006
1868.00,0.0006
1867.00,0.0006
1866.00,0.0006
1865.00,0.0007
1864.00,0.0008
1863.00,0.0008
1862.00,0.0008
1861.00,0.0007
1860.00,0.0006
1859.00,0.0006
1858.00,0.0005
1857.00,0.0006
1856.00,0.0006
1855.00,0.0006
1854.00,0.0006
1853.00,0.0006
1852.00,0.0006
1851.00,0.0006
1850.00,0.0007
1849.00,0.0008
1848.00,0.0008
1847.00,0.0007
1846.00,0.0007
1845.00,0.0007
1844.00,0.0008
1843.00,0.0008
1842.00,0.0008
1841.00,0.0008
1840.00,0.0007
1839.00,0.0007
1838.00,0.0006
1837.00,0.0006
1836.00,0.0006
1835.00,0.0006
1834.00,0.0006
1833.00,0.0007
1832.00,0.0007
1831.00,0.0008
1830.00,0.0008
1829.00,0.0008
1828.00,0.0008
1827.00,0.0008
1826.00,0.0008
1825.00,0.0008
1824.00,0.0007
1823.00,0.0007
1822.00,0.0006
1821.00,0.0006
1820.00,0.0006
1819.00,0.0007
1818.00,0.0008
1817.00,0.0009
1816.00,0.0009
1815.00,0.0009
1814.00,0.0009
1813.00,0.0008
1812.00,0.0008
1811.00,0.0008
1810.00,0.0008
1809.00,0.0009
1808.00,0.0009
1807.00,0.0009
1806.00,0.0009
1805.00,0.0009
1804.00,0.0009
1803.00,0.0009
1802.00,0.0010
1801.00,0.0011
1800.00,0.0011
1799.00,0.0011
1798.00,0.0012
1797.00,0.0011
1796.00,0.0011
1795.00,0.0011
1794.00,0.0010
1793.00,0.0010
1792.00,0.0010
1791.00,0.0011
1790.00,0.0012
1789.00,0.0012
1788.00,0.0012
1787.00,0.0012
1786.00,0.0012
1785.00,0.0012
1784.00,0.0012
1783.00,0.0012
1782.00,0.0012
1781.00,0.0012
1780.00,0.0012
1779.00,0.0012
1778.00,0.0012
1777.00,0.0012
1776.00,0.0013
1775.00,0.0013
1774.00,0.0013
1773.00,0.0013
1772.00,0.0013
1771.00,0.0013
1770.00,0.0012
1769.00,0.0012
1768.00,0.0012
1767.00,0.0012
1766.00,0.0013
1765.00,0.0013
1764.00,0.0013
1763.00,0.0013
1762.00,0.0013
1761.00,0.0013
1760.00,0.0013
1759.00,0.0013
1758.00,0.0013
1757.00,0.0013
1756.00,0.0013
1755.00,0.0013
1754.00,0.0013
1753.00,0.0013
1752.00,0.0013
1751.00,0.0013
1750.00,0.0013
1749.00,0.0013
1748.00,0.0013
1747.00,0.0013
1746.00,0.0013
1745.00,0.0013
1744.00,0.0013
1743.00,0.0013
1742.00,0.0013
1741.00,0.0014
1740.00,0.0014
1739.00,0.0014
1738.00,0.0014
1737.00,0.0014
1736.00,0.0014
1735.00,0.0013
1734.00,0.0013
1733.00,0.0013
1732.00,0.0014
1731.00,0.0014
1730.00,0.0015
1729.00,0.0015
1728.00,0.0015
1727.00,0.0015
1726.00,0.0015
1725.00,0.0014
1724.00,0.0014
1723.00,0.0014
1722.00,0.0014
1721.00,0.0015
1720.00,0.0015
1719.00,0.0016
1718.00,0.0016
1717.00,0.0017
1716.00,0.0016
1715.00,0.0016
1714.00,0.0016
1713.00,0.0016
1712.00,0.0016
1711.00,0.0016
1710.00,0.0016
1709.00,0.0016
1708.00,0.0016
1707.00,0.0016
1706.00,0.0017
1705.00,0.0017
1704.00,0.0017
1703.00,0.0016
1702.00,0.0016
1701.00,0.0016
1700.00,0.0016
1699.00,0.0017
1698.00,0.0017
1697.00,0.0018
1696.00,0.0018
1695.00,0.0018
1694.00,0.0018
1693.00,0.0018
1692.00,0.0018
1691.00,0.0018
1690.00,0.0019
1689.00,0.0018
1688.00,0.0018
1687.00,0.0018
1686.00,0.0018
1685.00,0.0019
1684.00,0.0019
1683.00,0.0019
1682.00,0.0019
1681.00,0.0019
1680.00,0.0019
1679.00,0.0020
1678.00,0.0020
1677.00,0.0020
1676.00,0.0020
1675.00,0.0021
1674.00,0.0021
1673.00,0.0022
1672.00,0.0022
1671.00,0.0022
1670.00,0.0023
1669.00,0.0022
1668.00,0.0022
1667.00,0.0022
1666.00,0.0021
1665.00,0.0021
1664.00,0.0022
1663.00,0.0022
1662.00,0.0023
1661.00,0.0024
1660.00,0.0024
1659.00,0.0025
1658.00,0.0026
1657.00,0.0026
1656.00,0.0026
1655.00,0.0026
1654.00,0.0026
1653.00,0.0026
1652.00,0.0026
1651.00,0.0026
1650.00,0.0026
1649.00,0.0026
1648.00,0.0026
1647.00,0.0025
1646.00,0.0025
1645.00,0.0026
1644.00,0.0026
1643.00,0.0026
1642.00,0.0026
1641.00,0.0027
1640.00,0.0027
1639.00,0.0026
1638.00,0.0026
1637.00,0.0026
1636.00,0.0027
1635.00,0.0027
1634.00,0.0027
1633.00,0.0028
1632.00,0.0028
1631.00,0.0027
1630.00,0.0027
1629.00,0.0028
1628.00,0.0028
1627.00,0.0028
1626.00,0.0028
1625.00,0.0028
1624.00,0.0028
1623.00,0.0027
1622.00,0.0027
1621.00,0.0027
1620.00,0.0027
1619.00,0.0027
1618.00,0.0027
1617.00,0.0028
1616.00,0.0028
1615.00,0.0028
1614.00,0.0029
1613.00,0.0029
1612.00,0.0029
1611.00,0.0029
1610.00,0.0029
1609.00,0.0029
1608.00,0.0029
1607.00,0.0029
1606.00,0.0028
1605.00,0.0028
1604.00,0.0028
1603.00,0.0028
1602.00,0.0029
1601.00,0.0029
1600.00,0.0030
1599.00,0.0031
1598.00,0.0031
1597.00,0.0031
1596.00,0.0031
1595.00,0.0030
1594.00,0.0029
1593.00,0.0028
1592.00,0.0028
1591.00,0.0027
1590.00,0.0027
1589.00,0.0027
1588.00,0.0026
1587.00,0.0026
1586.00,0.0026
1585.00,0.0025
1584.00,0.0025
1583.00,0.0025
1582.00,0.0025
1581.00,0.0025
1580.00,0.0025
1579.00,0.0025
1578.00,0.0025
1577.00,0.0025
1576.00,0.0025
1575.00,0.0024
1574.00,0.0024
1573.00,0.0024
1572.00,0.0024
1571.00,0.0023
1570.00,0.0023
1569.00,0.0023
1568.00,0.0022
1567.00,0.0022
1566.00,0.0022
1565.00,0.0022
1564.00,0.0022
1563.00,0.0022
1562.00,0.0022
1561.00,0.0023
1560.00,0.0023
1559.00,0.0024
1558.00,0.0024
1557.00,0.0024
1556.00,0.0024
1555.00,0.0024
1554.00,0.0023
1553.00,0.0023
1552.00,0.0023
1551.00,0.0022
1550.00,0.0022
1549.00,0.0022
1548.00,0.0022
1547.00,0.0022
1546.00,0.0022
1545.00,0.0022
1544.00,0.0021
1543.00,0.0021
1542.00,0.0020
1541.00,0.0019
1540.00,0.0018
1539.00,0.0018
1538.00,0.0019
1537.00,0.0019
1536.00,0.0019
1535.00,0.0020
1534.00,0.0020
1533.00,0.0020
1532.00,0.0020
1531.00,0.0021
1530.00,0.0021
1529.00,0.0021
1528.00,0.0021
1527.00,0.0021
1526.00,0.0021
1525.00,0.0021
1524.00,0.0022
1523.00,0.0022
1522.00,0.0022
1521.00,0.0022
1520.00,0.0022
1519.00,0.0022
1518.00,0.0022
1517.00,0.0022
1516.00,0.0022
1515.00,0.0022
1514.00,0.0022
1513.00,0.0022
1512.00,0.0021
1511.00,0.0021
1510.00,0.0021
1509.00,0.0021
1508.00,0.0021
1507.00,0.0021
1506.00,0.0021
1505.00,0.0021
1504.00,0.0021
1503.00,0.0022
1502.00,0.0022
1501.00,0.0022
1500.00,0.0022
1499.00,0.0022
1498.00,0.0023
1497.00,0.0023
1496.00,0.0023
1495.00,0.0022
1494.00,0.0022
1493.00,0.0022
1492.00,0.0022
1491.00,0.0023
1490.00,0.0025
1489.00,0.0026
1488.00,0.0026
1487.00,0.0026
1486.00,0.0026
1485.00,0.0026
1484.00,0.0026
1483.00,0.0026
1482.00,0.0026
1481.00,0.0025
1480.00,0.0025
1479.00,0.0025
1478.00,0.0026
1477.00,0.0026
1476.00,0.0026
1475.00,0.0026
1474.00,0.0026
1473.00,0.0026
1472.00,0.0026
1471.00,0.0026
1470.00,0.0026
1469.00,0.0026
1468.00,0.0026
1467.00,0.0027
1466.00,0.0028
1465.00,0.0029
1464.00,0.0030
1463.00,0.0031
1462.00,0.0032
1461.00,0.0033
1460.00,0.0034
1459.00,0.0034
1458.00,0.0036
1457.00,0.0037
1456.00,0.0039
1455.00,0.0040
1454.00,0.0042
1453.00,0.0043
1452.00,0.0044
1451.00,0.0046
1450.00,0.0047
1449.00,0.0049
1448.00,0.0050
1447.00,0.0051
1446.00,0.0052
1445.00,0.0052
1444.00,0.0052
1443.00,0.0051
1442.00,0.0050
1441.00,0.0049
1440.00,0.0048
1439.00,0.0046
1438.00,0.0045
1437.00,0.0044
1436.00,0.0043
1435.00,0.0043
1434.00,0.0042
1433.00,0.0042
1432.00,0.0042
1431.00,0.0043
1430.00,0.0044
1429.00,0.0045
1428.00,0.0047
1427.00,0.0048
1426.00,0.0051
1425.00,0.0054
1424.00,0.0057
1423.00,0.0061
1422.00,0.0065
1421.00,0.0069
1420.00,0.0074
1419.00,0.0081
1418.00,0.0087
1417.00,0.0092
1416.00,0.0096
1415.00,0.0099
1414.00,0.0101
1413.00,0.0103
1412.00,0.0104
1411.00,0.0105
1410.00,0.0104
1409.00,0.0103
1408.00,0.0102
1407.00,0.0100
1406.00,0.0097
1405.00,0.0095
1404.00,0.0093
1403.00,0.0092
1402.00,0.0090
1401.00,0.0088
1400.00,0.0086
1399.00,0.0083
1398.00,0.0079
1397.00,0.0076
1396.00,0.0071
1395.00,0.0067
1394.00,0.0062
1393.00,0.0058
1392.00,0.0055
1391.00,0.0052
1390.00,0.0050
1389.00,0.0048
1388.00,0.0046
1387.00,0.0045
1386.00,0.0043
1385.00,0.0042
1384.00,0.0040
1383.00,0.0039
1382.00,0.0038
1381.00,0.0037
1380.00,0.0036
1379.00,0.0036
1378.00,0.0035
1377.00,0.0035
1376.00,0.0035
1375.00,0.0035
1374.00,0.0035
1373.00,0.0035
1372.00,0.0035
1371.00,0.0035
1370.00,0.0034
1369.00,0.0034
1368.00,0.0033
1367.00,0.0033
1366.00,0.0032
1365.00,0.0032
1364.00,0.0031
1363.00,0.0031
1362.00,0.0031
1361.00,0.0030
1360.00,0.0030
1359.00,0.0030
1358.00,0.0030
1357.00,0.0030
1356.00,0.0030
1355.00,0.0029
1354.00,0.0029
1353.00,0.0029
1352.00,0.0029
1351.00,0.0029
1350.00,0.0029
1349.00,0.0028
1348.00,0.0029
1347.00,0.0029
1346.00,0.0029
1345.00,0.0030
1344.00,0.0030
1343.00,0.0030
1342.00,0.0030
1341.00,0.0031
1340.00,0.0031
1339.00,0.0031
1338.00,0.0030
1337.00,0.0030
1336.00,0.0030
1335.00,0.0029
1334.00,0.0029
1333.00,0.0029
1332.00,0.0030
1331.00,0.0030
1330.00,0.0031
1329.00,0.0031
1328.00,0.0031
1327.00,0.0032
1326.00,0.0032
1325.00,0.0032
1324.00,0.0032
1323.00,0.0033
1322.00,0.0033
1321.00,0.0033
1320.00,0.0034
1319.00,0.0034
1318.00,0.0035
1317.00,0.0035
1316.00,0.0036
1315.00,0.0037
1314.00,0.0037
1313.00,0.0038
1312.00,0.0038
1311.00,0.0039
1310.00,0.0040
1309.00,0.0041
1308.00,0.0042
1307.00,0.0043
1306.00,0.0043
1305.00,0.0044
1304.00,0.0044
1303.00,0.0045
1302.00,0.0045
1301.00,0.0046
1300.00,0.0047
1299.00,0.0049
1298.00,0.0050
1297.00,0.0051
1296.00,0.0052
1295.00,0.0054
1294.00,0.0055
1293.00,0.0057
1292.00,0.0058
1291.00,0.0060
1290.00,0.0062
1289.00,0.0064
1288.00,0.0067
1287.00,0.0070
1286.00,0.0073
1285.00,0.0076
1284.00,0.0080
1283.00,0.0083
1282.00,0.0088
1281.00,0.0093
1280.00,0.0099
1279.00,0.0105
1278.00,0.0114
1277.00,0.0124
1276.00,0.0136
1275.00,0.0150
1274.00,0.0167
1273.00,0.0189
1272.00,0.0217
1271.00,0.0254
1270.00,0.0303
1269.00,0.0365
1268.00,0.0444
1267.00,0.0543
1266.00,0.0660
1265.00,0.0795
1264.00,0.0942
1263.00,0.1090
1262.00,0.1230
1261.00,0.1348
1260.00,0.1434
1259.00,0.1479
1258.00,0.1483
1257.00,0.1451
1256.00,0.1389
1255.00,0.1307
1254.00,0.1209
1253.00,0.1099
1252.00,0.0979
1251.00,0.0854
1250.00,0.0731
1249.00,0.0616
1248.00,0.0515
1247.00,0.0431
1246.00,0.0363
1245.00,0.0311
1244.00,0.0270
1243.00,0.0239
1242.00,0.0214
1241.00,0.0194
1240.00,0.0179
1239.00,0.0166
1238.00,0.0156
1237.00,0.0149
1236.00,0.0142
1235.00,0.0138
1234.00,0.0134
1233.00,0.0131
1232.00,0.0129
1231.00,0.0127
1230.00,0.0126
1229.00,0.0126
1228.00,0.0126
1227.00,0.0127
1226.00,0.0129
1225.00,0.0131
1224.00,0.0133
1223.00,0.0135
1222.00,0.0138
1221.00,0.0140
1220.00,0.0143
1219.00,0.0146
1218.00,0.0151
1217.00,0.0155
1216.00,0.0160
1215.00,0.0164
1214.00,0.0169
1213.00,0.0174
1212.00,0.0179
1211.00,0.0183
1210.00,0.0188
1209.00,0.0193
1208.00,0.0197
1207.00,0.0202
1206.00,0.0207
1205.00,0.0211
1204.00,0.0216
1203.00,0.0220
1202.00,0.0224
1201.00,0.0228
1200.00,0.0232
1199.00,0.0235
1198.00,0.0239
1197.00,0.0242
1196.00,0.0245
1195.00,0.0247
1194.00,0.0250
1193.00,0.0253
1192.00,0.0255
1191.00,0.0257
1190.00,0.0259
1189.00,0.0261
1188.00,0.0262
1187.00,0.0263
1186.00,0.0264
1185.00,0.0265
1184.00,0.0266
1183.00,0.0267
1182.00,0.0268
1181.00,0.0269
1180.00,0.0271
1179.00,0.0272
1178.00,0.0273
1177.00,0.0273
1176.00,0.0274
1175.00,0.0275
1174.00,0.0276
1173.00,0.0277
1172.00,0.0278
1171.00,0.0279
1170.00,0.0279
1169.00,0.0280
1168.00,0.0281
1167.00,0.0282
1166.00,0.0283
1165.00,0.0284
1164.00,0.0285
1163.00,0.0286
1162.00,0.0287
1161.00,0.0288
1160.00,0.0290
1159.00,0.0291
1158.00,0.0293
1157.00,0.0295
1156.00,0.0297
1155.00,0.0298
1154.00,0.0300
1153.00,0.0302
1152.00,0.0305
1151.00,0.0308
1150.00,0.0312
1149.00,0.0315
1148.00,0.0320
1147.00,0.0324
1146.00,0.0329
1145.00,0.0334
1144.00,0.0339
1143.00,0.0345
1142.00,0.0351
1141.00,0.0357
1140.00,0.0363
1139.00,0.0370
1138.00,0.0376
1137.00,0.0384
1136.00,0.0391
1135.00,0.0399
1134.00,0.0407
1133.00,0.0416
1132.00,0.0425
1131.00,0.0436
1130.00,0.0448
1129.00,0.0460
1128.00,0.0473
1127.00,0.0487
1126.00,0.0502
1125.00,0.0518
1124.00,0.0536
1123.00,0.0554
1122.00,0.0574
1121.00,0.0596
1120.00,0.0618
1119.00,0.0642
1118.00,0.0668
1117.00,0.0695
1116.00,0.0725
1115.00,0.0756
1114.00,0.0789
1113.00,0.0824
1112.00,0.0861
1111.00,0.0899
1110.00,0.0939
1109.00,0.0980
1108.00,0.1023
1107.00,0.1069
1106.00,0.1116
1105.00,0.1165
1104.00,0.1216
1103.00,0.1268
1102.00,0.1320
1101.00,0.1374
1100.00,0.1428
1099.00,0.1483
1098.00,0.1540
1097.00,0.1597
1096.00,0.1655
1095.00,0.1713
1094.00,0.1770
1093.00,0.1828
1092.00,0.1884
1091.00,0.1940
1090.00,0.1994
1089.00,0.2047
1088.00,0.2099
1087.00,0.2149
1086.00,0.2197
1085.00,0.2243
1084.00,0.2287
1083.00,0.2328
1082.00,0.2367
1081.00,0.2403
1080.00,0.2437
1079.00,0.2468
1078.00,0.2497
1077.00,0.2525
1076.00,0.2551
1075.00,0.2576
1074.00,0.2599
1073.00,0.2619
1072.00,0.2638
1071.00,0.2654
1070.00,0.2668
1069.00,0.2682
1068.00,0.2693
1067.00,0.2704
1066.00,0.2713
1065.00,0.2721
1064.00,0.2727
1063.00,0.2732
1062.00,0.2735
1061.00,0.2736
1060.00,0.2735
1059.00,0.2732
1058.00,0.2728
1057.00,0.2723
1056.00,0.2718
1055.00,0.2712
1054.00,0.2705
1053.00,0.2698
1052.00,0.2689
1051.00,0.2678
1050.00,0.2667
1049.00,0.2656
1048.00,0.2646
1047.00,0.2638
1046.00,0.2630
1045.00,0.2625
1044.00,0.2621
1043.00,0.2619
1042.00,0.2619
1041.00,0.2621
1040.00,0.2624
1039.00,0.2630
1038.00,0.2636
1037.00,0.2645
1036.00,0.2656
1035.00,0.2670
1034.00,0.2687
1033.00,0.2706
1032.00,0.2729
1031.00,0.2755
1030.00,0.2783
1029.00,0.2815
1028.00,0.2850
1027.00,0.2888
1026.00,0.2930
1025.00,0.2976
1024.00,0.3026
1023.00,0.3079
1022.00,0.3137
1021.00,0.3198
1020.00,0.3262
1019.00,0.3326
1018.00,0.3390
1017.00,0.3449
1016.00,0.3500
1015.00,0.3538
1014.00,0.3559
1013.00,0.3558
1012.00,0.3530
1011.00,0.3472
1010.00,0.3383
1009.00,0.3265
1008.00,0.3121
1007.00,0.2957
1006.00,0.2778
1005.00,0.2589
1004.00,0.2398
1003.00,0.2208
1002.00,0.2026
1001.00,0.1855
1000.00,0.1697
999.00,0.1552
998.00,0.1420
997.00,0.1302
996.00,0.1195
995.00,0.1099
994.00,0.1013
993.00,0.0935
992.00,0.0865
991.00,0.0803
990.00,0.0747
989.00,0.0697
988.00,0.0652
987.00,0.0611
986.00,0.0574
985.00,0.0540
984.00,0.0510
983.00,0.0482
982.00,0.0457
981.00,0.0434
980.00,0.0413
979.00,0.0394
978.00,0.0376
977.00,0.0360
976.00,0.0345
975.00,0.0331
974.00,0.0319
973.00,0.0309
972.00,0.0299
971.00,0.0289
970.00,0.0280
969.00,0.0272
968.00,0.0265
967.00,0.0258
966.00,0.0253
965.00,0.0248
964.00,0.0244
963.00,0.0240
962.00,0.0237
961.00,0.0234
960.00,0.0231
959.00,0.0229
958.00,0.0226
957.00,0.0223
956.00,0.0219
955.00,0.0215
954.00,0.0210
953.00,0.0205
952.00,0.0199
951.00,0.0193
950.00,0.0188
949.00,0.0183
948.00,0.0179
947.00,0.0175
946.00,0.0172
945.00,0.0169
944.00,0.0166
943.00,0.0164
942.00,0.0162
941.00,0.0161
940.00,0.0160
939.00,0.0159
938.00,0.0159
937.00,0.0159
936.00,0.0159
935.00,0.0160
934.00,0.0162
933.00,0.0164
932.00,0.0167
931.00,0.0170
930.00,0.0174
929.00,0.0178
928.00,0.0181
927.00,0.0185
926.00,0.0188
925.00,0.0191
924.00,0.0195
923.00,0.0200
922.00,0.0206
921.00,0.0213
920.00,0.0222
919.00,0.0231
918.00,0.0240
917.00,0.0248
916.00,0.0256
915.00,0.0262
914.00,0.0267
913.00,0.0270
912.00,0.0272
911.00,0.0272
910.00,0.0269
909.00,0.0265
908.00,0.0260
907.00,0.0255
906.00,0.0251
905.00,0.0249
904.00,0.0247
903.00,0.0247
902.00,0.0249
901.00,0.0252
900.00,0.0255
899.00,0.0260
898.00,0.0266
897.00,0.0273
896.00,0.0280
895.00,0.0289
894.00,0.0297
893.00,0.0306
892.00,0.0315
891.00,0.0324
890.00,0.0334
889.00,0.0345
888.00,0.0357
887.00,0.0371
886.00,0.0387
885.00,0.0404
884.00,0.0422
883.00,0.0442
882.00,0.0463
881.00,0.0486
880.00,0.0511
879.00,0.0539
878.00,0.0569
877.00,0.0603
876.00,0.0640
875.00,0.0679
874.00,0.0723
873.00,0.0768
872.00,0.0816
871.00,0.0865
870.00,0.0912
869.00,0.0955
868.00,0.0993
867.00,0.1023
866.00,0.1044
865.00,0.1057
864.00,0.1061
863.00,0.1057
862.00,0.1048
861.00,0.1036
860.00,0.1021
859.00,0.1007
858.00,0.0996
857.00,0.0989
856.00,0.0988
855.00,0.0993
854.00,0.1007
853.00,0.1030
852.00,0.1060
851.00,0.1097
850.00,0.1139
849.00,0.1184
848.00,0.1229
847.00,0.1272
846.00,0.1309
845.00,0.1338
844.00,0.1356
843.00,0.1361
842.00,0.1352
841.00,0.1332
840.00,0.1301
839.00,0.1264
838.00,0.1223
837.00,0.1181
836.00,0.1142
835.00,0.1107
834.00,0.1079
833.00,0.1059
832.00,0.1045
831.00,0.1040
830.00,0.1044
829.00,0.1059
828.00,0.1084
827.00,0.1123
826.00,0.1174
825.00,0.1238
824.00,0.1311
823.00,0.1390
822.00,0.1471
821.00,0.1549
820.00,0.1620
819.00,0.1684
818.00,0.1740
817.00,0.1792
816.00,0.1840
815.00,0.1889
814.00,0.1940
813.00,0.1998
812.00,0.2064
811.00,0.2141
810.00,0.2228
809.00,0.2327
808.00,0.2438
807.00,0.2560
806.00,0.2693
805.00,0.2836
804.00,0.2988
803.00,0.3149
802.00,0.3316
801.00,0.3488
800.00,0.3663
