Created as New Dataset,Sample 226 By irlear Date Thursday, April 23 2009
cm-1,A
4000.00,0.0018
3999.00,0.0018
3998.00,0.0019
3997.00,0.0019
3996.00,0.0019
3995.00,0.0019
3994.00,0.0019
3993.00,0.0019
3992.00,0.0018
3991.00,0.0018
3990.00,0.0018
3989.00,0.0019
3988.00,0.0019
3987.00,0.0019
3986.00,0.0019
3985.00,0.0019
3984.00,0.0019
3983.00,0.0019
3982.00,0.0019
3981.00,0.0018
3980.00,0.0018
3979.00,0.0018
3978.00,0.0018
3977.00,0.0018
3976.00,0.0019
3975.00,0.0019
3974.00,0.0019
3973.00,0.0019
3972.00,0.0019
3971.00,0.0019
3970.00,0.0019
3969.00,0.0018
3968.00,0.0018
3967.00,0.0018
3966.00,0.0018
3965.00,0.0018
3964.00,0.0018
3963.00,0.0018
3962.00,0.0019
3961.00,0.0019
3960.00,0.0019
3959.00,0.0018
3958.00,0.0018
3957.00,0.0019
3956.00,0.0019
3955.00,0.0019
3954.00,0.0019
3953.00,0.0018
3952.00,0.0018
3951.00,0.0018
3950.00,0.0018
3949.00,0.0018
3948.00,0.0018
3947.00,0.0018
3946.00,0.0018
3945.00,0.0019
3944.00,0.0019
3943.00,0.0019
3942.00,0.0019
3941.00,0.0019
3940.00,0.0018
3939.00,0.0018
3938.00,0.0019
3937.00,0.0019
3936.00,0.0019
3935.00,0.0019
3934.00,0.0019
3933.00,0.0020
3932.00,0.0020
3931.00,0.0020
3930.00,0.0020
3929.00,0.0020
3928.00,0.0019
3927.00,0.0019
3926.00,0.0019
3925.00,0.0019
3924.00,0.0019
3923.00,0.0018
3922.00,0.0018
3921.00,0.0017
3920.00,0.0017
3919.00,0.0017
3918.00,0.0017
3917.00,0.0017
3916.00,0.0017
3915.00,0.0018
3914.00,0.0018
3913.00,0.0019
3912.00,0.0019
3911.00,0.0019
3910.00,0.0019
3909.00,0.0018
3908.00,0.0018
3907.00,0.0018
3906.00,0.0018
3905.00,0.0018
3904.00,0.0018
3903.00,0.0018
3902.00,0.0018
3901.00,0.0018
3900.00,0.0018
3899.00,0.0018
3898.00,0.0018
3897.00,0.0018
3896.00,0.0018
3895.00,0.0018
3894.00,0.0018
3893.00,0.0018
3892.00,0.0018
3891.00,0.0018
3890.00,0.0018
3889.00,0.0018
3888.00,0.0018
3887.00,0.0018
3886.00,0.0019
3885.00,0.0019
3884.00,0.0019
3883.00,0.0019
3882.00,0.0019
3881.00,0.0020
3880.00,0.0019
3879.00,0.0019
3878.00,0.0019
3877.00,0.0019
3876.00,0.0019
3875.00,0.0019
3874.00,0.0019
3873.00,0.0019
3872.00,0.0019
3871.00,0.0020
3870.00,0.0020
3869.00,0.0020
3868.00,0.0020
3867.00,0.0020
3866.00,0.0020
3865.00,0.0020
3864.00,0.0019
3863.00,0.0018
3862.00,0.0018
3861.00,0.0018
3860.00,0.0019
3859.00,0.0019
3858.00,0.0019
3857.00,0.0019
3856.00,0.0020
3855.00,0.0020
3854.00,0.0021
3853.00,0.0021
3852.00,0.0020
3851.00,0.0020
3850.00,0.0020
3849.00,0.0020
3848.00,0.0020
3847.00,0.0019
3846.00,0.0019
3845.00,0.0018
3844.00,0.0018
3843.00,0.0018
3842.00,0.0018
3841.00,0.0019
3840.00,0.0019
3839.00,0.0020
3838.00,0.0020
3837.00,0.0020
3836.00,0.0020
3835.00,0.0020
3834.00,0.0020
3833.00,0.0020
3832.00,0.0020
3831.00,0.0020
3830.00,0.0019
3829.00,0.0019
3828.00,0.0019
3827.00,0.0020
3826.00,0.0020
3825.00,0.0020
3824.00,0.0020
3823.00,0.0021
3822.00,0.0021
3821.00,0.0022
3820.00,0.0022
3819.00,0.0022
3818.00,0.0022
3817.00,0.0023
3816.00,0.0022
3815.00,0.0022
3814.00,0.0021
3813.00,0.0021
3812.00,0.0020
3811.00,0.0020
3810.00,0.0020
3809.00,0.0020
3808.00,0.0020
3807.00,0.0020
3806.00,0.0019
3805.00,0.0019
3804.00,0.0019
3803.00,0.0019
3802.00,0.0020
3801.00,0.0020
3800.00,0.0020
3799.00,0.0021
3798.00,0.0021
3797.00,0.0022
3796.00,0.0021
3795.00,0.0021
3794.00,0.0020
3793.00,0.0020
3792.00,0.0020
3791.00,0.0019
3790.00,0.0019
3789.00,0.0019
3788.00,0.0019
3787.00,0.0019
3786.00,0.0019
3785.00,0.0019
3784.00,0.0019
3783.00,0.0019
3782.00,0.0019
3781.00,0.0019
3780.00,0.0019
3779.00,0.0019
3778.00,0.0019
3777.00,0.0020
3776.00,0.0020
3775.00,0.0020
3774.00,0.0020
3773.00,0.0020
3772.00,0.0021
3771.00,0.0020
3770.00,0.0020
3769.00,0.0020
3768.00,0.0020
3767.00,0.0020
3766.00,0.0021
3765.00,0.0022
3764.00,0.0022
3763.00,0.0023
3762.00,0.0023
3761.00,0.0023
3760.00,0.0023
3759.00,0.0023
3758.00,0.0022
3757.00,0.0021
3756.00,0.0021
3755.00,0.0020
3754.00,0.0020
3753.00,0.0021
3752.00,0.0021
3751.00,0.0022
3750.00,0.0022
3749.00,0.0023
3748.00,0.0023
3747.00,0.0023
3746.00,0.0023
3745.00,0.0024
3744.00,0.0023
3743.00,0.0022
3742.00,0.0022
3741.00,0.0022
3740.00,0.0022
3739.00,0.0021
3738.00,0.0020
3737.00,0.0020
3736.00,0.0020
3735.00,0.0020
3734.00,0.0020
3733.00,0.0021
3732.00,0.0021
3731.00,0.0021
3730.00,0.0021
3729.00,0.0022
3728.00,0.0022
3727.00,0.0022
3726.00,0.0022
3725.00,0.0021
3724.00,0.0021
3723.00,0.0020
3722.00,0.0019
3721.00,0.0019
3720.00,0.0019
3719.00,0.0020
3718.00,0.0021
3717.00,0.0021
3716.00,0.0022
3715.00,0.0022
3714.00,0.0022
3713.00,0.0022
3712.00,0.0022
3711.00,0.0022
3710.00,0.0023
3709.00,0.0023
3708.00,0.0024
3707.00,0.0024
3706.00,0.0024
3705.00,0.0023
3704.00,0.0023
3703.00,0.0023
3702.00,0.0022
3701.00,0.0022
3700.00,0.0022
3699.00,0.0022
3698.00,0.0021
3697.00,0.0021
3696.00,0.0021
3695.00,0.0020
3694.00,0.0020
3693.00,0.0021
3692.00,0.0021
3691.00,0.0022
3690.00,0.0023
3689.00,0.0023
3688.00,0.0023
3687.00,0.0023
3686.00,0.0023
3685.00,0.0023
3684.00,0.0023
3683.00,0.0022
3682.00,0.0022
3681.00,0.0022
3680.00,0.0022
3679.00,0.0022
3678.00,0.0023
3677.00,0.0024
3676.00,0.0025
3675.00,0.0025
3674.00,0.0025
3673.00,0.0024
3672.00,0.0024
3671.00,0.0024
3670.00,0.0024
3669.00,0.0024
3668.00,0.0024
3667.00,0.0024
3666.00,0.0024
3665.00,0.0024
3664.00,0.0024
3663.00,0.0024
3662.00,0.0024
3661.00,0.0024
3660.00,0.0024
3659.00,0.0024
3658.00,0.0024
3657.00,0.0025
3656.00,0.0026
3655.00,0.0026
3654.00,0.0027
3653.00,0.0027
3652.00,0.0027
3651.00,0.0028
3650.00,0.0028
3649.00,0.0028
3648.00,0.0028
3647.00,0.0028
3646.00,0.0028
3645.00,0.0028
3644.00,0.0028
3643.00,0.0029
3642.00,0.0029
3641.00,0.0029
3640.00,0.0029
3639.00,0.0028
3638.00,0.0028
3637.00,0.0028
3636.00,0.0028
3635.00,0.0028
3634.00,0.0027
3633.00,0.0027
3632.00,0.0028
3631.00,0.0028
3630.00,0.0029
3629.00,0.0030
3628.00,0.0030
3627.00,0.0031
3626.00,0.0031
3625.00,0.0032
3624.00,0.0031
3623.00,0.0031
3622.00,0.0030
3621.00,0.0030
3620.00,0.0030
3619.00,0.0030
3618.00,0.0030
3617.00,0.0031
3616.00,0.0031
3615.00,0.0031
3614.00,0.0031
3613.00,0.0031
3612.00,0.0031
3611.00,0.0032
3610.00,0.0032
3609.00,0.0033
3608.00,0.0033
3607.00,0.0034
3606.00,0.0034
3605.00,0.0034
3604.00,0.0033
3603.00,0.0033
3602.00,0.0033
3601.00,0.0033
3600.00,0.0033
3599.00,0.0033
3598.00,0.0032
3597.00,0.0032
3596.00,0.0032
3595.00,0.0032
3594.00,0.0032
3593.00,0.0033
3592.00,0.0033
3591.00,0.0034
3590.00,0.0034
3589.00,0.0035
3588.00,0.0035
3587.00,0.0035
3586.00,0.0035
3585.00,0.0035
3584.00,0.0035
3583.00,0.0035
3582.00,0.0035
3581.00,0.0035
3580.00,0.0035
3579.00,0.0035
3578.00,0.0035
3577.00,0.0035
3576.00,0.0035
3575.00,0.0035
3574.00,0.0035
3573.00,0.0035
3572.00,0.0035
3571.00,0.0035
3570.00,0.0035
3569.00,0.0035
3568.00,0.0035
3567.00,0.0035
3566.00,0.0035
3565.00,0.0036
3564.00,0.0036
3563.00,0.0036
3562.00,0.0036
3561.00,0.0036
3560.00,0.0036
3559.00,0.0036
3558.00,0.0036
3557.00,0.0036
3556.00,0.0036
3555.00,0.0036
3554.00,0.0036
3553.00,0.0036
3552.00,0.0036
3551.00,0.0037
3550.00,0.0037
3549.00,0.0038
3548.00,0.0038
3547.00,0.0038
3546.00,0.0038
3545.00,0.0038
3544.00,0.0038
3543.00,0.0038
3542.00,0.0038
3541.00,0.0038
3540.00,0.0038
3539.00,0.0038
3538.00,0.0038
3537.00,0.0038
3536.00,0.0038
3535.00,0.0039
3534.00,0.0039
3533.00,0.0040
3532.00,0.0040
3531.00,0.0041
3530.00,0.0041
3529.00,0.0041
3528.00,0.0041
3527.00,0.0041
3526.00,0.0041
3525.00,0.0041
3524.00,0.0040
3523.00,0.0039
3522.00,0.0038
3521.00,0.0038
3520.00,0.0038
3519.00,0.0038
3518.00,0.0039
3517.00,0.0040
3516.00,0.0040
3515.00,0.0040
3514.00,0.0041
3513.00,0.0042
3512.00,0.0042
3511.00,0.0043
3510.00,0.0043
3509.00,0.0043
3508.00,0.0043
3507.00,0.0043
3506.00,0.0043
3505.00,0.0042
3504.00,0.0042
3503.00,0.0042
3502.00,0.0041
3501.00,0.0041
3500.00,0.0041
3499.00,0.0041
3498.00,0.0041
3497.00,0.0041
3496.00,0.0042
3495.00,0.0042
3494.00,0.0042
3493.00,0.0043
3492.00,0.0043
3491.00,0.0043
3490.00,0.0042
3489.00,0.0042
3488.00,0.0042
3487.00,0.0042
3486.00,0.0042
3485.00,0.0042
3484.00,0.0042
3483.00,0.0042
3482.00,0.0042
3481.00,0.0041
3480.00,0.0041
3479.00,0.0042
3478.00,0.0042
3477.00,0.0043
3476.00,0.0043
3475.00,0.0043
3474.00,0.0043
3473.00,0.0043
3472.00,0.0043
3471.00,0.0043
3470.00,0.0042
3469.00,0.0042
3468.00,0.0042
3467.00,0.0042
3466.00,0.0043
3465.00,0.0043
3464.00,0.0043
3463.00,0.0044
3462.00,0.0044
3461.00,0.0044
3460.00,0.0044
3459.00,0.0044
3458.00,0.0044
3457.00,0.0044
3456.00,0.0044
3455.00,0.0044
3454.00,0.0044
3453.00,0.0044
3452.00,0.0044
3451.00,0.0044
3450.00,0.0044
3449.00,0.0045
3448.00,0.0045
3447.00,0.0045
3446.00,0.0044
3445.00,0.0044
3444.00,0.0044
3443.00,0.0044
3442.00,0.0044
3441.00,0.0044
3440.00,0.0044
3439.00,0.0044
3438.00,0.0045
3437.00,0.0044
3436.00,0.0044
3435.00,0.0044
3434.00,0.0044
3433.00,0.0044
3432.00,0.0044
3431.00,0.0044
3430.00,0.0044
3429.00,0.0045
3428.00,0.0044
3427.00,0.0044
3426.00,0.0044
3425.00,0.0044
3424.00,0.0043
3423.00,0.0043
3422.00,0.0042
3421.00,0.0042
3420.00,0.0042
3419.00,0.0043
3418.00,0.0043
3417.00,0.0044
3416.00,0.0045
3415.00,0.0045
3414.00,0.0046
3413.00,0.0046
3412.00,0.0046
3411.00,0.0045
3410.00,0.0045
3409.00,0.0045
3408.00,0.0045
3407.00,0.0044
3406.00,0.0044
3405.00,0.0044
3404.00,0.0044
3403.00,0.0044
3402.00,0.0044
3401.00,0.0043
3400.00,0.0043
3399.00,0.0043
3398.00,0.0043
3397.00,0.0043
3396.00,0.0043
3395.00,0.0043
3394.00,0.0044
3393.00,0.0044
3392.00,0.0044
3391.00,0.0045
3390.00,0.0045
3389.00,0.0045
3388.00,0.0045
3387.00,0.0044
3386.00,0.0044
3385.00,0.0043
3384.00,0.0043
3383.00,0.0044
3382.00,0.0044
3381.00,0.0044
3380.00,0.0045
3379.00,0.0045
3378.00,0.0045
3377.00,0.0045
3376.00,0.0045
3375.00,0.0044
3374.00,0.0044
3373.00,0.0044
3372.00,0.0043
3371.00,0.0043
3370.00,0.0043
3369.00,0.0044
3368.00,0.0044
3367.00,0.0044
3366.00,0.0044
3365.00,0.0044
3364.00,0.0043
3363.00,0.0043
3362.00,0.0043
3361.00,0.0042
3360.00,0.0042
3359.00,0.0041
3358.00,0.0042
3357.00,0.0042
3356.00,0.0042
3355.00,0.0043
3354.00,0.0043
3353.00,0.0043
3352.00,0.0043
3351.00,0.0043
3350.00,0.0043
3349.00,0.0043
3348.00,0.0042
3347.00,0.0042
3346.00,0.0042
3345.00,0.0041
3344.00,0.0041
3343.00,0.0041
3342.00,0.0041
3341.00,0.0041
3340.00,0.0041
3339.00,0.0041
3338.00,0.0040
3337.00,0.0040
3336.00,0.0040
3335.00,0.0040
3334.00,0.0040
3333.00,0.0041
3332.00,0.0041
3331.00,0.0041
3330.00,0.0040
3329.00,0.0040
3328.00,0.0040
3327.00,0.0040
3326.00,0.0040
3325.00,0.0040
3324.00,0.0040
3323.00,0.0040
3322.00,0.0040
3321.00,0.0039
3320.00,0.0039
3319.00,0.0039
3318.00,0.0039
3317.00,0.0039
3316.00,0.0039
3315.00,0.0039
3314.00,0.0039
3313.00,0.0039
3312.00,0.0039
3311.00,0.0039
3310.00,0.0039
3309.00,0.0039
3308.00,0.0039
3307.00,0.0039
3306.00,0.0039
3305.00,0.0039
3304.00,0.0039
3303.00,0.0039
3302.00,0.0039
3301.00,0.0039
3300.00,0.0039
3299.00,0.0039
3298.00,0.0038
3297.00,0.0038
3296.00,0.0038
3295.00,0.0037
3294.00,0.0037
3293.00,0.0036
3292.00,0.0037
3291.00,0.0037
3290.00,0.0037
3289.00,0.0037
3288.00,0.0038
3287.00,0.0038
3286.00,0.0039
3285.00,0.0039
3284.00,0.0039
3283.00,0.0039
3282.00,0.0039
3281.00,0.0038
3280.00,0.0037
3279.00,0.0037
3278.00,0.0037
3277.00,0.0037
3276.00,0.0037
3275.00,0.0037
3274.00,0.0037
3273.00,0.0037
3272.00,0.0036
3271.00,0.0036
3270.00,0.0037
3269.00,0.0037
3268.00,0.0037
3267.00,0.0037
3266.00,0.0037
3265.00,0.0037
3264.00,0.0036
3263.00,0.0036
3262.00,0.0036
3261.00,0.0036
3260.00,0.0036
3259.00,0.0036
3258.00,0.0036
3257.00,0.0036
3256.00,0.0036
3255.00,0.0036
3254.00,0.0036
3253.00,0.0036
3252.00,0.0036
3251.00,0.0036
3250.00,0.0036
3249.00,0.0036
3248.00,0.0036
3247.00,0.0035
3246.00,0.0035
3245.00,0.0035
3244.00,0.0035
3243.00,0.0035
3242.00,0.0035
3241.00,0.0035
3240.00,0.0034
3239.00,0.0034
3238.00,0.0034
3237.00,0.0033
3236.00,0.0033
3235.00,0.0033
3234.00,0.0033
3233.00,0.0033
3232.00,0.0033
3231.00,0.0034
3230.00,0.0035
3229.00,0.0035
3228.00,0.0035
3227.00,0.0035
3226.00,0.0034
3225.00,0.0034
3224.00,0.0034
3223.00,0.0034
3222.00,0.0034
3221.00,0.0034
3220.00,0.0034
3219.00,0.0034
3218.00,0.0033
3217.00,0.0033
3216.00,0.0032
3215.00,0.0032
3214.00,0.0032
3213.00,0.0032
3212.00,0.0031
3211.00,0.0031
3210.00,0.0031
3209.00,0.0031
3208.00,0.0032
3207.00,0.0032
3206.00,0.0032
3205.00,0.0033
3204.00,0.0033
3203.00,0.0033
3202.00,0.0033
3201.00,0.0033
3200.00,0.0033
3199.00,0.0033
3198.00,0.0033
3197.00,0.0033
3196.00,0.0033
3195.00,0.0033
3194.00,0.0033
3193.00,0.0032
3192.00,0.0032
3191.00,0.0032
3190.00,0.0032
3189.00,0.0031
3188.00,0.0031
3187.00,0.0031
3186.00,0.0031
3185.00,0.0031
3184.00,0.0031
3183.00,0.0031
3182.00,0.0031
3181.00,0.0030
3180.00,0.0030
3179.00,0.0030
3178.00,0.0031
3177.00,0.0031
3176.00,0.0030
3175.00,0.0030
3174.00,0.0030
3173.00,0.0030
3172.00,0.0030
3171.00,0.0030
3170.00,0.0029
3169.00,0.0029
3168.00,0.0029
3167.00,0.0029
3166.00,0.0029
3165.00,0.0029
3164.00,0.0029
3163.00,0.0029
3162.00,0.0030
3161.00,0.0030
3160.00,0.0030
3159.00,0.0029
3158.00,0.0029
3157.00,0.0029
3156.00,0.0029
3155.00,0.0029
3154.00,0.0029
3153.00,0.0029
3152.00,0.0029
3151.00,0.0029
3150.00,0.0029
3149.00,0.0028
3148.00,0.0028
3147.00,0.0028
3146.00,0.0028
3145.00,0.0028
3144.00,0.0028
3143.00,0.0028
3142.00,0.0028
3141.00,0.0027
3140.00,0.0027
3139.00,0.0027
3138.00,0.0027
3137.00,0.0028
3136.00,0.0028
3135.00,0.0029
3134.00,0.0029
3133.00,0.0029
3132.00,0.0029
3131.00,0.0029
3130.00,0.0028
3129.00,0.0028
3128.00,0.0028
3127.00,0.0028
3126.00,0.0028
3125.00,0.0028
3124.00,0.0028
3123.00,0.0028
3122.00,0.0029
3121.00,0.0028
3120.00,0.0028
3119.00,0.0028
3118.00,0.0028
3117.00,0.0028
3116.00,0.0029
3115.00,0.0029
3114.00,0.0029
3113.00,0.0030
3112.00,0.0030
3111.00,0.0030
3110.00,0.0030
3109.00,0.0030
3108.00,0.0029
3107.00,0.0029
3106.00,0.0029
3105.00,0.0029
3104.00,0.0029
3103.00,0.0029
3102.00,0.0028
3101.00,0.0028
3100.00,0.0028
3099.00,0.0028
3098.00,0.0027
3097.00,0.0027
3096.00,0.0027
3095.00,0.0027
3094.00,0.0028
3093.00,0.0028
3092.00,0.0028
3091.00,0.0028
3090.00,0.0028
3089.00,0.0028
3088.00,0.0027
3087.00,0.0027
3086.00,0.0027
3085.00,0.0026
3084.00,0.0026
3083.00,0.0026
3082.00,0.0026
3081.00,0.0027
3080.00,0.0027
3079.00,0.0027
3078.00,0.0027
3077.00,0.0027
3076.00,0.0027
3075.00,0.0027
3074.00,0.0026
3073.00,0.0026
3072.00,0.0026
3071.00,0.0026
3070.00,0.0027
3069.00,0.0027
3068.00,0.0027
3067.00,0.0028
3066.00,0.0028
3065.00,0.0028
3064.00,0.0027
3063.00,0.0027
3062.00,0.0027
3061.00,0.0027
3060.00,0.0028
3059.00,0.0029
3058.00,0.0030
3057.00,0.0030
3056.00,0.0030
3055.00,0.0030
3054.00,0.0030
3053.00,0.0030
3052.00,0.0029
3051.00,0.0029
3050.00,0.0029
3049.00,0.0029
3048.00,0.0028
3047.00,0.0028
3046.00,0.0028
3045.00,0.0027
3044.00,0.0026
3043.00,0.0026
3042.00,0.0025
3041.00,0.0025
3040.00,0.0025
3039.00,0.0026
3038.00,0.0026
3037.00,0.0026
3036.00,0.0026
3035.00,0.0027
3034.00,0.0027
3033.00,0.0027
3032.00,0.0027
3031.00,0.0027
3030.00,0.0027
3029.00,0.0027
3028.00,0.0027
3027.00,0.0027
3026.00,0.0027
3025.00,0.0027
3024.00,0.0027
3023.00,0.0027
3022.00,0.0027
3021.00,0.0027
3020.00,0.0027
3019.00,0.0028
3018.00,0.0028
3017.00,0.0029
3016.00,0.0029
3015.00,0.0029
3014.00,0.0029
3013.00,0.0029
3012.00,0.0028
3011.00,0.0028
3010.00,0.0028
3009.00,0.0028
3008.00,0.0028
3007.00,0.0029
3006.00,0.0029
3005.00,0.0029
3004.00,0.0030
3003.00,0.0031
3002.00,0.0031
3001.00,0.0032
3000.00,0.0032
2999.00,0.0032
2998.00,0.0033
2997.00,0.0033
2996.00,0.0034
2995.00,0.0034
2994.00,0.0035
2993.00,0.0035
2992.00,0.0036
2991.00,0.0038
2990.00,0.0039
2989.00,0.0041
2988.00,0.0043
2987.00,0.0045
2986.00,0.0047
2985.00,0.0050
2984.00,0.0053
2983.00,0.0056
2982.00,0.0060
2981.00,0.0064
2980.00,0.0069
2979.00,0.0075
2978.00,0.0082
2977.00,0.0091
2976.00,0.0100
2975.00,0.0112
2974.00,0.0124
2973.00,0.0138
2972.00,0.0153
2971.00,0.0170
2970.00,0.0188
2969.00,0.0207
2968.00,0.0227
2967.00,0.0246
2966.00,0.0263
2965.00,0.0277
2964.00,0.0287
2963.00,0.0293
2962.00,0.0293
2961.00,0.0287
2960.00,0.0276
2959.00,0.0261
2958.00,0.0242
2957.00,0.0222
2956.00,0.0201
2955.00,0.0182
2954.00,0.0164
2953.00,0.0148
2952.00,0.0133
2951.00,0.0120
2950.00,0.0109
2949.00,0.0099
2948.00,0.0091
2947.00,0.0083
2946.00,0.0076
2945.00,0.0071
2944.00,0.0066
2943.00,0.0062
2942.00,0.0059
2941.00,0.0056
2940.00,0.0053
2939.00,0.0051
2938.00,0.0049
2937.00,0.0047
2936.00,0.0045
2935.00,0.0044
2934.00,0.0043
2933.00,0.0042
2932.00,0.0041
2931.00,0.0040
2930.00,0.0039
2929.00,0.0038
2928.00,0.0038
2927.00,0.0037
2926.00,0.0036
2925.00,0.0036
2924.00,0.0035
2923.00,0.0035
2922.00,0.0035
2921.00,0.0035
2920.00,0.0035
2919.00,0.0036
2918.00,0.0037
2917.00,0.0038
2916.00,0.0040
2915.00,0.0041
2914.00,0.0043
2913.00,0.0045
2912.00,0.0047
2911.00,0.0049
2910.00,0.0051
2909.00,0.0054
2908.00,0.0056
2907.00,0.0057
2906.00,0.0059
2905.00,0.0059
2904.00,0.0059
2903.00,0.0058
2902.00,0.0056
2901.00,0.0055
2900.00,0.0053
2899.00,0.0051
2898.00,0.0049
2897.00,0.0048
2896.00,0.0046
2895.00,0.0044
2894.00,0.0042
2893.00,0.0040
2892.00,0.0039
2891.00,0.0037
2890.00,0.0036
2889.00,0.0035
2888.00,0.0034
2887.00,0.0034
2886.00,0.0033
2885.00,0.0032
2884.00,0.0031
2883.00,0.0031
2882.00,0.0031
2881.00,0.0030
2880.00,0.0030
2879.00,0.0029
2878.00,0.0029
2877.00,0.0028
2876.00,0.0028
2875.00,0.0027
2874.00,0.0027
2873.00,0.0026
2872.00,0.0025
2871.00,0.0025
2870.00,0.0024
2869.00,0.0023
2868.00,0.0023
2867.00,0.0023
2866.00,0.0023
2865.00,0.0024
2864.00,0.0024
2863.00,0.0024
2862.00,0.0024
2861.00,0.0024
2860.00,0.0024
2859.00,0.0024
2858.00,0.0024
2857.00,0.0024
2856.00,0.0024
2855.00,0.0024
2854.00,0.0023
2853.00,0.0023
2852.00,0.0023
2851.00,0.0023
2850.00,0.0022
2849.00,0.0022
2848.00,0.0022
2847.00,0.0022
2846.00,0.0022
2845.00,0.0022
2844.00,0.0022
2843.00,0.0023
2842.00,0.0023
2841.00,0.0023
2840.00,0.0023
2839.00,0.0023
2838.00,0.0023
2837.00,0.0023
2836.00,0.0023
2835.00,0.0023
2834.00,0.0023
2833.00,0.0023
2832.00,0.0023
2831.00,0.0023
2830.00,0.0023
2829.00,0.0023
2828.00,0.0023
2827.00,0.0023
2826.00,0.0023
2825.00,0.0023
2824.00,0.0023
2823.00,0.0023
2822.00,0.0023
2821.00,0.0023
2820.00,0.0024
2819.00,0.0024
2818.00,0.0024
2817.00,0.0024
2816.00,0.0024
2815.00,0.0024
2814.00,0.0023
2813.00,0.0023
2812.00,0.0023
2811.00,0.0022
2810.00,0.0022
2809.00,0.0023
2808.00,0.0023
2807.00,0.0023
2806.00,0.0023
2805.00,0.0023
2804.00,0.0023
2803.00,0.0023
2802.00,0.0023
2801.00,0.0024
2800.00,0.0024
2799.00,0.0024
2798.00,0.0024
2797.00,0.0023
2796.00,0.0023
2795.00,0.0023
2794.00,0.0023
2793.00,0.0023
2792.00,0.0023
2791.00,0.0022
2790.00,0.0022
2789.00,0.0022
2788.00,0.0021
2787.00,0.0021
2786.00,0.0020
2785.00,0.0020
2784.00,0.0020
2783.00,0.0020
2782.00,0.0020
2781.00,0.0019
2780.00,0.0019
2779.00,0.0019
2778.00,0.0019
2777.00,0.0019
2776.00,0.0019
2775.00,0.0019
2774.00,0.0019
2773.00,0.0018
2772.00,0.0018
2771.00,0.0018
2770.00,0.0018
2769.00,0.0018
2768.00,0.0018
2767.00,0.0018
2766.00,0.0018
2765.00,0.0018
2764.00,0.0018
2763.00,0.0018
2762.00,0.0018
2761.00,0.0018
2760.00,0.0018
2759.00,0.0018
2758.00,0.0018
2757.00,0.0017
2756.00,0.0017
2755.00,0.0017
2754.00,0.0017
2753.00,0.0017
2752.00,0.0017
2751.00,0.0017
2750.00,0.0017
2749.00,0.0017
2748.00,0.0016
2747.00,0.0016
2746.00,0.0017
2745.00,0.0017
2744.00,0.0017
2743.00,0.0018
2742.00,0.0018
2741.00,0.0018
2740.00,0.0018
2739.00,0.0017
2738.00,0.0017
2737.00,0.0017
2736.00,0.0017
2735.00,0.0017
2734.00,0.0017
2733.00,0.0017
2732.00,0.0017
2731.00,0.0017
2730.00,0.0017
2729.00,0.0017
2728.00,0.0017
2727.00,0.0017
2726.00,0.0017
2725.00,0.0016
2724.00,0.0016
2723.00,0.0016
2722.00,0.0015
2721.00,0.0015
2720.00,0.0015
2719.00,0.0015
2718.00,0.0015
2717.00,0.0015
2716.00,0.0015
2715.00,0.0015
2714.00,0.0015
2713.00,0.0016
2712.00,0.0016
2711.00,0.0016
2710.00,0.0016
2709.00,0.0017
2708.00,0.0017
2707.00,0.0017
2706.00,0.0017
2705.00,0.0016
2704.00,0.0016
2703.00,0.0016
2702.00,0.0016
2701.00,0.0016
2700.00,0.0017
2699.00,0.0017
2698.00,0.0017
2697.00,0.0016
2696.00,0.0016
2695.00,0.0016
2694.00,0.0016
2693.00,0.0016
2692.00,0.0016
2691.00,0.0016
2690.00,0.0016
2689.00,0.0016
2688.00,0.0015
2687.00,0.0015
2686.00,0.0015
2685.00,0.0015
2684.00,0.0015
2683.00,0.0015
2682.00,0.0016
2681.00,0.0016
2680.00,0.0016
2679.00,0.0016
2678.00,0.0017
2677.00,0.0017
2676.00,0.0018
2675.00,0.0018
2674.00,0.0018
2673.00,0.0017
2672.00,0.0017
2671.00,0.0017
2670.00,0.0017
2669.00,0.0017
2668.00,0.0018
2667.00,0.0018
2666.00,0.0017
2665.00,0.0017
2664.00,0.0016
2663.00,0.0016
2662.00,0.0016
2661.00,0.0016
2660.00,0.0016
2659.00,0.0016
2658.00,0.0016
2657.00,0.0017
2656.00,0.0017
2655.00,0.0017
2654.00,0.0017
2653.00,0.0017
2652.00,0.0017
2651.00,0.0017
2650.00,0.0017
2649.00,0.0016
2648.00,0.0016
2647.00,0.0016
2646.00,0.0016
2645.00,0.0015
2644.00,0.0015
2643.00,0.0014
2642.00,0.0014
2641.00,0.0013
2640.00,0.0013
2639.00,0.0013
2638.00,0.0013
2637.00,0.0014
2636.00,0.0014
2635.00,0.0014
2634.00,0.0014
2633.00,0.0014
2632.00,0.0014
2631.00,0.0014
2630.00,0.0013
2629.00,0.0012
2628.00,0.0012
2627.00,0.0012
2626.00,0.0013
2625.00,0.0013
2624.00,0.0013
2623.00,0.0013
2622.00,0.0013
2621.00,0.0013
2620.00,0.0014
2619.00,0.0014
2618.00,0.0015
2617.00,0.0015
2616.00,0.0015
2615.00,0.0014
2614.00,0.0014
2613.00,0.0013
2612.00,0.0013
2611.00,0.0012
2610.00,0.0012
2609.00,0.0012
2608.00,0.0012
2607.00,0.0012
2606.00,0.0012
2605.00,0.0012
2604.00,0.0013
2603.00,0.0013
2602.00,0.0013
2601.00,0.0013
2600.00,0.0012
2599.00,0.0012
2598.00,0.0012
2597.00,0.0012
2596.00,0.0012
2595.00,0.0012
2594.00,0.0013
2593.00,0.0013
2592.00,0.0013
2591.00,0.0013
2590.00,0.0013
2589.00,0.0013
2588.00,0.0013
2587.00,0.0013
2586.00,0.0013
2585.00,0.0013
2584.00,0.0012
2583.00,0.0012
2582.00,0.0012
2581.00,0.0012
2580.00,0.0012
2579.00,0.0012
2578.00,0.0012
2577.00,0.0011
2576.00,0.0011
2575.00,0.0011
2574.00,0.0010
2573.00,0.0010
2572.00,0.0011
2571.00,0.0011
2570.00,0.0012
2569.00,0.0012
2568.00,0.0012
2567.00,0.0011
2566.00,0.0011
2565.00,0.0011
2564.00,0.0010
2563.00,0.0010
2562.00,0.0010
2561.00,0.0010
2560.00,0.0010
2559.00,0.0010
2558.00,0.0010
2557.00,0.0010
2556.00,0.0010
2555.00,0.0010
2554.00,0.0011
2553.00,0.0011
2552.00,0.0011
2551.00,0.0011
2550.00,0.0011
2549.00,0.0011
2548.00,0.0010
2547.00,0.0010
2546.00,0.0009
2545.00,0.0009
2544.00,0.0009
2543.00,0.0010
2542.00,0.0010
2541.00,0.0010
2540.00,0.0010
2539.00,0.0010
2538.00,0.0009
2537.00,0.0009
2536.00,0.0009
2535.00,0.0009
2534.00,0.0009
2533.00,0.0009
2532.00,0.0008
2531.00,0.0008
2530.00,0.0008
2529.00,0.0008
2528.00,0.0008
2527.00,0.0008
2526.00,0.0008
2525.00,0.0008
2524.00,0.0008
2523.00,0.0007
2522.00,0.0007
2521.00,0.0007
2520.00,0.0006
2519.00,0.0006
2518.00,0.0007
2517.00,0.0007
2516.00,0.0008
2515.00,0.0009
2514.00,0.0009
2513.00,0.0010
2512.00,0.0009
2511.00,0.0009
2510.00,0.0009
2509.00,0.0010
2508.00,0.0010
2507.00,0.0009
2506.00,0.0009
2505.00,0.0008
2504.00,0.0009
2503.00,0.0009
2502.00,0.0010
2501.00,0.0010
2500.00,0.0011
2499.00,0.0010
2498.00,0.0010
2497.00,0.0010
2496.00,0.0010
2495.00,0.0010
2494.00,0.0010
2493.00,0.0010
2492.00,0.0010
2491.00,0.0009
2490.00,0.0008
2489.00,0.0007
2488.00,0.0007
2487.00,0.0007
2486.00,0.0008
2485.00,0.0009
2484.00,0.0009
2483.00,0.0010
2482.00,0.0010
2481.00,0.0009
2480.00,0.0009
2479.00,0.0009
2478.00,0.0009
2477.00,0.0009
2476.00,0.0009
2475.00,0.0008
2474.00,0.0008
2473.00,0.0008
2472.00,0.0008
2471.00,0.0009
2470.00,0.0009
2469.00,0.0010
2468.00,0.0010
2467.00,0.0010
2466.00,0.0011
2465.00,0.0011
2464.00,0.0011
2463.00,0.0011
2462.00,0.0010
2461.00,0.0010
2460.00,0.0010
2459.00,0.0009
2458.00,0.0009
2457.00,0.0009
2456.00,0.0009
2455.00,0.0009
2454.00,0.0010
2453.00,0.0010
2452.00,0.0011
2451.00,0.0011
2450.00,0.0011
2449.00,0.0011
2448.00,0.0011
2447.00,0.0011
2446.00,0.0011
2445.00,0.0010
2444.00,0.0010
2443.00,0.0009
2442.00,0.0009
2441.00,0.0009
2440.00,0.0009
2439.00,0.0010
2438.00,0.0010
2437.00,0.0009
2436.00,0.0009
2435.00,0.0009
2434.00,0.0009
2433.00,0.0009
2432.00,0.0009
2431.00,0.0009
2430.00,0.0009
2429.00,0.0009
2428.00,0.0008
2427.00,0.0008
2426.00,0.0008
2425.00,0.0008
2424.00,0.0008
2423.00,0.0009
2422.00,0.0009
2421.00,0.0009
2420.00,0.0009
2419.00,0.0009
2418.00,0.0009
2417.00,0.0009
2416.00,0.0010
2415.00,0.0010
2414.00,0.0010
2413.00,0.0010
2412.00,0.0010
2411.00,0.0010
2410.00,0.0009
2409.00,0.0008
2408.00,0.0008
2407.00,0.0008
2406.00,0.0008
2405.00,0.0008
2404.00,0.0008
2403.00,0.0009
2402.00,0.0009
2401.00,0.0009
2400.00,0.0010
2399.00,0.0010
2398.00,0.0010
2397.00,0.0010
2396.00,0.0010
2395.00,0.0010
2394.00,0.0010
2393.00,0.0011
2392.00,0.0011
2391.00,0.0011
2390.00,0.0010
2389.00,0.0010
2388.00,0.0010
2387.00,0.0010
2386.00,0.0010
2385.00,0.0011
2384.00,0.0011
2383.00,0.0011
2382.00,0.0011
2381.00,0.0011
2380.00,0.0011
2379.00,0.0011
2378.00,0.0011
2377.00,0.0011
2376.00,0.0011
2375.00,0.0011
2374.00,0.0011
2373.00,0.0011
2372.00,0.0011
2371.00,0.0012
2370.00,0.0011
2369.00,0.0011
2368.00,0.0010
2367.00,0.0010
2366.00,0.0011
2365.00,0.0011
2364.00,0.0011
2363.00,0.0011
2362.00,0.0011
2361.00,0.0011
2360.00,0.0011
2359.00,0.0011
2358.00,0.0012
2357.00,0.0013
2356.00,0.0013
2355.00,0.0013
2354.00,0.0013
2353.00,0.0013
2352.00,0.0013
2351.00,0.0013
2350.00,0.0012
2349.00,0.0010
2348.00,0.0009
2347.00,0.0008
2346.00,0.0008
2345.00,0.0009
2344.00,0.0009
2343.00,0.0009
2342.00,0.0009
2341.00,0.0010
2340.00,0.0011
2339.00,0.0011
2338.00,0.0012
2337.00,0.0012
2336.00,0.0012
2335.00,0.0011
2334.00,0.0011
2333.00,0.0011
2332.00,0.0010
2331.00,0.0010
2330.00,0.0011
2329.00,0.0011
2328.00,0.0012
2327.00,0.0012
2326.00,0.0012
2325.00,0.0012
2324.00,0.0011
2323.00,0.0010
2322.00,0.0010
2321.00,0.0010
2320.00,0.0011
2319.00,0.0011
2318.00,0.0011
2317.00,0.0011
2316.00,0.0010
2315.00,0.0009
2314.00,0.0009
2313.00,0.0009
2312.00,0.0009
2311.00,0.0009
2310.00,0.0009
2309.00,0.0008
2308.00,0.0008
2307.00,0.0007
2306.00,0.0007
2305.00,0.0007
2304.00,0.0008
2303.00,0.0009
2302.00,0.0010
2301.00,0.0010
2300.00,0.0011
2299.00,0.0011
2298.00,0.0011
2297.00,0.0010
2296.00,0.0010
2295.00,0.0010
2294.00,0.0009
2293.00,0.0008
2292.00,0.0007
2291.00,0.0006
2290.00,0.0005
2289.00,0.0005
2288.00,0.0004
2287.00,0.0004
2286.00,0.0005
2285.00,0.0005
2284.00,0.0005
2283.00,0.0005
2282.00,0.0005
2281.00,0.0006
2280.00,0.0006
2279.00,0.0006
2278.00,0.0007
2277.00,0.0006
2276.00,0.0006
2275.00,0.0005
2274.00,0.0004
2273.00,0.0004
2272.00,0.0004
2271.00,0.0004
2270.00,0.0004
2269.00,0.0004
2268.00,0.0003
2267.00,0.0002
2266.00,0.0002
2265.00,0.0003
2264.00,0.0004
2263.00,0.0004
2262.00,0.0004
2261.00,0.0002
2260.00,0.0002
2259.00,0.0001
2258.00,0.0001
2257.00,0.0002
2256.00,0.0003
2255.00,0.0003
2254.00,0.0004
2253.00,0.0005
2252.00,0.0005
2251.00,0.0005
2250.00,0.0005
2249.00,0.0004
2248.00,0.0004
2247.00,0.0003
2246.00,0.0002
2245.00,0.0002
2244.00,0.0002
2243.00,0.0002
2242.00,0.0002
2241.00,0.0002
2240.00,0.0002
2239.00,0.0003
2238.00,0.0003
2237.00,0.0003
2236.00,0.0002
2235.00,0.0003
2234.00,0.0004
2233.00,0.0005
2232.00,0.0006
2231.00,0.0007
2230.00,0.0006
2229.00,0.0005
2228.00,0.0005
2227.00,0.0004
2226.00,0.0003
2225.00,0.0002
2224.00,0.0001
2223.00,0.0000
2222.00,-0.0001
2221.00,-0.0002
2220.00,-0.0003
2219.00,-0.0003
2218.00,-0.0003
2217.00,-0.0004
2216.00,-0.0004
2215.00,-0.0004
2214.00,-0.0004
2213.00,-0.0003
2212.00,-0.0003
2211.00,-0.0002
2210.00,-0.0002
2209.00,-0.0001
2208.00,-0.0002
2207.00,-0.0002
2206.00,-0.0002
2205.00,-0.0002
2204.00,-0.0001
2203.00,0.0001
2202.00,0.0002
2201.00,0.0002
2200.00,0.0001
2199.00,-0.0000
2198.00,-0.0002
2197.00,-0.0003
2196.00,-0.0004
2195.00,-0.0005
2194.00,-0.0006
2193.00,-0.0006
2192.00,-0.0004
2191.00,-0.0001
2190.00,0.0001
2189.00,0.0001
2188.00,0.0001
2187.00,-0.0000
2186.00,-0.0001
2185.00,-0.0001
2184.00,-0.0001
2183.00,-0.0001
2182.00,-0.0001
2181.00,-0.0001
2180.00,-0.0001
2179.00,-0.0002
2178.00,-0.0003
2177.00,-0.0003
2176.00,-0.0003
2175.00,-0.0001
2174.00,0.0000
2173.00,0.0001
2172.00,0.0001
2171.00,0.0000
2170.00,-0.0001
2169.00,-0.0001
2168.00,-0.0000
2167.00,0.0001
2166.00,0.0002
2165.00,0.0002
2164.00,0.0000
2163.00,-0.0002
2162.00,-0.0004
2161.00,-0.0006
2160.00,-0.0007
2159.00,-0.0007
2158.00,-0.0007
2157.00,-0.0006
2156.00,-0.0006
2155.00,-0.0005
2154.00,-0.0004
2153.00,-0.0004
2152.00,-0.0003
2151.00,-0.0002
2150.00,-0.0000
2149.00,0.0001
2148.00,0.0001
2147.00,0.0001
2146.00,0.0000
2145.00,-0.0000
2144.00,0.0000
2143.00,0.0001
2142.00,0.0001
2141.00,-0.0000
2140.00,-0.0001
2139.00,-0.0002
2138.00,-0.0002
2137.00,-0.0002
2136.00,-0.0002
2135.00,-0.0003
2134.00,-0.0003
2133.00,-0.0004
2132.00,-0.0003
2131.00,-0.0002
2130.00,-0.0002
2129.00,-0.0001
2128.00,0.0000
2127.00,0.0001
2126.00,0.0001
2125.00,0.0001
2124.00,-0.0000
2123.00,-0.0001
2122.00,-0.0001
2121.00,-0.0000
2120.00,0.0000
2119.00,0.0001
2118.00,0.0002
2117.00,0.0002
2116.00,0.0002
2115.00,0.0001
2114.00,-0.0001
2113.00,-0.0002
2112.00,-0.0003
2111.00,-0.0004
2110.00,-0.0004
2109.00,-0.0003
2108.00,-0.0002
2107.00,-0.0001
2106.00,-0.0000
2105.00,0.0000
2104.00,0.0000
2103.00,0.0000
2102.00,0.0000
2101.00,0.0001
2100.00,0.0002
2099.00,0.0002
2098.00,0.0002
2097.00,0.0001
2096.00,-0.0000
2095.00,-0.0001
2094.00,-0.0001
2093.00,-0.0001
2092.00,0.0001
2091.00,0.0002
2090.00,0.0002
2089.00,0.0002
2088.00,0.0001
2087.00,0.0001
2086.00,-0.0000
2085.00,-0.0001
2084.00,-0.0001
2083.00,-0.0002
2082.00,-0.0002
2081.00,-0.0002
2080.00,-0.0002
2079.00,-0.0002
2078.00,-0.0001
2077.00,-0.0001
2076.00,-0.0001
2075.00,-0.0001
2074.00,-0.0001
2073.00,-0.0001
2072.00,-0.0001
2071.00,-0.0000
2070.00,0.0000
2069.00,0.0000
2068.00,0.0000
2067.00,-0.0000
2066.00,-0.0001
2065.00,-0.0001
2064.00,-0.0001
2063.00,-0.0000
2062.00,-0.0000
2061.00,0.0000
2060.00,0.0001
2059.00,0.0001
2058.00,0.0001
2057.00,0.0000
2056.00,-0.0002
2055.00,-0.0004
2054.00,-0.0006
2053.00,-0.0007
2052.00,-0.0007
2051.00,-0.0005
2050.00,-0.0003
2049.00,-0.0002
2048.00,-0.0002
2047.00,-0.0003
2046.00,-0.0003
2045.00,-0.0004
2044.00,-0.0003
2043.00,-0.0003
2042.00,-0.0005
2041.00,-0.0007
2040.00,-0.0009
2039.00,-0.0011
2038.00,-0.0011
2037.00,-0.0012
2036.00,-0.0013
2035.00,-0.0014
2034.00,-0.0015
2033.00,-0.0015
2032.00,-0.0014
2031.00,-0.0012
2030.00,-0.0010
2029.00,-0.0010
2028.00,-0.0011
2027.00,-0.0012
2026.00,-0.0013
2025.00,-0.0013
2024.00,-0.0012
2023.00,-0.0012
2022.00,-0.0011
2021.00,-0.0011
2020.00,-0.0010
2019.00,-0.0010
2018.00,-0.0010
2017.00,-0.0011
2016.00,-0.0012
2015.00,-0.0013
2014.00,-0.0013
2013.00,-0.0012
2012.00,-0.0011
2011.00,-0.0009
2010.00,-0.0007
2009.00,-0.0006
2008.00,-0.0005
2007.00,-0.0004
2006.00,-0.0004
2005.00,-0.0004
2004.00,-0.0004
2003.00,-0.0003
2002.00,-0.0003
2001.00,-0.0001
2000.00,-0.0000
1999.00,0.0001
1998.00,0.0001
1997.00,0.0000
1996.00,0.0000
1995.00,0.0001
1994.00,0.0002
1993.00,0.0003
1992.00,0.0004
1991.00,0.0002
1990.00,0.0001
1989.00,-0.0001
1988.00,-0.0002
1987.00,-0.0003
1986.00,-0.0004
1985.00,-0.0004
1984.00,-0.0004
1983.00,-0.0003
1982.00,-0.0002
1981.00,-0.0001
1980.00,0.0000
1979.00,0.0001
1978.00,0.0002
1977.00,0.0003
1976.00,0.0005
1975.00,0.0007
1974.00,0.0007
1973.00,0.0008
1972.00,0.0007
1971.00,0.0006
1970.00,0.0005
1969.00,0.0005
1968.00,0.0005
1967.00,0.0005
1966.00,0.0005
1965.00,0.0004
1964.00,0.0004
1963.00,0.0004
1962.00,0.0004
1961.00,0.0005
1960.00,0.0006
1959.00,0.0007
1958.00,0.0008
1957.00,0.0009
1956.00,0.0009
1955.00,0.0009
1954.00,0.0009
1953.00,0.0009
1952.00,0.0011
1951.00,0.0012
1950.00,0.0014
1949.00,0.0014
1948.00,0.0014
1947.00,0.0013
1946.00,0.0013
1945.00,0.0012
1944.00,0.0012
1943.00,0.0012
1942.00,0.0011
1941.00,0.0011
1940.00,0.0011
1939.00,0.0011
1938.00,0.0011
1937.00,0.0011
1936.00,0.0011
1935.00,0.0011
1934.00,0.0011
1933.00,0.0011
1932.00,0.0010
1931.00,0.0010
1930.00,0.0010
1929.00,0.0011
1928.00,0.0011
1927.00,0.0011
1926.00,0.0011
1925.00,0.0011
1924.00,0.0011
1923.00,0.0011
1922.00,0.0012
1921.00,0.0012
1920.00,0.0012
1919.00,0.0012
1918.00,0.0013
1917.00,0.0013
1916.00,0.0013
1915.00,0.0013
1914.00,0.0012
1913.00,0.0011
1912.00,0.0010
1911.00,0.0010
1910.00,0.0010
1909.00,0.0010
1908.00,0.0010
1907.00,0.0009
1906.00,0.0009
1905.00,0.0009
1904.00,0.0009
1903.00,0.0009
1902.00,0.0010
1901.00,0.0010
1900.00,0.0010
1899.00,0.0010
1898.00,0.0010
1897.00,0.0010
1896.00,0.0010
1895.00,0.0010
1894.00,0.0010
1893.00,0.0010
1892.00,0.0011
1891.00,0.0011
1890.00,0.0012
1889.00,0.0012
1888.00,0.0012
1887.00,0.0012
1886.00,0.0012
1885.00,0.0012
1884.00,0.0012
1883.00,0.0012
1882.00,0.0012
1881.00,0.0012
1880.00,0.0012
1879.00,0.0012
1878.00,0.0012
1877.00,0.0012
1876.00,0.0012
1875.00,0.0011
1874.00,0.0010
1873.00,0.0010
1872.00,0.0011
1871.00,0.0011
1870.00,0.0012
1869.00,0.0012
1868.00,0.0012
1867.00,0.0012
1866.00,0.0012
1865.00,0.0013
1864.00,0.0014
1863.00,0.0015
1862.00,0.0015
1861.00,0.0015
1860.00,0.0014
1859.00,0.0013
1858.00,0.0013
1857.00,0.0013
1856.00,0.0013
1855.00,0.0013
1854.00,0.0014
1853.00,0.0014
1852.00,0.0014
1851.00,0.0014
1850.00,0.0013
1849.00,0.0013
1848.00,0.0012
1847.00,0.0012
1846.00,0.0012
1845.00,0.0012
1844.00,0.0012
1843.00,0.0013
1842.00,0.0013
1841.00,0.0012
1840.00,0.0012
1839.00,0.0012
1838.00,0.0013
1837.00,0.0013
1836.00,0.0013
1835.00,0.0013
1834.00,0.0013
1833.00,0.0013
1832.00,0.0013
1831.00,0.0013
1830.00,0.0014
1829.00,0.0014
1828.00,0.0014
1827.00,0.0014
1826.00,0.0014
1825.00,0.0014
1824.00,0.0014
1823.00,0.0014
1822.00,0.0014
1821.00,0.0014
1820.00,0.0014
1819.00,0.0014
1818.00,0.0014
1817.00,0.0015
1816.00,0.0016
1815.00,0.0016
1814.00,0.0016
1813.00,0.0016
1812.00,0.0016
1811.00,0.0016
1810.00,0.0016
1809.00,0.0016
1808.00,0.0016
1807.00,0.0016
1806.00,0.0016
1805.00,0.0016
1804.00,0.0016
1803.00,0.0017
1802.00,0.0017
1801.00,0.0017
1800.00,0.0017
1799.00,0.0017
1798.00,0.0017
1797.00,0.0018
1796.00,0.0018
1795.00,0.0018
1794.00,0.0018
1793.00,0.0018
1792.00,0.0019
1791.00,0.0019
1790.00,0.0019
1789.00,0.0020
1788.00,0.0020
1787.00,0.0020
1786.00,0.0020
1785.00,0.0019
1784.00,0.0020
1783.00,0.0020
1782.00,0.0020
1781.00,0.0020
1780.00,0.0019
1779.00,0.0019
1778.00,0.0019
1777.00,0.0020
1776.00,0.0020
1775.00,0.0020
1774.00,0.0020
1773.00,0.0020
1772.00,0.0020
1771.00,0.0020
1770.00,0.0020
1769.00,0.0020
1768.00,0.0020
1767.00,0.0020
1766.00,0.0020
1765.00,0.0020
1764.00,0.0020
1763.00,0.0020
1762.00,0.0020
1761.00,0.0020
1760.00,0.0020
1759.00,0.0020
1758.00,0.0020
1757.00,0.0020
1756.00,0.0020
1755.00,0.0020
1754.00,0.0020
1753.00,0.0020
1752.00,0.0021
1751.00,0.0021
1750.00,0.0021
1749.00,0.0021
1748.00,0.0020
1747.00,0.0020
1746.00,0.0020
1745.00,0.0020
1744.00,0.0020
1743.00,0.0020
1742.00,0.0021
1741.00,0.0021
1740.00,0.0021
1739.00,0.0021
1738.00,0.0021
1737.00,0.0021
1736.00,0.0022
1735.00,0.0022
1734.00,0.0022
1733.00,0.0021
1732.00,0.0021
1731.00,0.0021
1730.00,0.0022
1729.00,0.0022
1728.00,0.0022
1727.00,0.0023
1726.00,0.0023
1725.00,0.0023
1724.00,0.0023
1723.00,0.0023
1722.00,0.0023
1721.00,0.0023
1720.00,0.0023
1719.00,0.0023
1718.00,0.0024
1717.00,0.0024
1716.00,0.0024
1715.00,0.0024
1714.00,0.0024
1713.00,0.0024
1712.00,0.0024
1711.00,0.0025
1710.00,0.0025
1709.00,0.0025
1708.00,0.0025
1707.00,0.0025
1706.00,0.0025
1705.00,0.0025
1704.00,0.0025
1703.00,0.0025
1702.00,0.0025
1701.00,0.0025
1700.00,0.0025
1699.00,0.0025
1698.00,0.0026
1697.00,0.0026
1696.00,0.0027
1695.00,0.0027
1694.00,0.0027
1693.00,0.0027
1692.00,0.0027
1691.00,0.0027
1690.00,0.0027
1689.00,0.0027
1688.00,0.0027
1687.00,0.0027
1686.00,0.0027
1685.00,0.0027
1684.00,0.0027
1683.00,0.0027
1682.00,0.0028
1681.00,0.0028
1680.00,0.0029
1679.00,0.0030
1678.00,0.0030
1677.00,0.0030
1676.00,0.0030
1675.00,0.0030
1674.00,0.0030
1673.00,0.0030
1672.00,0.0030
1671.00,0.0031
1670.00,0.0031
1669.00,0.0031
1668.00,0.0031
1667.00,0.0031
1666.00,0.0031
1665.00,0.0031
1664.00,0.0032
1663.00,0.0032
1662.00,0.0033
1661.00,0.0034
1660.00,0.0034
1659.00,0.0034
1658.00,0.0034
1657.00,0.0035
1656.00,0.0034
1655.00,0.0034
1654.00,0.0034
1653.00,0.0034
1652.00,0.0034
1651.00,0.0034
1650.00,0.0034
1649.00,0.0034
1648.00,0.0034
1647.00,0.0034
1646.00,0.0035
1645.00,0.0035
1644.00,0.0035
1643.00,0.0035
1642.00,0.0035
1641.00,0.0035
1640.00,0.0035
1639.00,0.0036
1638.00,0.0036
1637.00,0.0036
1636.00,0.0037
1635.00,0.0037
1634.00,0.0038
1633.00,0.0038
1632.00,0.0037
1631.00,0.0037
1630.00,0.0037
1629.00,0.0037
1628.00,0.0037
1627.00,0.0037
1626.00,0.0037
1625.00,0.0037
1624.00,0.0036
1623.00,0.0036
1622.00,0.0036
1621.00,0.0035
1620.00,0.0035
1619.00,0.0035
1618.00,0.0035
1617.00,0.0035
1616.00,0.0036
1615.00,0.0036
1614.00,0.0036
1613.00,0.0037
1612.00,0.0037
1611.00,0.0036
1610.00,0.0036
1609.00,0.0036
1608.00,0.0036
1607.00,0.0036
1606.00,0.0036
1605.00,0.0036
1604.00,0.0036
1603.00,0.0037
1602.00,0.0038
1601.00,0.0038
1600.00,0.0039
1599.00,0.0040
1598.00,0.0040
1597.00,0.0040
1596.00,0.0040
1595.00,0.0039
1594.00,0.0038
1593.00,0.0037
1592.00,0.0036
1591.00,0.0036
1590.00,0.0035
1589.00,0.0035
1588.00,0.0035
1587.00,0.0034
1586.00,0.0034
1585.00,0.0034
1584.00,0.0034
1583.00,0.0034
1582.00,0.0034
1581.00,0.0034
1580.00,0.0034
1579.00,0.0034
1578.00,0.0034
1577.00,0.0033
1576.00,0.0033
1575.00,0.0033
1574.00,0.0032
1573.00,0.0032
1572.00,0.0032
1571.00,0.0031
1570.00,0.0031
1569.00,0.0031
1568.00,0.0031
1567.00,0.0031
1566.00,0.0031
1565.00,0.0031
1564.00,0.0031
1563.00,0.0031
1562.00,0.0031
1561.00,0.0032
1560.00,0.0031
1559.00,0.0031
1558.00,0.0031
1557.00,0.0031
1556.00,0.0031
1555.00,0.0031
1554.00,0.0031
1553.00,0.0030
1552.00,0.0030
1551.00,0.0030
1550.00,0.0029
1549.00,0.0029
1548.00,0.0029
1547.00,0.0029
1546.00,0.0029
1545.00,0.0029
1544.00,0.0029
1543.00,0.0029
1542.00,0.0028
1541.00,0.0027
1540.00,0.0026
1539.00,0.0026
1538.00,0.0027
1537.00,0.0027
1536.00,0.0028
1535.00,0.0028
1534.00,0.0028
1533.00,0.0029
1532.00,0.0029
1531.00,0.0028
1530.00,0.0028
1529.00,0.0028
1528.00,0.0028
1527.00,0.0027
1526.00,0.0028
1525.00,0.0028
1524.00,0.0028
1523.00,0.0029
1522.00,0.0029
1521.00,0.0029
1520.00,0.0030
1519.00,0.0030
1518.00,0.0030
1517.00,0.0030
1516.00,0.0029
1515.00,0.0029
1514.00,0.0029
1513.00,0.0029
1512.00,0.0029
1511.00,0.0029
1510.00,0.0029
1509.00,0.0029
1508.00,0.0029
1507.00,0.0029
1506.00,0.0029
1505.00,0.0029
1504.00,0.0029
1503.00,0.0029
1502.00,0.0029
1501.00,0.0029
1500.00,0.0029
1499.00,0.0029
1498.00,0.0029
1497.00,0.0029
1496.00,0.0029
1495.00,0.0030
1494.00,0.0030
1493.00,0.0030
1492.00,0.0030
1491.00,0.0030
1490.00,0.0030
1489.00,0.0030
1488.00,0.0031
1487.00,0.0031
1486.00,0.0032
1485.00,0.0033
1484.00,0.0033
1483.00,0.0033
1482.00,0.0033
1481.00,0.0033
1480.00,0.0033
1479.00,0.0033
1478.00,0.0034
1477.00,0.0034
1476.00,0.0034
1475.00,0.0034
1474.00,0.0034
1473.00,0.0034
1472.00,0.0034
1471.00,0.0034
1470.00,0.0034
1469.00,0.0034
1468.00,0.0034
1467.00,0.0035
1466.00,0.0036
1465.00,0.0037
1464.00,0.0038
1463.00,0.0040
1462.00,0.0041
1461.00,0.0041
1460.00,0.0042
1459.00,0.0043
1458.00,0.0044
1457.00,0.0045
1456.00,0.0047
1455.00,0.0049
1454.00,0.0050
1453.00,0.0051
1452.00,0.0053
1451.00,0.0054
1450.00,0.0056
1449.00,0.0057
1448.00,0.0058
1447.00,0.0059
1446.00,0.0060
1445.00,0.0060
1444.00,0.0059
1443.00,0.0059
1442.00,0.0058
1441.00,0.0057
1440.00,0.0055
1439.00,0.0054
1438.00,0.0052
1437.00,0.0052
1436.00,0.0051
1435.00,0.0051
1434.00,0.0051
1433.00,0.0051
1432.00,0.0051
1431.00,0.0052
1430.00,0.0053
1429.00,0.0054
1428.00,0.0055
1427.00,0.0057
1426.00,0.0059
1425.00,0.0062
1424.00,0.0066
1423.00,0.0069
1422.00,0.0073
1421.00,0.0077
1420.00,0.0082
1419.00,0.0088
1418.00,0.0094
1417.00,0.0099
1416.00,0.0103
1415.00,0.0107
1414.00,0.0109
1413.00,0.0111
1412.00,0.0111
1411.00,0.0112
1410.00,0.0111
1409.00,0.0110
1408.00,0.0109
1407.00,0.0107
1406.00,0.0105
1405.00,0.0103
1404.00,0.0101
1403.00,0.0100
1402.00,0.0098
1401.00,0.0096
1400.00,0.0094
1399.00,0.0090
1398.00,0.0087
1397.00,0.0083
1396.00,0.0079
1395.00,0.0075
1394.00,0.0071
1393.00,0.0066
1392.00,0.0063
1391.00,0.0060
1390.00,0.0058
1389.00,0.0056
1388.00,0.0054
1387.00,0.0052
1386.00,0.0050
1385.00,0.0049
1384.00,0.0047
1383.00,0.0046
1382.00,0.0046
1381.00,0.0045
1380.00,0.0044
1379.00,0.0044
1378.00,0.0043
1377.00,0.0043
1376.00,0.0043
1375.00,0.0042
1374.00,0.0042
1373.00,0.0043
1372.00,0.0042
1371.00,0.0042
1370.00,0.0042
1369.00,0.0041
1368.00,0.0041
1367.00,0.0040
1366.00,0.0040
1365.00,0.0040
1364.00,0.0039
1363.00,0.0039
1362.00,0.0038
1361.00,0.0038
1360.00,0.0038
1359.00,0.0038
1358.00,0.0037
1357.00,0.0037
1356.00,0.0037
1355.00,0.0037
1354.00,0.0036
1353.00,0.0036
1352.00,0.0036
1351.00,0.0036
1350.00,0.0036
1349.00,0.0036
1348.00,0.0036
1347.00,0.0036
1346.00,0.0037
1345.00,0.0037
1344.00,0.0037
1343.00,0.0037
1342.00,0.0037
1341.00,0.0037
1340.00,0.0037
1339.00,0.0037
1338.00,0.0036
1337.00,0.0037
1336.00,0.0037
1335.00,0.0037
1334.00,0.0037
1333.00,0.0037
1332.00,0.0037
1331.00,0.0037
1330.00,0.0038
1329.00,0.0038
1328.00,0.0038
1327.00,0.0039
1326.00,0.0039
1325.00,0.0040
1324.00,0.0040
1323.00,0.0040
1322.00,0.0041
1321.00,0.0041
1320.00,0.0041
1319.00,0.0041
1318.00,0.0041
1317.00,0.0042
1316.00,0.0042
1315.00,0.0043
1314.00,0.0044
1313.00,0.0045
1312.00,0.0046
1311.00,0.0046
1310.00,0.0047
1309.00,0.0048
1308.00,0.0049
1307.00,0.0049
1306.00,0.0050
1305.00,0.0051
1304.00,0.0052
1303.00,0.0052
1302.00,0.0053
1301.00,0.0054
1300.00,0.0055
1299.00,0.0056
1298.00,0.0057
1297.00,0.0058
1296.00,0.0060
1295.00,0.0061
1294.00,0.0063
1293.00,0.0064
1292.00,0.0066
1291.00,0.0068
1290.00,0.0070
1289.00,0.0072
1288.00,0.0075
1287.00,0.0077
1286.00,0.0080
1285.00,0.0084
1284.00,0.0087
1283.00,0.0091
1282.00,0.0095
1281.00,0.0100
1280.00,0.0106
1279.00,0.0113
1278.00,0.0121
1277.00,0.0131
1276.00,0.0143
1275.00,0.0157
1274.00,0.0174
1273.00,0.0196
1272.00,0.0224
1271.00,0.0261
1270.00,0.0309
1269.00,0.0371
1268.00,0.0450
1267.00,0.0548
1266.00,0.0666
1265.00,0.0801
1264.00,0.0947
1263.00,0.1096
1262.00,0.1236
1261.00,0.1354
1260.00,0.1440
1259.00,0.1486
1258.00,0.1491
1257.00,0.1459
1256.00,0.1397
1255.00,0.1315
1254.00,0.1216
1253.00,0.1106
1252.00,0.0986
1251.00,0.0861
1250.00,0.0738
1249.00,0.0623
1248.00,0.0522
1247.00,0.0438
1246.00,0.0370
1245.00,0.0318
1244.00,0.0277
1243.00,0.0246
1242.00,0.0221
1241.00,0.0202
1240.00,0.0187
1239.00,0.0175
1238.00,0.0165
1237.00,0.0157
1236.00,0.0151
1235.00,0.0146
1234.00,0.0142
1233.00,0.0139
1232.00,0.0137
1231.00,0.0136
1230.00,0.0135
1229.00,0.0135
1228.00,0.0135
1227.00,0.0136
1226.00,0.0137
1225.00,0.0139
1224.00,0.0141
1223.00,0.0144
1222.00,0.0146
1221.00,0.0149
1220.00,0.0152
1219.00,0.0155
1218.00,0.0159
1217.00,0.0163
1216.00,0.0167
1215.00,0.0171
1214.00,0.0176
1213.00,0.0180
1212.00,0.0185
1211.00,0.0190
1210.00,0.0195
1209.00,0.0200
1208.00,0.0205
1207.00,0.0210
1206.00,0.0214
1205.00,0.0218
1204.00,0.0222
1203.00,0.0227
1202.00,0.0230
1201.00,0.0234
1200.00,0.0238
1199.00,0.0241
1198.00,0.0244
1197.00,0.0248
1196.00,0.0251
1195.00,0.0254
1194.00,0.0257
1193.00,0.0260
1192.00,0.0262
1191.00,0.0264
1190.00,0.0265
1189.00,0.0267
1188.00,0.0268
1187.00,0.0269
1186.00,0.0270
1185.00,0.0271
1184.00,0.0272
1183.00,0.0273
1182.00,0.0274
1181.00,0.0275
1180.00,0.0276
1179.00,0.0276
1178.00,0.0277
1177.00,0.0278
1176.00,0.0279
1175.00,0.0280
1174.00,0.0281
1173.00,0.0282
1172.00,0.0282
1171.00,0.0283
1170.00,0.0284
1169.00,0.0285
1168.00,0.0286
1167.00,0.0287
1166.00,0.0288
1165.00,0.0289
1164.00,0.0290
1163.00,0.0291
1162.00,0.0292
1161.00,0.0294
1160.00,0.0296
1159.00,0.0297
1158.00,0.0299
1157.00,0.0301
1156.00,0.0303
1155.00,0.0305
1154.00,0.0307
1153.00,0.0309
1152.00,0.0312
1151.00,0.0314
1150.00,0.0317
1149.00,0.0321
1148.00,0.0324
1147.00,0.0329
1146.00,0.0333
1145.00,0.0338
1144.00,0.0343
1143.00,0.0348
1142.00,0.0354
1141.00,0.0360
1140.00,0.0366
1139.00,0.0373
1138.00,0.0380
1137.00,0.0387
1136.00,0.0395
1135.00,0.0403
1134.00,0.0411
1133.00,0.0421
1132.00,0.0431
1131.00,0.0441
1130.00,0.0453
1129.00,0.0465
1128.00,0.0479
1127.00,0.0493
1126.00,0.0508
1125.00,0.0523
1124.00,0.0540
1123.00,0.0559
1122.00,0.0578
1121.00,0.0599
1120.00,0.0622
1119.00,0.0646
1118.00,0.0672
1117.00,0.0699
1116.00,0.0729
1115.00,0.0760
1114.00,0.0793
1113.00,0.0828
1112.00,0.0865
1111.00,0.0903
1110.00,0.0943
1109.00,0.0984
1108.00,0.1028
1107.00,0.1073
1106.00,0.1120
1105.00,0.1169
1104.00,0.1220
1103.00,0.1271
1102.00,0.1324
1101.00,0.1377
1100.00,0.1432
1099.00,0.1488
1098.00,0.1544
1097.00,0.1601
1096.00,0.1658
1095.00,0.1715
1094.00,0.1772
1093.00,0.1830
1092.00,0.1887
1091.00,0.1942
1090.00,0.1996
1089.00,0.2049
1088.00,0.2099
1087.00,0.2148
1086.00,0.2196
1085.00,0.2242
1084.00,0.2286
1083.00,0.2327
1082.00,0.2365
1081.00,0.2401
1080.00,0.2435
1079.00,0.2466
1078.00,0.2496
1077.00,0.2523
1076.00,0.2549
1075.00,0.2572
1074.00,0.2594
1073.00,0.2613
1072.00,0.2631
1071.00,0.2648
1070.00,0.2664
1069.00,0.2678
1068.00,0.2690
1067.00,0.2701
1066.00,0.2709
1065.00,0.2716
1064.00,0.2722
1063.00,0.2726
1062.00,0.2728
1061.00,0.2730
1060.00,0.2729
1059.00,0.2727
1058.00,0.2723
1057.00,0.2718
1056.00,0.2711
1055.00,0.2705
1054.00,0.2698
1053.00,0.2690
1052.00,0.2680
1051.00,0.2670
1050.00,0.2659
1049.00,0.2649
1048.00,0.2640
1047.00,0.2633
1046.00,0.2626
1045.00,0.2621
1044.00,0.2617
1043.00,0.2615
1042.00,0.2614
1041.00,0.2616
1040.00,0.2619
1039.00,0.2624
1038.00,0.2630
1037.00,0.2639
1036.00,0.2651
1035.00,0.2665
1034.00,0.2683
1033.00,0.2703
1032.00,0.2725
1031.00,0.2750
1030.00,0.2777
1029.00,0.2808
1028.00,0.2842
1027.00,0.2881
1026.00,0.2923
1025.00,0.2969
1024.00,0.3020
1023.00,0.3074
1022.00,0.3132
1021.00,0.3193
1020.00,0.3256
1019.00,0.3319
1018.00,0.3381
1017.00,0.3439
1016.00,0.3490
1015.00,0.3528
1014.00,0.3549
1013.00,0.3548
1012.00,0.3520
1011.00,0.3462
1010.00,0.3374
1009.00,0.3257
1008.00,0.3114
1007.00,0.2950
1006.00,0.2772
1005.00,0.2585
1004.00,0.2395
1003.00,0.2208
1002.00,0.2028
1001.00,0.1859
1000.00,0.1700
999.00,0.1555
998.00,0.1422
997.00,0.1303
996.00,0.1195
995.00,0.1098
994.00,0.1012
993.00,0.0935
992.00,0.0866
991.00,0.0804
990.00,0.0749
989.00,0.0699
988.00,0.0654
987.00,0.0614
986.00,0.0577
985.00,0.0543
984.00,0.0512
983.00,0.0485
982.00,0.0461
981.00,0.0439
980.00,0.0419
979.00,0.0400
978.00,0.0382
977.00,0.0366
976.00,0.0351
975.00,0.0337
974.00,0.0325
973.00,0.0314
972.00,0.0304
971.00,0.0294
970.00,0.0286
969.00,0.0278
968.00,0.0271
967.00,0.0264
966.00,0.0259
965.00,0.0255
964.00,0.0252
963.00,0.0248
962.00,0.0245
961.00,0.0242
960.00,0.0239
959.00,0.0236
958.00,0.0233
957.00,0.0230
956.00,0.0226
955.00,0.0221
954.00,0.0216
953.00,0.0211
952.00,0.0205
951.00,0.0199
950.00,0.0194
949.00,0.0190
948.00,0.0186
947.00,0.0183
946.00,0.0179
945.00,0.0176
944.00,0.0173
943.00,0.0170
942.00,0.0168
941.00,0.0167
940.00,0.0166
939.00,0.0166
938.00,0.0166
937.00,0.0166
936.00,0.0166
935.00,0.0167
934.00,0.0168
933.00,0.0171
932.00,0.0174
931.00,0.0178
930.00,0.0181
929.00,0.0185
928.00,0.0188
927.00,0.0190
926.00,0.0193
925.00,0.0196
924.00,0.0199
923.00,0.0204
922.00,0.0211
921.00,0.0218
920.00,0.0226
919.00,0.0235
918.00,0.0244
917.00,0.0253
916.00,0.0260
915.00,0.0267
914.00,0.0272
913.00,0.0275
912.00,0.0276
911.00,0.0276
910.00,0.0273
909.00,0.0269
908.00,0.0264
907.00,0.0259
906.00,0.0255
905.00,0.0252
904.00,0.0251
903.00,0.0252
902.00,0.0254
901.00,0.0258
900.00,0.0262
899.00,0.0268
898.00,0.0274
897.00,0.0281
896.00,0.0288
895.00,0.0297
894.00,0.0305
893.00,0.0314
892.00,0.0323
891.00,0.0331
890.00,0.0341
889.00,0.0351
888.00,0.0364
887.00,0.0378
886.00,0.0394
885.00,0.0411
884.00,0.0429
883.00,0.0449
882.00,0.0469
881.00,0.0492
880.00,0.0517
879.00,0.0545
878.00,0.0575
877.00,0.0609
876.00,0.0645
875.00,0.0684
874.00,0.0727
873.00,0.0772
872.00,0.0819
871.00,0.0867
870.00,0.0914
869.00,0.0957
868.00,0.0995
867.00,0.1025
866.00,0.1046
865.00,0.1059
864.00,0.1064
863.00,0.1061
862.00,0.1051
861.00,0.1037
860.00,0.1022
859.00,0.1008
858.00,0.0997
857.00,0.0991
856.00,0.0991
855.00,0.0998
854.00,0.1012
853.00,0.1035
852.00,0.1065
851.00,0.1101
850.00,0.1142
849.00,0.1185
848.00,0.1228
847.00,0.1270
846.00,0.1307
845.00,0.1336
844.00,0.1354
843.00,0.1360
842.00,0.1353
841.00,0.1334
840.00,0.1305
839.00,0.1269
838.00,0.1228
837.00,0.1187
836.00,0.1147
835.00,0.1112
834.00,0.1084
833.00,0.1063
832.00,0.1050
831.00,0.1046
830.00,0.1050
829.00,0.1065
828.00,0.1091
827.00,0.1130
826.00,0.1182
825.00,0.1246
824.00,0.1320
823.00,0.1400
822.00,0.1481
821.00,0.1558
820.00,0.1628
819.00,0.1689
818.00,0.1744
817.00,0.1794
816.00,0.1842
815.00,0.1890
814.00,0.1943
813.00,0.2001
812.00,0.2068
811.00,0.2145
810.00,0.2232
809.00,0.2331
808.00,0.2440
807.00,0.2561
806.00,0.2694
805.00,0.2838
804.00,0.2991
803.00,0.3152
802.00,0.3319
801.00,0.3490
800.00,0.3663
