Created as New Dataset,Sample 228 By irlear Date Friday, April 24 2009
cm-1,A
4000.00,0.0016
3999.00,0.0016
3998.00,0.0016
3997.00,0.0016
3996.00,0.0016
3995.00,0.0016
3994.00,0.0016
3993.00,0.0016
3992.00,0.0016
3991.00,0.0016
3990.00,0.0016
3989.00,0.0016
3988.00,0.0016
3987.00,0.0016
3986.00,0.0016
3985.00,0.0016
3984.00,0.0016
3983.00,0.0016
3982.00,0.0016
3981.00,0.0016
3980.00,0.0016
3979.00,0.0016
3978.00,0.0016
3977.00,0.0016
3976.00,0.0016
3975.00,0.0016
3974.00,0.0016
3973.00,0.0016
3972.00,0.0016
3971.00,0.0016
3970.00,0.0016
3969.00,0.0016
3968.00,0.0016
3967.00,0.0016
3966.00,0.0016
3965.00,0.0016
3964.00,0.0016
3963.00,0.0016
3962.00,0.0016
3961.00,0.0016
3960.00,0.0016
3959.00,0.0016
3958.00,0.0016
3957.00,0.0016
3956.00,0.0016
3955.00,0.0015
3954.00,0.0015
3953.00,0.0015
3952.00,0.0016
3951.00,0.0016
3950.00,0.0016
3949.00,0.0016
3948.00,0.0016
3947.00,0.0016
3946.00,0.0016
3945.00,0.0016
3944.00,0.0016
3943.00,0.0016
3942.00,0.0016
3941.00,0.0016
3940.00,0.0016
3939.00,0.0016
3938.00,0.0016
3937.00,0.0016
3936.00,0.0016
3935.00,0.0017
3934.00,0.0017
3933.00,0.0017
3932.00,0.0017
3931.00,0.0017
3930.00,0.0017
3929.00,0.0017
3928.00,0.0017
3927.00,0.0018
3926.00,0.0018
3925.00,0.0018
3924.00,0.0018
3923.00,0.0017
3922.00,0.0017
3921.00,0.0017
3920.00,0.0016
3919.00,0.0016
3918.00,0.0015
3917.00,0.0015
3916.00,0.0015
3915.00,0.0015
3914.00,0.0016
3913.00,0.0016
3912.00,0.0016
3911.00,0.0016
3910.00,0.0016
3909.00,0.0016
3908.00,0.0016
3907.00,0.0016
3906.00,0.0016
3905.00,0.0016
3904.00,0.0016
3903.00,0.0015
3902.00,0.0015
3901.00,0.0015
3900.00,0.0015
3899.00,0.0015
3898.00,0.0014
3897.00,0.0014
3896.00,0.0014
3895.00,0.0014
3894.00,0.0015
3893.00,0.0015
3892.00,0.0015
3891.00,0.0016
3890.00,0.0016
3889.00,0.0015
3888.00,0.0015
3887.00,0.0015
3886.00,0.0015
3885.00,0.0016
3884.00,0.0016
3883.00,0.0017
3882.00,0.0017
3881.00,0.0017
3880.00,0.0017
3879.00,0.0016
3878.00,0.0016
3877.00,0.0016
3876.00,0.0016
3875.00,0.0017
3874.00,0.0017
3873.00,0.0017
3872.00,0.0017
3871.00,0.0017
3870.00,0.0017
3869.00,0.0017
3868.00,0.0017
3867.00,0.0017
3866.00,0.0017
3865.00,0.0017
3864.00,0.0017
3863.00,0.0017
3862.00,0.0017
3861.00,0.0017
3860.00,0.0017
3859.00,0.0016
3858.00,0.0016
3857.00,0.0016
3856.00,0.0015
3855.00,0.0015
3854.00,0.0016
3853.00,0.0016
3852.00,0.0015
3851.00,0.0015
3850.00,0.0016
3849.00,0.0016
3848.00,0.0017
3847.00,0.0016
3846.00,0.0016
3845.00,0.0016
3844.00,0.0016
3843.00,0.0016
3842.00,0.0016
3841.00,0.0016
3840.00,0.0016
3839.00,0.0017
3838.00,0.0017
3837.00,0.0016
3836.00,0.0016
3835.00,0.0016
3834.00,0.0017
3833.00,0.0017
3832.00,0.0017
3831.00,0.0017
3830.00,0.0017
3829.00,0.0017
3828.00,0.0017
3827.00,0.0017
3826.00,0.0017
3825.00,0.0017
3824.00,0.0017
3823.00,0.0017
3822.00,0.0018
3821.00,0.0018
3820.00,0.0018
3819.00,0.0018
3818.00,0.0019
3817.00,0.0019
3816.00,0.0019
3815.00,0.0019
3814.00,0.0019
3813.00,0.0019
3812.00,0.0019
3811.00,0.0019
3810.00,0.0018
3809.00,0.0018
3808.00,0.0018
3807.00,0.0018
3806.00,0.0017
3805.00,0.0017
3804.00,0.0017
3803.00,0.0018
3802.00,0.0018
3801.00,0.0018
3800.00,0.0018
3799.00,0.0019
3798.00,0.0019
3797.00,0.0020
3796.00,0.0020
3795.00,0.0020
3794.00,0.0019
3793.00,0.0019
3792.00,0.0018
3791.00,0.0018
3790.00,0.0018
3789.00,0.0018
3788.00,0.0018
3787.00,0.0018
3786.00,0.0017
3785.00,0.0017
3784.00,0.0017
3783.00,0.0017
3782.00,0.0017
3781.00,0.0017
3780.00,0.0017
3779.00,0.0017
3778.00,0.0017
3777.00,0.0017
3776.00,0.0017
3775.00,0.0017
3774.00,0.0018
3773.00,0.0018
3772.00,0.0018
3771.00,0.0018
3770.00,0.0018
3769.00,0.0018
3768.00,0.0018
3767.00,0.0018
3766.00,0.0019
3765.00,0.0019
3764.00,0.0020
3763.00,0.0020
3762.00,0.0020
3761.00,0.0021
3760.00,0.0020
3759.00,0.0020
3758.00,0.0020
3757.00,0.0019
3756.00,0.0019
3755.00,0.0018
3754.00,0.0018
3753.00,0.0017
3752.00,0.0017
3751.00,0.0017
3750.00,0.0017
3749.00,0.0017
3748.00,0.0017
3747.00,0.0017
3746.00,0.0017
3745.00,0.0017
3744.00,0.0017
3743.00,0.0018
3742.00,0.0018
3741.00,0.0018
3740.00,0.0018
3739.00,0.0018
3738.00,0.0017
3737.00,0.0017
3736.00,0.0017
3735.00,0.0018
3734.00,0.0019
3733.00,0.0019
3732.00,0.0019
3731.00,0.0019
3730.00,0.0019
3729.00,0.0020
3728.00,0.0020
3727.00,0.0020
3726.00,0.0020
3725.00,0.0019
3724.00,0.0018
3723.00,0.0018
3722.00,0.0018
3721.00,0.0018
3720.00,0.0018
3719.00,0.0019
3718.00,0.0019
3717.00,0.0019
3716.00,0.0019
3715.00,0.0019
3714.00,0.0019
3713.00,0.0019
3712.00,0.0019
3711.00,0.0020
3710.00,0.0020
3709.00,0.0020
3708.00,0.0021
3707.00,0.0021
3706.00,0.0021
3705.00,0.0021
3704.00,0.0021
3703.00,0.0021
3702.00,0.0021
3701.00,0.0021
3700.00,0.0021
3699.00,0.0021
3698.00,0.0021
3697.00,0.0021
3696.00,0.0021
3695.00,0.0020
3694.00,0.0020
3693.00,0.0020
3692.00,0.0019
3691.00,0.0019
3690.00,0.0020
3689.00,0.0020
3688.00,0.0020
3687.00,0.0020
3686.00,0.0020
3685.00,0.0020
3684.00,0.0019
3683.00,0.0019
3682.00,0.0019
3681.00,0.0020
3680.00,0.0020
3679.00,0.0020
3678.00,0.0020
3677.00,0.0021
3676.00,0.0022
3675.00,0.0022
3674.00,0.0021
3673.00,0.0020
3672.00,0.0020
3671.00,0.0020
3670.00,0.0021
3669.00,0.0021
3668.00,0.0021
3667.00,0.0021
3666.00,0.0021
3665.00,0.0020
3664.00,0.0020
3663.00,0.0020
3662.00,0.0020
3661.00,0.0020
3660.00,0.0020
3659.00,0.0020
3658.00,0.0021
3657.00,0.0022
3656.00,0.0022
3655.00,0.0023
3654.00,0.0023
3653.00,0.0023
3652.00,0.0023
3651.00,0.0023
3650.00,0.0023
3649.00,0.0023
3648.00,0.0023
3647.00,0.0023
3646.00,0.0023
3645.00,0.0024
3644.00,0.0024
3643.00,0.0025
3642.00,0.0025
3641.00,0.0025
3640.00,0.0025
3639.00,0.0024
3638.00,0.0024
3637.00,0.0024
3636.00,0.0024
3635.00,0.0024
3634.00,0.0024
3633.00,0.0025
3632.00,0.0025
3631.00,0.0025
3630.00,0.0025
3629.00,0.0025
3628.00,0.0025
3627.00,0.0025
3626.00,0.0025
3625.00,0.0025
3624.00,0.0026
3623.00,0.0026
3622.00,0.0026
3621.00,0.0026
3620.00,0.0027
3619.00,0.0027
3618.00,0.0027
3617.00,0.0026
3616.00,0.0026
3615.00,0.0027
3614.00,0.0027
3613.00,0.0027
3612.00,0.0027
3611.00,0.0027
3610.00,0.0027
3609.00,0.0027
3608.00,0.0027
3607.00,0.0027
3606.00,0.0027
3605.00,0.0027
3604.00,0.0027
3603.00,0.0027
3602.00,0.0028
3601.00,0.0028
3600.00,0.0028
3599.00,0.0027
3598.00,0.0027
3597.00,0.0027
3596.00,0.0027
3595.00,0.0027
3594.00,0.0027
3593.00,0.0027
3592.00,0.0027
3591.00,0.0027
3590.00,0.0027
3589.00,0.0027
3588.00,0.0028
3587.00,0.0029
3586.00,0.0029
3585.00,0.0029
3584.00,0.0030
3583.00,0.0030
3582.00,0.0030
3581.00,0.0030
3580.00,0.0030
3579.00,0.0030
3578.00,0.0030
3577.00,0.0030
3576.00,0.0030
3575.00,0.0030
3574.00,0.0030
3573.00,0.0030
3572.00,0.0030
3571.00,0.0030
3570.00,0.0029
3569.00,0.0029
3568.00,0.0029
3567.00,0.0029
3566.00,0.0029
3565.00,0.0029
3564.00,0.0030
3563.00,0.0030
3562.00,0.0030
3561.00,0.0030
3560.00,0.0030
3559.00,0.0029
3558.00,0.0029
3557.00,0.0030
3556.00,0.0030
3555.00,0.0030
3554.00,0.0030
3553.00,0.0030
3552.00,0.0030
3551.00,0.0030
3550.00,0.0031
3549.00,0.0031
3548.00,0.0031
3547.00,0.0031
3546.00,0.0030
3545.00,0.0030
3544.00,0.0030
3543.00,0.0030
3542.00,0.0030
3541.00,0.0031
3540.00,0.0031
3539.00,0.0032
3538.00,0.0032
3537.00,0.0032
3536.00,0.0031
3535.00,0.0031
3534.00,0.0031
3533.00,0.0031
3532.00,0.0032
3531.00,0.0032
3530.00,0.0033
3529.00,0.0033
3528.00,0.0033
3527.00,0.0033
3526.00,0.0033
3525.00,0.0033
3524.00,0.0033
3523.00,0.0032
3522.00,0.0032
3521.00,0.0032
3520.00,0.0032
3519.00,0.0032
3518.00,0.0031
3517.00,0.0031
3516.00,0.0031
3515.00,0.0031
3514.00,0.0032
3513.00,0.0032
3512.00,0.0032
3511.00,0.0033
3510.00,0.0033
3509.00,0.0032
3508.00,0.0032
3507.00,0.0032
3506.00,0.0032
3505.00,0.0032
3504.00,0.0032
3503.00,0.0032
3502.00,0.0031
3501.00,0.0031
3500.00,0.0031
3499.00,0.0031
3498.00,0.0032
3497.00,0.0032
3496.00,0.0032
3495.00,0.0033
3494.00,0.0033
3493.00,0.0033
3492.00,0.0032
3491.00,0.0032
3490.00,0.0032
3489.00,0.0031
3488.00,0.0031
3487.00,0.0031
3486.00,0.0032
3485.00,0.0032
3484.00,0.0032
3483.00,0.0032
3482.00,0.0032
3481.00,0.0031
3480.00,0.0031
3479.00,0.0031
3478.00,0.0032
3477.00,0.0032
3476.00,0.0033
3475.00,0.0033
3474.00,0.0033
3473.00,0.0033
3472.00,0.0032
3471.00,0.0032
3470.00,0.0031
3469.00,0.0031
3468.00,0.0031
3467.00,0.0031
3466.00,0.0031
3465.00,0.0031
3464.00,0.0031
3463.00,0.0031
3462.00,0.0032
3461.00,0.0032
3460.00,0.0032
3459.00,0.0032
3458.00,0.0032
3457.00,0.0032
3456.00,0.0033
3455.00,0.0033
3454.00,0.0033
3453.00,0.0032
3452.00,0.0032
3451.00,0.0032
3450.00,0.0032
3449.00,0.0032
3448.00,0.0032
3447.00,0.0032
3446.00,0.0032
3445.00,0.0032
3444.00,0.0032
3443.00,0.0032
3442.00,0.0032
3441.00,0.0032
3440.00,0.0032
3439.00,0.0032
3438.00,0.0032
3437.00,0.0032
3436.00,0.0032
3435.00,0.0032
3434.00,0.0032
3433.00,0.0032
3432.00,0.0032
3431.00,0.0032
3430.00,0.0032
3429.00,0.0032
3428.00,0.0032
3427.00,0.0032
3426.00,0.0032
3425.00,0.0032
3424.00,0.0032
3423.00,0.0032
3422.00,0.0032
3421.00,0.0031
3420.00,0.0031
3419.00,0.0031
3418.00,0.0031
3417.00,0.0031
3416.00,0.0032
3415.00,0.0032
3414.00,0.0032
3413.00,0.0032
3412.00,0.0032
3411.00,0.0032
3410.00,0.0032
3409.00,0.0033
3408.00,0.0033
3407.00,0.0033
3406.00,0.0033
3405.00,0.0032
3404.00,0.0032
3403.00,0.0032
3402.00,0.0032
3401.00,0.0032
3400.00,0.0032
3399.00,0.0031
3398.00,0.0031
3397.00,0.0031
3396.00,0.0031
3395.00,0.0031
3394.00,0.0032
3393.00,0.0032
3392.00,0.0032
3391.00,0.0032
3390.00,0.0031
3389.00,0.0031
3388.00,0.0031
3387.00,0.0031
3386.00,0.0031
3385.00,0.0031
3384.00,0.0031
3383.00,0.0032
3382.00,0.0032
3381.00,0.0032
3380.00,0.0032
3379.00,0.0031
3378.00,0.0031
3377.00,0.0031
3376.00,0.0031
3375.00,0.0031
3374.00,0.0031
3373.00,0.0031
3372.00,0.0030
3371.00,0.0030
3370.00,0.0030
3369.00,0.0031
3368.00,0.0031
3367.00,0.0032
3366.00,0.0032
3365.00,0.0031
3364.00,0.0031
3363.00,0.0031
3362.00,0.0030
3361.00,0.0030
3360.00,0.0030
3359.00,0.0030
3358.00,0.0031
3357.00,0.0031
3356.00,0.0031
3355.00,0.0031
3354.00,0.0031
3353.00,0.0031
3352.00,0.0031
3351.00,0.0030
3350.00,0.0030
3349.00,0.0029
3348.00,0.0029
3347.00,0.0030
3346.00,0.0030
3345.00,0.0029
3344.00,0.0029
3343.00,0.0029
3342.00,0.0029
3341.00,0.0029
3340.00,0.0029
3339.00,0.0029
3338.00,0.0029
3337.00,0.0029
3336.00,0.0030
3335.00,0.0030
3334.00,0.0030
3333.00,0.0030
3332.00,0.0030
3331.00,0.0030
3330.00,0.0029
3329.00,0.0029
3328.00,0.0029
3327.00,0.0029
3326.00,0.0029
3325.00,0.0029
3324.00,0.0029
3323.00,0.0029
3322.00,0.0029
3321.00,0.0029
3320.00,0.0029
3319.00,0.0029
3318.00,0.0029
3317.00,0.0029
3316.00,0.0029
3315.00,0.0028
3314.00,0.0028
3313.00,0.0028
3312.00,0.0028
3311.00,0.0028
3310.00,0.0028
3309.00,0.0028
3308.00,0.0028
3307.00,0.0028
3306.00,0.0028
3305.00,0.0028
3304.00,0.0028
3303.00,0.0028
3302.00,0.0028
3301.00,0.0029
3300.00,0.0028
3299.00,0.0028
3298.00,0.0028
3297.00,0.0027
3296.00,0.0027
3295.00,0.0027
3294.00,0.0027
3293.00,0.0026
3292.00,0.0026
3291.00,0.0026
3290.00,0.0027
3289.00,0.0027
3288.00,0.0027
3287.00,0.0028
3286.00,0.0028
3285.00,0.0028
3284.00,0.0028
3283.00,0.0028
3282.00,0.0028
3281.00,0.0028
3280.00,0.0028
3279.00,0.0028
3278.00,0.0028
3277.00,0.0027
3276.00,0.0027
3275.00,0.0027
3274.00,0.0027
3273.00,0.0027
3272.00,0.0027
3271.00,0.0027
3270.00,0.0028
3269.00,0.0028
3268.00,0.0028
3267.00,0.0028
3266.00,0.0028
3265.00,0.0027
3264.00,0.0027
3263.00,0.0026
3262.00,0.0026
3261.00,0.0026
3260.00,0.0027
3259.00,0.0027
3258.00,0.0026
3257.00,0.0026
3256.00,0.0026
3255.00,0.0026
3254.00,0.0026
3253.00,0.0026
3252.00,0.0026
3251.00,0.0027
3250.00,0.0027
3249.00,0.0027
3248.00,0.0027
3247.00,0.0028
3246.00,0.0028
3245.00,0.0027
3244.00,0.0027
3243.00,0.0026
3242.00,0.0026
3241.00,0.0025
3240.00,0.0025
3239.00,0.0025
3238.00,0.0025
3237.00,0.0025
3236.00,0.0026
3235.00,0.0026
3234.00,0.0026
3233.00,0.0026
3232.00,0.0026
3231.00,0.0026
3230.00,0.0026
3229.00,0.0026
3228.00,0.0026
3227.00,0.0027
3226.00,0.0026
3225.00,0.0026
3224.00,0.0026
3223.00,0.0025
3222.00,0.0024
3221.00,0.0024
3220.00,0.0024
3219.00,0.0024
3218.00,0.0025
3217.00,0.0025
3216.00,0.0025
3215.00,0.0025
3214.00,0.0025
3213.00,0.0025
3212.00,0.0025
3211.00,0.0025
3210.00,0.0025
3209.00,0.0025
3208.00,0.0024
3207.00,0.0024
3206.00,0.0025
3205.00,0.0025
3204.00,0.0025
3203.00,0.0025
3202.00,0.0025
3201.00,0.0025
3200.00,0.0025
3199.00,0.0025
3198.00,0.0025
3197.00,0.0025
3196.00,0.0025
3195.00,0.0025
3194.00,0.0025
3193.00,0.0025
3192.00,0.0025
3191.00,0.0025
3190.00,0.0025
3189.00,0.0025
3188.00,0.0025
3187.00,0.0025
3186.00,0.0025
3185.00,0.0025
3184.00,0.0025
3183.00,0.0025
3182.00,0.0025
3181.00,0.0024
3180.00,0.0024
3179.00,0.0024
3178.00,0.0025
3177.00,0.0025
3176.00,0.0025
3175.00,0.0025
3174.00,0.0024
3173.00,0.0024
3172.00,0.0024
3171.00,0.0024
3170.00,0.0024
3169.00,0.0023
3168.00,0.0023
3167.00,0.0023
3166.00,0.0023
3165.00,0.0023
3164.00,0.0023
3163.00,0.0024
3162.00,0.0024
3161.00,0.0024
3160.00,0.0024
3159.00,0.0024
3158.00,0.0024
3157.00,0.0025
3156.00,0.0025
3155.00,0.0025
3154.00,0.0025
3153.00,0.0025
3152.00,0.0025
3151.00,0.0025
3150.00,0.0025
3149.00,0.0024
3148.00,0.0024
3147.00,0.0023
3146.00,0.0023
3145.00,0.0023
3144.00,0.0023
3143.00,0.0023
3142.00,0.0023
3141.00,0.0023
3140.00,0.0023
3139.00,0.0024
3138.00,0.0024
3137.00,0.0024
3136.00,0.0024
3135.00,0.0024
3134.00,0.0024
3133.00,0.0024
3132.00,0.0024
3131.00,0.0024
3130.00,0.0024
3129.00,0.0024
3128.00,0.0024
3127.00,0.0024
3126.00,0.0024
3125.00,0.0025
3124.00,0.0025
3123.00,0.0025
3122.00,0.0025
3121.00,0.0025
3120.00,0.0025
3119.00,0.0024
3118.00,0.0024
3117.00,0.0024
3116.00,0.0024
3115.00,0.0024
3114.00,0.0024
3113.00,0.0024
3112.00,0.0024
3111.00,0.0024
3110.00,0.0024
3109.00,0.0024
3108.00,0.0024
3107.00,0.0024
3106.00,0.0025
3105.00,0.0025
3104.00,0.0025
3103.00,0.0025
3102.00,0.0025
3101.00,0.0025
3100.00,0.0025
3099.00,0.0024
3098.00,0.0024
3097.00,0.0024
3096.00,0.0024
3095.00,0.0024
3094.00,0.0024
3093.00,0.0024
3092.00,0.0024
3091.00,0.0024
3090.00,0.0024
3089.00,0.0024
3088.00,0.0024
3087.00,0.0023
3086.00,0.0023
3085.00,0.0023
3084.00,0.0023
3083.00,0.0023
3082.00,0.0024
3081.00,0.0024
3080.00,0.0025
3079.00,0.0025
3078.00,0.0024
3077.00,0.0024
3076.00,0.0024
3075.00,0.0023
3074.00,0.0023
3073.00,0.0023
3072.00,0.0023
3071.00,0.0023
3070.00,0.0024
3069.00,0.0024
3068.00,0.0024
3067.00,0.0025
3066.00,0.0025
3065.00,0.0024
3064.00,0.0024
3063.00,0.0024
3062.00,0.0025
3061.00,0.0026
3060.00,0.0026
3059.00,0.0027
3058.00,0.0027
3057.00,0.0027
3056.00,0.0027
3055.00,0.0027
3054.00,0.0026
3053.00,0.0026
3052.00,0.0025
3051.00,0.0025
3050.00,0.0025
3049.00,0.0025
3048.00,0.0025
3047.00,0.0025
3046.00,0.0025
3045.00,0.0024
3044.00,0.0024
3043.00,0.0023
3042.00,0.0023
3041.00,0.0023
3040.00,0.0023
3039.00,0.0024
3038.00,0.0024
3037.00,0.0025
3036.00,0.0025
3035.00,0.0025
3034.00,0.0025
3033.00,0.0025
3032.00,0.0025
3031.00,0.0024
3030.00,0.0024
3029.00,0.0024
3028.00,0.0024
3027.00,0.0024
3026.00,0.0024
3025.00,0.0024
3024.00,0.0024
3023.00,0.0024
3022.00,0.0025
3021.00,0.0025
3020.00,0.0026
3019.00,0.0027
3018.00,0.0027
3017.00,0.0028
3016.00,0.0028
3015.00,0.0028
3014.00,0.0027
3013.00,0.0027
3012.00,0.0026
3011.00,0.0026
3010.00,0.0026
3009.00,0.0026
3008.00,0.0027
3007.00,0.0027
3006.00,0.0028
3005.00,0.0028
3004.00,0.0028
3003.00,0.0028
3002.00,0.0029
3001.00,0.0029
3000.00,0.0029
2999.00,0.0030
2998.00,0.0030
2997.00,0.0031
2996.00,0.0031
2995.00,0.0032
2994.00,0.0033
2993.00,0.0034
2992.00,0.0036
2991.00,0.0037
2990.00,0.0038
2989.00,0.0040
2988.00,0.0042
2987.00,0.0043
2986.00,0.0046
2985.00,0.0048
2984.00,0.0051
2983.00,0.0055
2982.00,0.0059
2981.00,0.0063
2980.00,0.0068
2979.00,0.0074
2978.00,0.0082
2977.00,0.0090
2976.00,0.0099
2975.00,0.0110
2974.00,0.0122
2973.00,0.0136
2972.00,0.0151
2971.00,0.0168
2970.00,0.0187
2969.00,0.0206
2968.00,0.0226
2967.00,0.0245
2966.00,0.0262
2965.00,0.0277
2964.00,0.0288
2963.00,0.0293
2962.00,0.0294
2961.00,0.0288
2960.00,0.0278
2959.00,0.0262
2958.00,0.0244
2957.00,0.0224
2956.00,0.0203
2955.00,0.0183
2954.00,0.0165
2953.00,0.0148
2952.00,0.0133
2951.00,0.0120
2950.00,0.0108
2949.00,0.0099
2948.00,0.0090
2947.00,0.0082
2946.00,0.0075
2945.00,0.0070
2944.00,0.0065
2943.00,0.0062
2942.00,0.0058
2941.00,0.0056
2940.00,0.0053
2939.00,0.0051
2938.00,0.0049
2937.00,0.0048
2936.00,0.0046
2935.00,0.0045
2934.00,0.0043
2933.00,0.0042
2932.00,0.0041
2931.00,0.0040
2930.00,0.0039
2929.00,0.0039
2928.00,0.0038
2927.00,0.0037
2926.00,0.0036
2925.00,0.0036
2924.00,0.0035
2923.00,0.0035
2922.00,0.0035
2921.00,0.0035
2920.00,0.0036
2919.00,0.0037
2918.00,0.0038
2917.00,0.0039
2916.00,0.0040
2915.00,0.0042
2914.00,0.0043
2913.00,0.0045
2912.00,0.0047
2911.00,0.0049
2910.00,0.0051
2909.00,0.0053
2908.00,0.0056
2907.00,0.0057
2906.00,0.0058
2905.00,0.0059
2904.00,0.0059
2903.00,0.0058
2902.00,0.0057
2901.00,0.0055
2900.00,0.0053
2899.00,0.0051
2898.00,0.0049
2897.00,0.0047
2896.00,0.0045
2895.00,0.0044
2894.00,0.0042
2893.00,0.0041
2892.00,0.0039
2891.00,0.0038
2890.00,0.0037
2889.00,0.0036
2888.00,0.0035
2887.00,0.0034
2886.00,0.0033
2885.00,0.0032
2884.00,0.0032
2883.00,0.0031
2882.00,0.0031
2881.00,0.0031
2880.00,0.0030
2879.00,0.0030
2878.00,0.0030
2877.00,0.0029
2876.00,0.0029
2875.00,0.0028
2874.00,0.0028
2873.00,0.0027
2872.00,0.0026
2871.00,0.0025
2870.00,0.0025
2869.00,0.0024
2868.00,0.0024
2867.00,0.0024
2866.00,0.0024
2865.00,0.0025
2864.00,0.0025
2863.00,0.0025
2862.00,0.0025
2861.00,0.0025
2860.00,0.0025
2859.00,0.0025
2858.00,0.0025
2857.00,0.0024
2856.00,0.0024
2855.00,0.0024
2854.00,0.0023
2853.00,0.0023
2852.00,0.0023
2851.00,0.0022
2850.00,0.0022
2849.00,0.0022
2848.00,0.0022
2847.00,0.0022
2846.00,0.0022
2845.00,0.0022
2844.00,0.0022
2843.00,0.0023
2842.00,0.0023
2841.00,0.0024
2840.00,0.0024
2839.00,0.0024
2838.00,0.0024
2837.00,0.0024
2836.00,0.0024
2835.00,0.0023
2834.00,0.0023
2833.00,0.0023
2832.00,0.0022
2831.00,0.0022
2830.00,0.0022
2829.00,0.0023
2828.00,0.0023
2827.00,0.0024
2826.00,0.0024
2825.00,0.0023
2824.00,0.0023
2823.00,0.0023
2822.00,0.0023
2821.00,0.0023
2820.00,0.0023
2819.00,0.0024
2818.00,0.0024
2817.00,0.0024
2816.00,0.0024
2815.00,0.0024
2814.00,0.0023
2813.00,0.0023
2812.00,0.0023
2811.00,0.0023
2810.00,0.0023
2809.00,0.0023
2808.00,0.0023
2807.00,0.0023
2806.00,0.0023
2805.00,0.0023
2804.00,0.0023
2803.00,0.0023
2802.00,0.0023
2801.00,0.0023
2800.00,0.0023
2799.00,0.0023
2798.00,0.0023
2797.00,0.0024
2796.00,0.0024
2795.00,0.0023
2794.00,0.0023
2793.00,0.0023
2792.00,0.0022
2791.00,0.0022
2790.00,0.0022
2789.00,0.0022
2788.00,0.0022
2787.00,0.0021
2786.00,0.0021
2785.00,0.0021
2784.00,0.0021
2783.00,0.0021
2782.00,0.0020
2781.00,0.0020
2780.00,0.0020
2779.00,0.0020
2778.00,0.0020
2777.00,0.0020
2776.00,0.0019
2775.00,0.0019
2774.00,0.0018
2773.00,0.0018
2772.00,0.0018
2771.00,0.0017
2770.00,0.0017
2769.00,0.0017
2768.00,0.0018
2767.00,0.0018
2766.00,0.0018
2765.00,0.0018
2764.00,0.0018
2763.00,0.0018
2762.00,0.0019
2761.00,0.0019
2760.00,0.0018
2759.00,0.0018
2758.00,0.0018
2757.00,0.0017
2756.00,0.0017
2755.00,0.0017
2754.00,0.0017
2753.00,0.0017
2752.00,0.0017
2751.00,0.0017
2750.00,0.0017
2749.00,0.0017
2748.00,0.0017
2747.00,0.0016
2746.00,0.0016
2745.00,0.0016
2744.00,0.0017
2743.00,0.0017
2742.00,0.0017
2741.00,0.0017
2740.00,0.0017
2739.00,0.0017
2738.00,0.0017
2737.00,0.0017
2736.00,0.0017
2735.00,0.0018
2734.00,0.0018
2733.00,0.0018
2732.00,0.0017
2731.00,0.0017
2730.00,0.0017
2729.00,0.0017
2728.00,0.0017
2727.00,0.0016
2726.00,0.0016
2725.00,0.0016
2724.00,0.0016
2723.00,0.0016
2722.00,0.0016
2721.00,0.0016
2720.00,0.0016
2719.00,0.0016
2718.00,0.0016
2717.00,0.0016
2716.00,0.0016
2715.00,0.0016
2714.00,0.0015
2713.00,0.0015
2712.00,0.0015
2711.00,0.0016
2710.00,0.0016
2709.00,0.0016
2708.00,0.0016
2707.00,0.0016
2706.00,0.0016
2705.00,0.0016
2704.00,0.0016
2703.00,0.0016
2702.00,0.0016
2701.00,0.0016
2700.00,0.0016
2699.00,0.0016
2698.00,0.0016
2697.00,0.0016
2696.00,0.0016
2695.00,0.0016
2694.00,0.0016
2693.00,0.0016
2692.00,0.0016
2691.00,0.0016
2690.00,0.0016
2689.00,0.0016
2688.00,0.0016
2687.00,0.0015
2686.00,0.0015
2685.00,0.0015
2684.00,0.0015
2683.00,0.0016
2682.00,0.0016
2681.00,0.0016
2680.00,0.0016
2679.00,0.0016
2678.00,0.0016
2677.00,0.0017
2676.00,0.0017
2675.00,0.0017
2674.00,0.0017
2673.00,0.0017
2672.00,0.0017
2671.00,0.0017
2670.00,0.0017
2669.00,0.0017
2668.00,0.0017
2667.00,0.0017
2666.00,0.0017
2665.00,0.0017
2664.00,0.0017
2663.00,0.0017
2662.00,0.0017
2661.00,0.0016
2660.00,0.0016
2659.00,0.0016
2658.00,0.0016
2657.00,0.0016
2656.00,0.0016
2655.00,0.0016
2654.00,0.0016
2653.00,0.0017
2652.00,0.0017
2651.00,0.0017
2650.00,0.0017
2649.00,0.0017
2648.00,0.0016
2647.00,0.0016
2646.00,0.0016
2645.00,0.0015
2644.00,0.0015
2643.00,0.0014
2642.00,0.0014
2641.00,0.0013
2640.00,0.0013
2639.00,0.0013
2638.00,0.0013
2637.00,0.0013
2636.00,0.0013
2635.00,0.0013
2634.00,0.0013
2633.00,0.0013
2632.00,0.0013
2631.00,0.0013
2630.00,0.0013
2629.00,0.0013
2628.00,0.0013
2627.00,0.0013
2626.00,0.0013
2625.00,0.0013
2624.00,0.0013
2623.00,0.0012
2622.00,0.0012
2621.00,0.0013
2620.00,0.0013
2619.00,0.0014
2618.00,0.0014
2617.00,0.0014
2616.00,0.0014
2615.00,0.0014
2614.00,0.0014
2613.00,0.0014
2612.00,0.0013
2611.00,0.0013
2610.00,0.0013
2609.00,0.0013
2608.00,0.0012
2607.00,0.0012
2606.00,0.0012
2605.00,0.0012
2604.00,0.0012
2603.00,0.0012
2602.00,0.0012
2601.00,0.0012
2600.00,0.0012
2599.00,0.0012
2598.00,0.0012
2597.00,0.0012
2596.00,0.0012
2595.00,0.0012
2594.00,0.0013
2593.00,0.0013
2592.00,0.0012
2591.00,0.0012
2590.00,0.0012
2589.00,0.0012
2588.00,0.0012
2587.00,0.0013
2586.00,0.0013
2585.00,0.0012
2584.00,0.0012
2583.00,0.0012
2582.00,0.0012
2581.00,0.0012
2580.00,0.0013
2579.00,0.0013
2578.00,0.0013
2577.00,0.0012
2576.00,0.0012
2575.00,0.0011
2574.00,0.0010
2573.00,0.0009
2572.00,0.0008
2571.00,0.0008
2570.00,0.0009
2569.00,0.0010
2568.00,0.0011
2567.00,0.0012
2566.00,0.0012
2565.00,0.0012
2564.00,0.0011
2563.00,0.0011
2562.00,0.0011
2561.00,0.0011
2560.00,0.0011
2559.00,0.0011
2558.00,0.0011
2557.00,0.0011
2556.00,0.0010
2555.00,0.0010
2554.00,0.0010
2553.00,0.0010
2552.00,0.0010
2551.00,0.0010
2550.00,0.0010
2549.00,0.0010
2548.00,0.0009
2547.00,0.0009
2546.00,0.0009
2545.00,0.0009
2544.00,0.0009
2543.00,0.0009
2542.00,0.0010
2541.00,0.0010
2540.00,0.0009
2539.00,0.0009
2538.00,0.0009
2537.00,0.0008
2536.00,0.0008
2535.00,0.0008
2534.00,0.0008
2533.00,0.0008
2532.00,0.0008
2531.00,0.0008
2530.00,0.0008
2529.00,0.0008
2528.00,0.0008
2527.00,0.0008
2526.00,0.0008
2525.00,0.0008
2524.00,0.0008
2523.00,0.0008
2522.00,0.0007
2521.00,0.0007
2520.00,0.0007
2519.00,0.0006
2518.00,0.0006
2517.00,0.0006
2516.00,0.0007
2515.00,0.0007
2514.00,0.0007
2513.00,0.0008
2512.00,0.0008
2511.00,0.0008
2510.00,0.0008
2509.00,0.0008
2508.00,0.0008
2507.00,0.0008
2506.00,0.0008
2505.00,0.0008
2504.00,0.0008
2503.00,0.0009
2502.00,0.0009
2501.00,0.0010
2500.00,0.0011
2499.00,0.0011
2498.00,0.0011
2497.00,0.0011
2496.00,0.0010
2495.00,0.0010
2494.00,0.0010
2493.00,0.0011
2492.00,0.0011
2491.00,0.0011
2490.00,0.0011
2489.00,0.0010
2488.00,0.0010
2487.00,0.0010
2486.00,0.0010
2485.00,0.0010
2484.00,0.0010
2483.00,0.0011
2482.00,0.0011
2481.00,0.0011
2480.00,0.0011
2479.00,0.0011
2478.00,0.0011
2477.00,0.0010
2476.00,0.0010
2475.00,0.0009
2474.00,0.0009
2473.00,0.0008
2472.00,0.0008
2471.00,0.0009
2470.00,0.0009
2469.00,0.0010
2468.00,0.0010
2467.00,0.0010
2466.00,0.0010
2465.00,0.0010
2464.00,0.0010
2463.00,0.0010
2462.00,0.0010
2461.00,0.0009
2460.00,0.0009
2459.00,0.0008
2458.00,0.0009
2457.00,0.0009
2456.00,0.0009
2455.00,0.0010
2454.00,0.0010
2453.00,0.0010
2452.00,0.0010
2451.00,0.0011
2450.00,0.0011
2449.00,0.0011
2448.00,0.0011
2447.00,0.0010
2446.00,0.0009
2445.00,0.0008
2444.00,0.0007
2443.00,0.0007
2442.00,0.0007
2441.00,0.0007
2440.00,0.0008
2439.00,0.0008
2438.00,0.0008
2437.00,0.0008
2436.00,0.0008
2435.00,0.0007
2434.00,0.0007
2433.00,0.0007
2432.00,0.0008
2431.00,0.0008
2430.00,0.0008
2429.00,0.0008
2428.00,0.0008
2427.00,0.0009
2426.00,0.0009
2425.00,0.0010
2424.00,0.0010
2423.00,0.0010
2422.00,0.0010
2421.00,0.0009
2420.00,0.0009
2419.00,0.0009
2418.00,0.0009
2417.00,0.0010
2416.00,0.0010
2415.00,0.0010
2414.00,0.0010
2413.00,0.0011
2412.00,0.0011
2411.00,0.0011
2410.00,0.0011
2409.00,0.0011
2408.00,0.0011
2407.00,0.0011
2406.00,0.0011
2405.00,0.0011
2404.00,0.0011
2403.00,0.0011
2402.00,0.0010
2401.00,0.0010
2400.00,0.0010
2399.00,0.0011
2398.00,0.0011
2397.00,0.0011
2396.00,0.0010
2395.00,0.0010
2394.00,0.0010
2393.00,0.0010
2392.00,0.0010
2391.00,0.0010
2390.00,0.0009
2389.00,0.0009
2388.00,0.0010
2387.00,0.0010
2386.00,0.0011
2385.00,0.0011
2384.00,0.0012
2383.00,0.0012
2382.00,0.0011
2381.00,0.0011
2380.00,0.0011
2379.00,0.0011
2378.00,0.0011
2377.00,0.0012
2376.00,0.0013
2375.00,0.0013
2374.00,0.0013
2373.00,0.0013
2372.00,0.0012
2371.00,0.0012
2370.00,0.0012
2369.00,0.0012
2368.00,0.0012
2367.00,0.0012
2366.00,0.0012
2365.00,0.0012
2364.00,0.0012
2363.00,0.0011
2362.00,0.0011
2361.00,0.0010
2360.00,0.0010
2359.00,0.0011
2358.00,0.0011
2357.00,0.0012
2356.00,0.0013
2355.00,0.0014
2354.00,0.0015
2353.00,0.0015
2352.00,0.0015
2351.00,0.0015
2350.00,0.0015
2349.00,0.0014
2348.00,0.0013
2347.00,0.0013
2346.00,0.0012
2345.00,0.0012
2344.00,0.0011
2343.00,0.0011
2342.00,0.0011
2341.00,0.0012
2340.00,0.0013
2339.00,0.0014
2338.00,0.0014
2337.00,0.0013
2336.00,0.0013
2335.00,0.0012
2334.00,0.0012
2333.00,0.0012
2332.00,0.0013
2331.00,0.0013
2330.00,0.0014
2329.00,0.0014
2328.00,0.0014
2327.00,0.0013
2326.00,0.0013
2325.00,0.0012
2324.00,0.0012
2323.00,0.0011
2322.00,0.0010
2321.00,0.0009
2320.00,0.0009
2319.00,0.0008
2318.00,0.0008
2317.00,0.0008
2316.00,0.0009
2315.00,0.0009
2314.00,0.0010
2313.00,0.0010
2312.00,0.0011
2311.00,0.0012
2310.00,0.0012
2309.00,0.0011
2308.00,0.0010
2307.00,0.0009
2306.00,0.0009
2305.00,0.0009
2304.00,0.0009
2303.00,0.0010
2302.00,0.0010
2301.00,0.0010
2300.00,0.0010
2299.00,0.0011
2298.00,0.0011
2297.00,0.0011
2296.00,0.0010
2295.00,0.0010
2294.00,0.0009
2293.00,0.0008
2292.00,0.0007
2291.00,0.0006
2290.00,0.0005
2289.00,0.0005
2288.00,0.0004
2287.00,0.0004
2286.00,0.0005
2285.00,0.0006
2284.00,0.0006
2283.00,0.0006
2282.00,0.0005
2281.00,0.0005
2280.00,0.0004
2279.00,0.0003
2278.00,0.0003
2277.00,0.0004
2276.00,0.0004
2275.00,0.0004
2274.00,0.0004
2273.00,0.0004
2272.00,0.0003
2271.00,0.0002
2270.00,0.0002
2269.00,0.0001
2268.00,0.0001
2267.00,0.0001
2266.00,0.0002
2265.00,0.0002
2264.00,0.0003
2263.00,0.0004
2262.00,0.0003
2261.00,0.0002
2260.00,0.0002
2259.00,0.0002
2258.00,0.0002
2257.00,0.0003
2256.00,0.0003
2255.00,0.0003
2254.00,0.0003
2253.00,0.0002
2252.00,0.0002
2251.00,0.0001
2250.00,0.0001
2249.00,0.0001
2248.00,0.0001
2247.00,0.0001
2246.00,0.0001
2245.00,0.0001
2244.00,0.0002
2243.00,0.0002
2242.00,0.0002
2241.00,0.0002
2240.00,0.0001
2239.00,0.0001
2238.00,0.0001
2237.00,0.0000
2236.00,0.0000
2235.00,0.0001
2234.00,0.0002
2233.00,0.0003
2232.00,0.0002
2231.00,0.0001
2230.00,-0.0001
2229.00,-0.0002
2228.00,-0.0002
2227.00,-0.0001
2226.00,-0.0000
2225.00,0.0000
2224.00,-0.0000
2223.00,-0.0001
2222.00,-0.0002
2221.00,-0.0002
2220.00,-0.0002
2219.00,-0.0001
2218.00,-0.0001
2217.00,-0.0001
2216.00,-0.0001
2215.00,-0.0002
2214.00,-0.0002
2213.00,-0.0002
2212.00,-0.0003
2211.00,-0.0003
2210.00,-0.0003
2209.00,-0.0003
2208.00,-0.0003
2207.00,-0.0003
2206.00,-0.0003
2205.00,-0.0002
2204.00,-0.0002
2203.00,-0.0003
2202.00,-0.0003
2201.00,-0.0003
2200.00,-0.0003
2199.00,-0.0002
2198.00,-0.0002
2197.00,-0.0002
2196.00,-0.0003
2195.00,-0.0004
2194.00,-0.0006
2193.00,-0.0006
2192.00,-0.0004
2191.00,-0.0002
2190.00,0.0000
2189.00,0.0001
2188.00,0.0001
2187.00,0.0000
2186.00,-0.0001
2185.00,-0.0001
2184.00,-0.0001
2183.00,-0.0001
2182.00,-0.0001
2181.00,-0.0001
2180.00,-0.0002
2179.00,-0.0003
2178.00,-0.0003
2177.00,-0.0004
2176.00,-0.0005
2175.00,-0.0005
2174.00,-0.0005
2173.00,-0.0004
2172.00,-0.0003
2171.00,-0.0002
2170.00,-0.0002
2169.00,-0.0002
2168.00,-0.0002
2167.00,-0.0003
2166.00,-0.0003
2165.00,-0.0004
2164.00,-0.0006
2163.00,-0.0007
2162.00,-0.0007
2161.00,-0.0006
2160.00,-0.0005
2159.00,-0.0005
2158.00,-0.0004
2157.00,-0.0004
2156.00,-0.0003
2155.00,-0.0003
2154.00,-0.0004
2153.00,-0.0005
2152.00,-0.0006
2151.00,-0.0005
2150.00,-0.0004
2149.00,-0.0003
2148.00,-0.0002
2147.00,-0.0003
2146.00,-0.0005
2145.00,-0.0006
2144.00,-0.0007
2143.00,-0.0007
2142.00,-0.0006
2141.00,-0.0005
2140.00,-0.0004
2139.00,-0.0002
2138.00,-0.0002
2137.00,-0.0002
2136.00,-0.0003
2135.00,-0.0004
2134.00,-0.0004
2133.00,-0.0003
2132.00,-0.0002
2131.00,-0.0002
2130.00,-0.0002
2129.00,-0.0002
2128.00,-0.0002
2127.00,-0.0003
2126.00,-0.0003
2125.00,-0.0002
2124.00,-0.0002
2123.00,-0.0002
2122.00,-0.0002
2121.00,-0.0002
2120.00,-0.0002
2119.00,-0.0001
2118.00,-0.0001
2117.00,0.0000
2116.00,0.0000
2115.00,0.0001
2114.00,0.0000
2113.00,-0.0000
2112.00,-0.0001
2111.00,-0.0001
2110.00,-0.0002
2109.00,-0.0001
2108.00,-0.0001
2107.00,-0.0000
2106.00,0.0001
2105.00,0.0002
2104.00,0.0002
2103.00,0.0002
2102.00,0.0002
2101.00,0.0002
2100.00,0.0002
2099.00,0.0002
2098.00,0.0002
2097.00,0.0001
2096.00,0.0000
2095.00,-0.0001
2094.00,-0.0001
2093.00,-0.0000
2092.00,0.0000
2091.00,0.0001
2090.00,0.0001
2089.00,0.0002
2088.00,0.0001
2087.00,-0.0000
2086.00,-0.0002
2085.00,-0.0003
2084.00,-0.0004
2083.00,-0.0005
2082.00,-0.0005
2081.00,-0.0004
2080.00,-0.0004
2079.00,-0.0004
2078.00,-0.0004
2077.00,-0.0004
2076.00,-0.0003
2075.00,-0.0002
2074.00,-0.0001
2073.00,-0.0001
2072.00,-0.0002
2071.00,-0.0003
2070.00,-0.0003
2069.00,-0.0002
2068.00,-0.0001
2067.00,-0.0001
2066.00,-0.0002
2065.00,-0.0002
2064.00,-0.0001
2063.00,-0.0000
2062.00,0.0001
2061.00,0.0002
2060.00,0.0002
2059.00,0.0002
2058.00,0.0001
2057.00,0.0000
2056.00,-0.0001
2055.00,-0.0003
2054.00,-0.0004
2053.00,-0.0004
2052.00,-0.0004
2051.00,-0.0004
2050.00,-0.0003
2049.00,-0.0002
2048.00,-0.0001
2047.00,-0.0002
2046.00,-0.0003
2045.00,-0.0004
2044.00,-0.0004
2043.00,-0.0005
2042.00,-0.0005
2041.00,-0.0006
2040.00,-0.0006
2039.00,-0.0007
2038.00,-0.0008
2037.00,-0.0009
2036.00,-0.0010
2035.00,-0.0012
2034.00,-0.0013
2033.00,-0.0013
2032.00,-0.0011
2031.00,-0.0009
2030.00,-0.0008
2029.00,-0.0008
2028.00,-0.0009
2027.00,-0.0009
2026.00,-0.0009
2025.00,-0.0007
2024.00,-0.0006
2023.00,-0.0006
2022.00,-0.0007
2021.00,-0.0008
2020.00,-0.0009
2019.00,-0.0010
2018.00,-0.0011
2017.00,-0.0011
2016.00,-0.0010
2015.00,-0.0008
2014.00,-0.0007
2013.00,-0.0006
2012.00,-0.0006
2011.00,-0.0007
2010.00,-0.0006
2009.00,-0.0006
2008.00,-0.0005
2007.00,-0.0004
2006.00,-0.0002
2005.00,-0.0001
2004.00,0.0000
2003.00,0.0002
2002.00,0.0002
2001.00,0.0002
2000.00,0.0002
1999.00,0.0002
1998.00,0.0001
1997.00,0.0001
1996.00,0.0001
1995.00,0.0001
1994.00,0.0002
1993.00,0.0002
1992.00,0.0002
1991.00,0.0002
1990.00,0.0002
1989.00,0.0001
1988.00,0.0000
1987.00,-0.0001
1986.00,-0.0003
1985.00,-0.0004
1984.00,-0.0005
1983.00,-0.0004
1982.00,-0.0003
1981.00,-0.0002
1980.00,-0.0001
1979.00,-0.0000
1978.00,0.0001
1977.00,0.0002
1976.00,0.0004
1975.00,0.0005
1974.00,0.0006
1973.00,0.0005
1972.00,0.0004
1971.00,0.0002
1970.00,-0.0000
1969.00,-0.0002
1968.00,-0.0003
1967.00,-0.0004
1966.00,-0.0003
1965.00,-0.0001
1964.00,0.0001
1963.00,0.0002
1962.00,0.0004
1961.00,0.0006
1960.00,0.0008
1959.00,0.0010
1958.00,0.0010
1957.00,0.0009
1956.00,0.0008
1955.00,0.0006
1954.00,0.0006
1953.00,0.0007
1952.00,0.0008
1951.00,0.0009
1950.00,0.0010
1949.00,0.0010
1948.00,0.0011
1947.00,0.0011
1946.00,0.0012
1945.00,0.0011
1944.00,0.0011
1943.00,0.0010
1942.00,0.0010
1941.00,0.0010
1940.00,0.0010
1939.00,0.0010
1938.00,0.0010
1937.00,0.0010
1936.00,0.0010
1935.00,0.0010
1934.00,0.0010
1933.00,0.0010
1932.00,0.0009
1931.00,0.0009
1930.00,0.0010
1929.00,0.0010
1928.00,0.0010
1927.00,0.0010
1926.00,0.0010
1925.00,0.0010
1924.00,0.0010
1923.00,0.0010
1922.00,0.0011
1921.00,0.0011
1920.00,0.0012
1919.00,0.0013
1918.00,0.0014
1917.00,0.0015
1916.00,0.0015
1915.00,0.0014
1914.00,0.0012
1913.00,0.0011
1912.00,0.0010
1911.00,0.0010
1910.00,0.0011
1909.00,0.0012
1908.00,0.0012
1907.00,0.0011
1906.00,0.0010
1905.00,0.0009
1904.00,0.0009
1903.00,0.0010
1902.00,0.0010
1901.00,0.0011
1900.00,0.0012
1899.00,0.0012
1898.00,0.0012
1897.00,0.0013
1896.00,0.0013
1895.00,0.0012
1894.00,0.0012
1893.00,0.0013
1892.00,0.0013
1891.00,0.0012
1890.00,0.0012
1889.00,0.0012
1888.00,0.0012
1887.00,0.0013
1886.00,0.0014
1885.00,0.0014
1884.00,0.0014
1883.00,0.0014
1882.00,0.0014
1881.00,0.0014
1880.00,0.0013
1879.00,0.0013
1878.00,0.0012
1877.00,0.0012
1876.00,0.0012
1875.00,0.0012
1874.00,0.0013
1873.00,0.0013
1872.00,0.0013
1871.00,0.0013
1870.00,0.0013
1869.00,0.0013
1868.00,0.0013
1867.00,0.0013
1866.00,0.0013
1865.00,0.0014
1864.00,0.0014
1863.00,0.0014
1862.00,0.0015
1861.00,0.0015
1860.00,0.0015
1859.00,0.0015
1858.00,0.0015
1857.00,0.0014
1856.00,0.0014
1855.00,0.0014
1854.00,0.0014
1853.00,0.0015
1852.00,0.0015
1851.00,0.0015
1850.00,0.0015
1849.00,0.0014
1848.00,0.0014
1847.00,0.0013
1846.00,0.0013
1845.00,0.0013
1844.00,0.0014
1843.00,0.0014
1842.00,0.0015
1841.00,0.0015
1840.00,0.0015
1839.00,0.0015
1838.00,0.0015
1837.00,0.0015
1836.00,0.0015
1835.00,0.0015
1834.00,0.0015
1833.00,0.0016
1832.00,0.0016
1831.00,0.0016
1830.00,0.0017
1829.00,0.0017
1828.00,0.0017
1827.00,0.0017
1826.00,0.0017
1825.00,0.0016
1824.00,0.0016
1823.00,0.0016
1822.00,0.0015
1821.00,0.0015
1820.00,0.0016
1819.00,0.0016
1818.00,0.0017
1817.00,0.0017
1816.00,0.0017
1815.00,0.0017
1814.00,0.0016
1813.00,0.0016
1812.00,0.0016
1811.00,0.0016
1810.00,0.0017
1809.00,0.0017
1808.00,0.0017
1807.00,0.0017
1806.00,0.0017
1805.00,0.0018
1804.00,0.0018
1803.00,0.0019
1802.00,0.0019
1801.00,0.0019
1800.00,0.0019
1799.00,0.0019
1798.00,0.0019
1797.00,0.0019
1796.00,0.0019
1795.00,0.0020
1794.00,0.0020
1793.00,0.0020
1792.00,0.0019
1791.00,0.0020
1790.00,0.0020
1789.00,0.0021
1788.00,0.0021
1787.00,0.0021
1786.00,0.0021
1785.00,0.0021
1784.00,0.0021
1783.00,0.0021
1782.00,0.0021
1781.00,0.0021
1780.00,0.0021
1779.00,0.0021
1778.00,0.0021
1777.00,0.0021
1776.00,0.0022
1775.00,0.0022
1774.00,0.0022
1773.00,0.0021
1772.00,0.0021
1771.00,0.0021
1770.00,0.0021
1769.00,0.0021
1768.00,0.0021
1767.00,0.0021
1766.00,0.0021
1765.00,0.0021
1764.00,0.0021
1763.00,0.0021
1762.00,0.0021
1761.00,0.0021
1760.00,0.0021
1759.00,0.0021
1758.00,0.0021
1757.00,0.0021
1756.00,0.0021
1755.00,0.0021
1754.00,0.0022
1753.00,0.0022
1752.00,0.0022
1751.00,0.0022
1750.00,0.0022
1749.00,0.0022
1748.00,0.0022
1747.00,0.0022
1746.00,0.0021
1745.00,0.0021
1744.00,0.0021
1743.00,0.0021
1742.00,0.0021
1741.00,0.0021
1740.00,0.0022
1739.00,0.0022
1738.00,0.0021
1737.00,0.0021
1736.00,0.0021
1735.00,0.0021
1734.00,0.0021
1733.00,0.0022
1732.00,0.0022
1731.00,0.0022
1730.00,0.0023
1729.00,0.0023
1728.00,0.0023
1727.00,0.0023
1726.00,0.0023
1725.00,0.0023
1724.00,0.0023
1723.00,0.0023
1722.00,0.0023
1721.00,0.0023
1720.00,0.0023
1719.00,0.0024
1718.00,0.0024
1717.00,0.0024
1716.00,0.0024
1715.00,0.0024
1714.00,0.0024
1713.00,0.0024
1712.00,0.0024
1711.00,0.0024
1710.00,0.0024
1709.00,0.0024
1708.00,0.0024
1707.00,0.0025
1706.00,0.0025
1705.00,0.0025
1704.00,0.0025
1703.00,0.0024
1702.00,0.0024
1701.00,0.0024
1700.00,0.0025
1699.00,0.0026
1698.00,0.0026
1697.00,0.0027
1696.00,0.0026
1695.00,0.0026
1694.00,0.0025
1693.00,0.0025
1692.00,0.0025
1691.00,0.0025
1690.00,0.0025
1689.00,0.0026
1688.00,0.0026
1687.00,0.0027
1686.00,0.0028
1685.00,0.0029
1684.00,0.0028
1683.00,0.0028
1682.00,0.0028
1681.00,0.0028
1680.00,0.0028
1679.00,0.0028
1678.00,0.0028
1677.00,0.0028
1676.00,0.0028
1675.00,0.0028
1674.00,0.0028
1673.00,0.0028
1672.00,0.0028
1671.00,0.0028
1670.00,0.0028
1669.00,0.0029
1668.00,0.0028
1667.00,0.0028
1666.00,0.0028
1665.00,0.0028
1664.00,0.0029
1663.00,0.0029
1662.00,0.0030
1661.00,0.0030
1660.00,0.0031
1659.00,0.0031
1658.00,0.0031
1657.00,0.0031
1656.00,0.0031
1655.00,0.0031
1654.00,0.0031
1653.00,0.0031
1652.00,0.0031
1651.00,0.0032
1650.00,0.0032
1649.00,0.0032
1648.00,0.0032
1647.00,0.0032
1646.00,0.0032
1645.00,0.0032
1644.00,0.0032
1643.00,0.0032
1642.00,0.0033
1641.00,0.0033
1640.00,0.0033
1639.00,0.0033
1638.00,0.0033
1637.00,0.0033
1636.00,0.0033
1635.00,0.0033
1634.00,0.0033
1633.00,0.0033
1632.00,0.0033
1631.00,0.0033
1630.00,0.0033
1629.00,0.0033
1628.00,0.0033
1627.00,0.0033
1626.00,0.0033
1625.00,0.0033
1624.00,0.0033
1623.00,0.0033
1622.00,0.0034
1621.00,0.0034
1620.00,0.0033
1619.00,0.0033
1618.00,0.0033
1617.00,0.0033
1616.00,0.0033
1615.00,0.0034
1614.00,0.0034
1613.00,0.0035
1612.00,0.0035
1611.00,0.0035
1610.00,0.0035
1609.00,0.0035
1608.00,0.0034
1607.00,0.0035
1606.00,0.0035
1605.00,0.0035
1604.00,0.0035
1603.00,0.0035
1602.00,0.0035
1601.00,0.0036
1600.00,0.0036
1599.00,0.0037
1598.00,0.0037
1597.00,0.0037
1596.00,0.0036
1595.00,0.0036
1594.00,0.0035
1593.00,0.0035
1592.00,0.0034
1591.00,0.0034
1590.00,0.0033
1589.00,0.0033
1588.00,0.0033
1587.00,0.0032
1586.00,0.0032
1585.00,0.0032
1584.00,0.0032
1583.00,0.0031
1582.00,0.0031
1581.00,0.0031
1580.00,0.0032
1579.00,0.0032
1578.00,0.0032
1577.00,0.0032
1576.00,0.0032
1575.00,0.0031
1574.00,0.0031
1573.00,0.0031
1572.00,0.0031
1571.00,0.0030
1570.00,0.0030
1569.00,0.0029
1568.00,0.0029
1567.00,0.0030
1566.00,0.0030
1565.00,0.0030
1564.00,0.0030
1563.00,0.0030
1562.00,0.0030
1561.00,0.0030
1560.00,0.0031
1559.00,0.0030
1558.00,0.0030
1557.00,0.0030
1556.00,0.0030
1555.00,0.0030
1554.00,0.0030
1553.00,0.0030
1552.00,0.0030
1551.00,0.0029
1550.00,0.0029
1549.00,0.0029
1548.00,0.0029
1547.00,0.0029
1546.00,0.0029
1545.00,0.0030
1544.00,0.0030
1543.00,0.0029
1542.00,0.0029
1541.00,0.0029
1540.00,0.0029
1539.00,0.0029
1538.00,0.0029
1537.00,0.0029
1536.00,0.0029
1535.00,0.0029
1534.00,0.0029
1533.00,0.0028
1532.00,0.0028
1531.00,0.0028
1530.00,0.0028
1529.00,0.0028
1528.00,0.0028
1527.00,0.0028
1526.00,0.0028
1525.00,0.0028
1524.00,0.0028
1523.00,0.0029
1522.00,0.0029
1521.00,0.0029
1520.00,0.0029
1519.00,0.0029
1518.00,0.0029
1517.00,0.0029
1516.00,0.0029
1515.00,0.0029
1514.00,0.0029
1513.00,0.0029
1512.00,0.0029
1511.00,0.0029
1510.00,0.0029
1509.00,0.0029
1508.00,0.0029
1507.00,0.0028
1506.00,0.0028
1505.00,0.0028
1504.00,0.0028
1503.00,0.0028
1502.00,0.0028
1501.00,0.0028
1500.00,0.0028
1499.00,0.0028
1498.00,0.0029
1497.00,0.0029
1496.00,0.0029
1495.00,0.0029
1494.00,0.0029
1493.00,0.0029
1492.00,0.0029
1491.00,0.0030
1490.00,0.0031
1489.00,0.0032
1488.00,0.0032
1487.00,0.0033
1486.00,0.0033
1485.00,0.0033
1484.00,0.0033
1483.00,0.0033
1482.00,0.0033
1481.00,0.0033
1480.00,0.0033
1479.00,0.0033
1478.00,0.0033
1477.00,0.0033
1476.00,0.0033
1475.00,0.0033
1474.00,0.0033
1473.00,0.0033
1472.00,0.0033
1471.00,0.0033
1470.00,0.0034
1469.00,0.0034
1468.00,0.0034
1467.00,0.0035
1466.00,0.0036
1465.00,0.0037
1464.00,0.0037
1463.00,0.0038
1462.00,0.0039
1461.00,0.0040
1460.00,0.0041
1459.00,0.0042
1458.00,0.0043
1457.00,0.0044
1456.00,0.0046
1455.00,0.0047
1454.00,0.0049
1453.00,0.0050
1452.00,0.0052
1451.00,0.0053
1450.00,0.0054
1449.00,0.0056
1448.00,0.0057
1447.00,0.0058
1446.00,0.0058
1445.00,0.0059
1444.00,0.0058
1443.00,0.0058
1442.00,0.0057
1441.00,0.0056
1440.00,0.0055
1439.00,0.0054
1438.00,0.0054
1437.00,0.0053
1436.00,0.0052
1435.00,0.0051
1434.00,0.0051
1433.00,0.0051
1432.00,0.0051
1431.00,0.0051
1430.00,0.0052
1429.00,0.0053
1428.00,0.0055
1427.00,0.0057
1426.00,0.0059
1425.00,0.0062
1424.00,0.0065
1423.00,0.0069
1422.00,0.0073
1421.00,0.0077
1420.00,0.0082
1419.00,0.0089
1418.00,0.0095
1417.00,0.0100
1416.00,0.0103
1415.00,0.0106
1414.00,0.0108
1413.00,0.0110
1412.00,0.0110
1411.00,0.0111
1410.00,0.0110
1409.00,0.0109
1408.00,0.0108
1407.00,0.0106
1406.00,0.0104
1405.00,0.0102
1404.00,0.0101
1403.00,0.0099
1402.00,0.0098
1401.00,0.0096
1400.00,0.0094
1399.00,0.0090
1398.00,0.0087
1397.00,0.0083
1396.00,0.0079
1395.00,0.0074
1394.00,0.0070
1393.00,0.0066
1392.00,0.0062
1391.00,0.0060
1390.00,0.0057
1389.00,0.0055
1388.00,0.0054
1387.00,0.0052
1386.00,0.0050
1385.00,0.0049
1384.00,0.0048
1383.00,0.0047
1382.00,0.0046
1381.00,0.0045
1380.00,0.0044
1379.00,0.0044
1378.00,0.0043
1377.00,0.0043
1376.00,0.0042
1375.00,0.0042
1374.00,0.0042
1373.00,0.0042
1372.00,0.0042
1371.00,0.0042
1370.00,0.0041
1369.00,0.0041
1368.00,0.0040
1367.00,0.0040
1366.00,0.0040
1365.00,0.0039
1364.00,0.0039
1363.00,0.0039
1362.00,0.0039
1361.00,0.0039
1360.00,0.0039
1359.00,0.0038
1358.00,0.0038
1357.00,0.0038
1356.00,0.0037
1355.00,0.0037
1354.00,0.0037
1353.00,0.0036
1352.00,0.0036
1351.00,0.0036
1350.00,0.0036
1349.00,0.0036
1348.00,0.0037
1347.00,0.0037
1346.00,0.0037
1345.00,0.0037
1344.00,0.0037
1343.00,0.0037
1342.00,0.0037
1341.00,0.0037
1340.00,0.0037
1339.00,0.0037
1338.00,0.0038
1337.00,0.0038
1336.00,0.0038
1335.00,0.0038
1334.00,0.0037
1333.00,0.0037
1332.00,0.0038
1331.00,0.0038
1330.00,0.0038
1329.00,0.0038
1328.00,0.0039
1327.00,0.0039
1326.00,0.0040
1325.00,0.0040
1324.00,0.0041
1323.00,0.0041
1322.00,0.0041
1321.00,0.0042
1320.00,0.0042
1319.00,0.0043
1318.00,0.0043
1317.00,0.0044
1316.00,0.0045
1315.00,0.0045
1314.00,0.0045
1313.00,0.0046
1312.00,0.0046
1311.00,0.0047
1310.00,0.0048
1309.00,0.0048
1308.00,0.0049
1307.00,0.0050
1306.00,0.0051
1305.00,0.0051
1304.00,0.0052
1303.00,0.0052
1302.00,0.0053
1301.00,0.0054
1300.00,0.0055
1299.00,0.0056
1298.00,0.0057
1297.00,0.0059
1296.00,0.0060
1295.00,0.0062
1294.00,0.0063
1293.00,0.0065
1292.00,0.0067
1291.00,0.0068
1290.00,0.0071
1289.00,0.0073
1288.00,0.0076
1287.00,0.0078
1286.00,0.0082
1285.00,0.0085
1284.00,0.0088
1283.00,0.0092
1282.00,0.0096
1281.00,0.0100
1280.00,0.0106
1279.00,0.0113
1278.00,0.0122
1277.00,0.0132
1276.00,0.0143
1275.00,0.0157
1274.00,0.0175
1273.00,0.0197
1272.00,0.0225
1271.00,0.0262
1270.00,0.0310
1269.00,0.0372
1268.00,0.0451
1267.00,0.0549
1266.00,0.0666
1265.00,0.0800
1264.00,0.0945
1263.00,0.1092
1262.00,0.1231
1261.00,0.1349
1260.00,0.1434
1259.00,0.1482
1258.00,0.1489
1257.00,0.1460
1256.00,0.1401
1255.00,0.1321
1254.00,0.1225
1253.00,0.1115
1252.00,0.0996
1251.00,0.0871
1250.00,0.0748
1249.00,0.0633
1248.00,0.0531
1247.00,0.0445
1246.00,0.0376
1245.00,0.0322
1244.00,0.0280
1243.00,0.0248
1242.00,0.0224
1241.00,0.0204
1240.00,0.0189
1239.00,0.0177
1238.00,0.0167
1237.00,0.0159
1236.00,0.0152
1235.00,0.0147
1234.00,0.0144
1233.00,0.0141
1232.00,0.0138
1231.00,0.0137
1230.00,0.0135
1229.00,0.0135
1228.00,0.0135
1227.00,0.0137
1226.00,0.0138
1225.00,0.0140
1224.00,0.0143
1223.00,0.0145
1222.00,0.0148
1221.00,0.0150
1220.00,0.0153
1219.00,0.0156
1218.00,0.0160
1217.00,0.0164
1216.00,0.0168
1215.00,0.0172
1214.00,0.0177
1213.00,0.0182
1212.00,0.0187
1211.00,0.0192
1210.00,0.0197
1209.00,0.0202
1208.00,0.0207
1207.00,0.0212
1206.00,0.0216
1205.00,0.0221
1204.00,0.0225
1203.00,0.0229
1202.00,0.0234
1201.00,0.0238
1200.00,0.0242
1199.00,0.0245
1198.00,0.0248
1197.00,0.0252
1196.00,0.0255
1195.00,0.0258
1194.00,0.0260
1193.00,0.0263
1192.00,0.0265
1191.00,0.0267
1190.00,0.0269
1189.00,0.0271
1188.00,0.0273
1187.00,0.0274
1186.00,0.0275
1185.00,0.0276
1184.00,0.0277
1183.00,0.0277
1182.00,0.0278
1181.00,0.0279
1180.00,0.0279
1179.00,0.0280
1178.00,0.0281
1177.00,0.0282
1176.00,0.0283
1175.00,0.0284
1174.00,0.0285
1173.00,0.0285
1172.00,0.0286
1171.00,0.0287
1170.00,0.0287
1169.00,0.0288
1168.00,0.0288
1167.00,0.0289
1166.00,0.0290
1165.00,0.0292
1164.00,0.0293
1163.00,0.0294
1162.00,0.0296
1161.00,0.0297
1160.00,0.0298
1159.00,0.0300
1158.00,0.0301
1157.00,0.0303
1156.00,0.0306
1155.00,0.0308
1154.00,0.0310
1153.00,0.0312
1152.00,0.0315
1151.00,0.0318
1150.00,0.0321
1149.00,0.0325
1148.00,0.0330
1147.00,0.0335
1146.00,0.0340
1145.00,0.0345
1144.00,0.0351
1143.00,0.0357
1142.00,0.0364
1141.00,0.0370
1140.00,0.0376
1139.00,0.0383
1138.00,0.0390
1137.00,0.0397
1136.00,0.0404
1135.00,0.0411
1134.00,0.0418
1133.00,0.0426
1132.00,0.0435
1131.00,0.0445
1130.00,0.0456
1129.00,0.0468
1128.00,0.0480
1127.00,0.0494
1126.00,0.0509
1125.00,0.0524
1124.00,0.0541
1123.00,0.0559
1122.00,0.0578
1121.00,0.0599
1120.00,0.0622
1119.00,0.0646
1118.00,0.0672
1117.00,0.0700
1116.00,0.0729
1115.00,0.0760
1114.00,0.0793
1113.00,0.0828
1112.00,0.0864
1111.00,0.0903
1110.00,0.0943
1109.00,0.0984
1108.00,0.1027
1107.00,0.1072
1106.00,0.1119
1105.00,0.1168
1104.00,0.1219
1103.00,0.1271
1102.00,0.1323
1101.00,0.1377
1100.00,0.1431
1099.00,0.1487
1098.00,0.1544
1097.00,0.1601
1096.00,0.1659
1095.00,0.1717
1094.00,0.1774
1093.00,0.1831
1092.00,0.1888
1091.00,0.1943
1090.00,0.1998
1089.00,0.2050
1088.00,0.2101
1087.00,0.2150
1086.00,0.2198
1085.00,0.2245
1084.00,0.2290
1083.00,0.2333
1082.00,0.2373
1081.00,0.2410
1080.00,0.2444
1079.00,0.2475
1078.00,0.2504
1077.00,0.2531
1076.00,0.2557
1075.00,0.2581
1074.00,0.2604
1073.00,0.2624
1072.00,0.2644
1071.00,0.2661
1070.00,0.2677
1069.00,0.2690
1068.00,0.2702
1067.00,0.2713
1066.00,0.2722
1065.00,0.2730
1064.00,0.2737
1063.00,0.2742
1062.00,0.2746
1061.00,0.2747
1060.00,0.2747
1059.00,0.2744
1058.00,0.2740
1057.00,0.2735
1056.00,0.2729
1055.00,0.2723
1054.00,0.2717
1053.00,0.2710
1052.00,0.2704
1051.00,0.2696
1050.00,0.2687
1049.00,0.2678
1048.00,0.2670
1047.00,0.2661
1046.00,0.2654
1045.00,0.2648
1044.00,0.2643
1043.00,0.2641
1042.00,0.2641
1041.00,0.2642
1040.00,0.2646
1039.00,0.2651
1038.00,0.2657
1037.00,0.2666
1036.00,0.2677
1035.00,0.2691
1034.00,0.2708
1033.00,0.2728
1032.00,0.2751
1031.00,0.2778
1030.00,0.2807
1029.00,0.2840
1028.00,0.2877
1027.00,0.2917
1026.00,0.2962
1025.00,0.3010
1024.00,0.3062
1023.00,0.3118
1022.00,0.3178
1021.00,0.3240
1020.00,0.3304
1019.00,0.3368
1018.00,0.3431
1017.00,0.3489
1016.00,0.3539
1015.00,0.3577
1014.00,0.3599
1013.00,0.3598
1012.00,0.3570
1011.00,0.3511
1010.00,0.3421
1009.00,0.3300
1008.00,0.3154
1007.00,0.2987
1006.00,0.2805
1005.00,0.2615
1004.00,0.2423
1003.00,0.2235
1002.00,0.2054
1001.00,0.1883
1000.00,0.1725
999.00,0.1579
998.00,0.1446
997.00,0.1326
996.00,0.1218
995.00,0.1122
994.00,0.1036
993.00,0.0958
992.00,0.0888
991.00,0.0826
990.00,0.0769
989.00,0.0719
988.00,0.0673
987.00,0.0631
986.00,0.0592
985.00,0.0557
984.00,0.0526
983.00,0.0497
982.00,0.0471
981.00,0.0447
980.00,0.0426
979.00,0.0407
978.00,0.0389
977.00,0.0373
976.00,0.0357
975.00,0.0343
974.00,0.0331
973.00,0.0320
972.00,0.0309
971.00,0.0299
970.00,0.0289
969.00,0.0280
968.00,0.0272
967.00,0.0266
966.00,0.0260
965.00,0.0255
964.00,0.0250
963.00,0.0246
962.00,0.0242
961.00,0.0238
960.00,0.0235
959.00,0.0231
958.00,0.0227
957.00,0.0224
956.00,0.0220
955.00,0.0215
954.00,0.0211
953.00,0.0206
952.00,0.0202
951.00,0.0197
950.00,0.0193
949.00,0.0189
948.00,0.0185
947.00,0.0181
946.00,0.0178
945.00,0.0175
944.00,0.0172
943.00,0.0170
942.00,0.0168
941.00,0.0166
940.00,0.0165
939.00,0.0165
938.00,0.0165
937.00,0.0165
936.00,0.0165
935.00,0.0166
934.00,0.0167
933.00,0.0168
932.00,0.0169
931.00,0.0171
930.00,0.0174
929.00,0.0177
928.00,0.0180
927.00,0.0183
926.00,0.0185
925.00,0.0188
924.00,0.0191
923.00,0.0195
922.00,0.0201
921.00,0.0209
920.00,0.0218
919.00,0.0228
918.00,0.0237
917.00,0.0247
916.00,0.0256
915.00,0.0263
914.00,0.0270
913.00,0.0275
912.00,0.0278
911.00,0.0279
910.00,0.0278
909.00,0.0276
908.00,0.0271
907.00,0.0266
906.00,0.0262
905.00,0.0258
904.00,0.0256
903.00,0.0255
902.00,0.0255
901.00,0.0257
900.00,0.0259
899.00,0.0262
898.00,0.0266
897.00,0.0271
896.00,0.0276
895.00,0.0283
894.00,0.0290
893.00,0.0298
892.00,0.0307
891.00,0.0317
890.00,0.0327
889.00,0.0338
888.00,0.0350
887.00,0.0363
886.00,0.0378
885.00,0.0395
884.00,0.0414
883.00,0.0435
882.00,0.0458
881.00,0.0483
880.00,0.0510
879.00,0.0539
878.00,0.0570
877.00,0.0605
876.00,0.0641
875.00,0.0681
874.00,0.0724
873.00,0.0769
872.00,0.0817
871.00,0.0866
870.00,0.0913
869.00,0.0957
868.00,0.0996
867.00,0.1026
866.00,0.1047
865.00,0.1060
864.00,0.1063
863.00,0.1060
862.00,0.1050
861.00,0.1037
860.00,0.1022
859.00,0.1008
858.00,0.0997
857.00,0.0991
856.00,0.0991
855.00,0.0998
854.00,0.1012
853.00,0.1034
852.00,0.1064
851.00,0.1099
850.00,0.1140
849.00,0.1183
848.00,0.1227
847.00,0.1269
846.00,0.1306
845.00,0.1333
844.00,0.1350
843.00,0.1354
842.00,0.1345
841.00,0.1324
840.00,0.1293
839.00,0.1254
838.00,0.1211
837.00,0.1167
836.00,0.1126
835.00,0.1091
834.00,0.1063
833.00,0.1043
832.00,0.1031
831.00,0.1027
830.00,0.1032
829.00,0.1046
828.00,0.1071
827.00,0.1108
826.00,0.1159
825.00,0.1223
824.00,0.1298
823.00,0.1379
822.00,0.1460
821.00,0.1537
820.00,0.1608
819.00,0.1670
818.00,0.1725
817.00,0.1775
816.00,0.1823
815.00,0.1872
814.00,0.1925
813.00,0.1983
812.00,0.2050
811.00,0.2126
810.00,0.2214
809.00,0.2313
808.00,0.2424
807.00,0.2546
806.00,0.2678
805.00,0.2821
804.00,0.2973
803.00,0.3133
802.00,0.3299
801.00,0.3469
800.00,0.3642
